    HOUR (UT)   FLARE FACTOR    SKY TESTER    SUN TESTER
   12.23527813   -1.00000000   -1.00000000   -1.00000000
   12.25583363  262.62200928    0.95999998    1.73000002
   12.26166630  286.80099487    1.00000000    1.73000002
   12.26472187  329.53601074    1.01999998    1.73000002
   12.26805496  294.44100952    1.01999998    1.75000000
   12.27111053  239.14300537    1.01999998    1.75000000
   12.27444458  226.74000549    1.01999998    1.75000000
   12.27805519  326.54800415    1.01999998    1.75000000
   12.28166676  196.94000244    1.03999996    1.75000000
   12.28472233  245.20100403    1.03999996    1.76999998
   12.28805637  239.50599670    1.05999994    1.76999998
   12.28916740  188.86300659    1.05999994    1.76999998
   12.29166698  182.78799438    1.05999994    1.76999998
   12.29500008  228.72099304    1.07000005    1.78999996
   12.29833412  239.70500183    1.07000005    1.76999998
   12.30166721  222.32299805    1.09000003    1.76999998
   12.30472279  245.73599243    1.09000003    1.76999998
   12.30805588  247.86799622    1.09000003    1.76999998
   12.31138897  239.04200745    1.11000001    1.76999998
   12.31444454  190.11300659    1.11000001    1.78999996
   12.31777763  181.52699280    1.11000001    1.78999996
   12.32083321  215.41799927    1.11000001    1.78999996
   12.32250023  246.68400574    1.13000000    1.78999996
   12.32444477  247.08799744    1.13000000    1.78999996
   12.32777786  220.65499878    1.14999998    1.78999996
   12.33111095  256.54299927    1.14999998    1.78999996
   12.33416653  240.97099304    1.14999998    1.78999996
   12.33749962  247.41200256    1.16999996    1.80999994
   12.34055519  224.95500183    1.16999996    1.80999994
   12.34388828  259.55599976    1.16999996    1.80999994
   12.34722233  250.08700562    1.19000006    1.80999994
   12.35027790  241.51899719    1.19000006    1.80999994
   12.35361195  249.73599243    1.19000006    1.80999994
   12.35583401  198.07000732    1.19000006    1.80999994
   12.35722256  210.92500305    1.19000006    1.80999994
   12.36055565  232.44700623    1.21000004    1.80999994
   12.36388969  316.20098877    1.21000004    1.83000004
   12.36694431  299.62600708    1.23000002    1.83000004
   12.37027836  190.44400024    1.25000000    1.83000004
   12.37333393  283.89300537    1.25000000    1.85000002
   12.37666702  229.49699402    1.25000000    1.85000002
   12.38000011  266.15899658    1.26999998    1.85000002
   12.38305569  281.21200562    1.28999996    1.85000002
   12.38638878  255.42399597    1.28999996    1.85000002
   12.38916683  245.42700195    1.28999996    1.85000002
   12.39000034  334.06600952    1.28999996    1.85000002
   12.39333344  263.25799561    1.28999996    1.85000002
   12.39666653  318.30499268    1.30999994    1.85000002
   12.39972210  249.79200745    1.30999994    1.86000001
   12.40305519  238.73100281    1.33000004    1.86000001
   12.40638828  298.71701050    1.33000004    1.86000001
   12.40944386  241.40100098    1.33000004    1.86000001
   12.41277695  249.18499756    1.33000004    1.86000001
   12.41583252  248.37699890    1.33000004    1.86000001
   12.41916656  243.14100647    1.33000004    1.86000001
   12.42250061  238.35099792    1.33000004    1.88000000
   12.42277813  299.44198608    1.33000004    1.88000000
   12.42611122  232.32699585    1.33000004    1.86000001
   12.42916679  245.50100708    1.33000004    1.88000000
   12.43249989  267.26699829    1.33000004    1.89999998
   12.43583298  229.86500549    1.30999994    1.89999998
   12.43888855  275.35699463    1.30999994    1.89999998
   12.44222260  284.99398804    1.30999994    1.89999998
   12.44555569  257.13000488    1.30999994    1.89999998
   12.44861126  303.40200806    1.30999994    1.89999998
   12.45194435  324.45599365    1.30999994    1.89999998
   12.45499992  233.49800110    1.30999994    1.89999998
   12.45583344  248.64900208    1.30999994    1.89999998
   12.45861053  230.00500488    1.30999994    1.89999998
   12.46194458  213.75399780    1.28999996    1.91999996
   12.46527767  262.19900513    1.28999996    1.91999996
   12.46833324  262.61700439    1.28999996    1.91999996
   12.47166634  197.51300049    1.28999996    1.91999996
   12.47472191  156.16299438    1.28999996    1.91999996
   12.47805500  192.60099792    1.30999994    1.91999996
   12.48138809  212.89500427    1.30999994    1.94000006
   12.48472214  237.37199402    1.30999994    1.91999996
   12.48777771  251.62300110    1.30999994    1.91999996
   12.48916721  189.61599731    1.30999994    1.91999996
   12.49138927  186.01699829    1.30999994    1.91999996
   12.49472237  192.84599304    1.30999994    1.91999996
   12.49805546  194.26600647    1.33000004    1.94000006
   12.50111103  162.84500122    1.33000004    1.94000006
   12.50444412  179.49699402    1.33000004    1.94000006
   12.50777817  217.50999451    1.33000004    1.94000006
   12.51111126  179.62399292    1.33000004    1.94000006
   12.51416683  167.02900696    1.33000004    1.94000006
   12.51749992  162.89399719    1.33000004    1.94000006
   12.52083302  175.86700439    1.33000004    1.94000006
   12.52250004  154.28700256    1.33000004    1.96000004
   12.52416611  179.53999329    1.33000004    1.96000004
   12.52750015  180.77900696    1.33000004    1.96000004
   12.53083324  188.79899597    1.33000004    1.96000004
   12.53388977  180.00500488    1.33000004    1.96000004
   12.53722286  194.44200134    1.33000004    1.96000004
   12.54055595  188.30299377    1.34000003    1.96000004
   12.54361153  184.29200745    1.34000003    1.96000004
   12.54694462  179.95500183    1.34000003    1.98000002
   12.55000019  163.57400513    1.34000003    1.96000004
   12.55333328  183.46699524    1.34000003    1.96000004
   12.55583382  163.56500244    1.34000003    1.98000002
   12.55694485  181.60200500    1.34000003    1.98000002
   12.56027794  182.74899292    1.34000003    1.98000002
   12.56361103  199.29800415    1.36000001    1.98000002
   12.56666660  187.90400696    1.36000001    1.98000002
   12.56999969  210.76899719    1.36000001    1.98000002
   12.57305527  149.07299805    1.36000001    2.00000000
   12.57638836  178.15199280    1.36000001    2.00000000
   12.57972240  200.37699890    1.36000001    2.00000000
   12.58277798  154.46800232    1.38000000    2.00000000
   12.58611107  200.71400452    1.38000000    2.00000000
   12.58916664  156.57800293    1.38000000    2.00000000
   12.58972168  187.46099854    1.38000000    2.00000000
   12.59305477  154.18299866    1.38000000    2.00000000
   12.59638882  189.15800476    1.38000000    2.00000000
   12.59944439  192.43899536    1.38000000    2.00000000
   12.60277843  152.40499878    1.38000000    2.00000000
   12.60611153  198.95700073    1.38000000    2.00000000
   12.60916710  165.74400330    1.38000000    2.01999998
   12.61250019  207.74899292    1.39999998    2.01999998
   12.61555576  179.73300171    1.39999998    2.01999998
   12.61888885  184.38999939    1.39999998    2.01999998
   12.62222195  163.95300293    1.39999998    2.01999998
   12.62277794  154.96099854    1.39999998    2.01999998
   12.62583351  212.60600281    1.41999996    2.01999998
   12.62916660  182.72599792    1.41999996    2.01999998
   12.63249969  209.85299683    1.44000006    2.03999996
   12.63555527  177.54499817    1.44000006    2.01999998
   12.63888836  189.95399475    1.44000006    2.03999996
   12.64194393  203.71899414    1.44000006    2.03999996
   12.64527798  183.89700317    1.44000006    2.01999998
   12.64861107  182.20399475    1.44000006    2.03999996
   12.65166664  175.87500000    1.44000006    2.03999996
   12.65499973  182.22700500    1.44000006    2.03999996
   12.65611076  203.58200073    1.44000006    2.03999996
   12.65861034  193.32200623    1.44000006    2.03999996
   12.66194439  234.67500305    1.41999996    2.05999994
   12.66527748  200.68400574    1.41999996    2.05999994
   12.66833401  161.51100159    1.41999996    2.05999994
   12.67166710  141.64999390    1.41999996    2.05999994
   12.67500019  161.83099365    1.41999996    2.05999994
   12.67805576  163.72799683    1.41999996    2.05999994
   12.68138885  193.81799316    1.41999996    2.05999994
   12.68472195  202.32200623    1.39999998    2.05999994
   12.68777752  241.67100525    1.39999998    2.05999994
   12.68944454  184.80799866    1.39999998    2.05999994
   12.69138908  169.72599792    1.39999998    2.05999994
   12.69472218  201.01100159    1.39999998    2.07999992
   12.69805527  225.30400085    1.41999996    2.05999994
   12.70111084  212.95899963    1.41999996    2.07999992
   12.70444393  248.32600403    1.41999996    2.07999992
   12.70777798  176.77499390    1.41999996    2.07999992
   12.71083355  248.58399963    1.41999996    2.07999992
   12.71416664  188.77999878    1.41999996    2.07999992
   12.71722221  212.51800537    1.41999996    2.07999992
   12.72055531  217.31700134    1.41999996    2.07999992
   12.72277737  232.43600464    1.41999996    2.07999992
   12.72416592  224.50500488    1.41999996    2.07999992
   12.72749996  208.38299561    1.44000006    2.07999992
   12.73083305  262.33099365    1.41999996    2.07999992
   12.73388958  241.87800598    1.41999996    2.07999992
   12.73722267  205.81700134    1.44000006    2.09999990
   12.74027824  199.98300171    1.44000006    2.09999990
   12.74361134  195.34800720    1.44000006    2.09999990
   12.74694443  218.16700745    1.44000006    2.09999990
   12.75000000  247.11500549    1.44000006    2.09999990
   12.75333309  193.50999451    1.44000006    2.09999990
   12.75611115  233.09599304    1.44000006    2.09999990
   12.75694466  214.37899780    1.44000006    2.09999990
   12.76027775  209.53500366    1.44000006    2.09999990
   12.76361084  238.27999878    1.44000006    2.09999990
   12.76666641  227.90299988    1.46000004    2.09999990
   12.76999950  204.92300415    1.46000004    2.09999990
   12.77305508  199.00999451    1.46000004    2.09999990
   12.77638817  258.38800049    1.46000004    2.11999989
   12.77972221  210.67300415    1.46000004    2.11999989
   12.78277779  224.08999634    1.46000004    2.11999989
   12.78611183  280.72399902    1.44000006    2.11999989
   12.78944492  246.14300537    1.44000006    2.11999989
   12.78972244  200.31100464    1.44000006    2.11999989
   12.79305553  222.54600525    1.46000004    2.11999989
   12.79638958  248.87600708    1.46000004    2.11999989
   12.79944515  242.31799316    1.46000004    2.11999989
   12.80277824  270.44799805    1.46000004    2.11999989
   12.80583382  212.81199646    1.46000004    2.11999989
   12.80916691  205.14300537    1.44000006    2.13000011
   12.81250000  243.33200073    1.46000004    2.13000011
   12.81555557  231.20799255    1.46000004    2.13000011
   12.81888866  235.51400757    1.46000004    2.13000011
   12.82222176  243.43200684    1.46000004    2.13000011
   12.82277775  254.13400269    1.46000004    2.13000011
   12.82555580  228.96499634    1.46000004    2.13000011
   12.82888889  190.15199280    1.46000004    2.15000010
   12.83222198  242.32099915    1.48000002    2.15000010
   12.83527756  239.32400513    1.48000002    2.15000010
   12.83861065  198.55200195    1.48000002    2.15000010
   12.84194374  211.41600037    1.50000000    2.15000010
   12.84499931  215.42900085    1.50000000    2.15000010
   12.84833336  242.53999329    1.51999998    2.15000010
   12.85166740  209.68499756    1.50000000    2.15000010
   12.85472298  214.78399658    1.50000000    2.15000010
   12.85611153  229.82200623    1.50000000    2.15000010
   12.85833359  280.29501343    1.50000000    2.15000010
   12.86166668  235.25799561    1.50000000    2.15000010
   12.86500072  200.19400024    1.48000002    2.15000010
   12.86805534  240.53999329    1.48000002    2.15000010
   12.87138939  228.35600281    1.48000002    2.15000010
   12.87472248  246.38800049    1.46000004    2.15000010
   12.87777805  194.44700623    1.44000006    2.15000010
   12.88111115  228.23399353    1.41999996    2.15000010
   12.88444424  252.66000366    1.39999998    2.15000010
   12.88749981  236.41499329    1.39999998    2.17000008
   12.88944435  266.06399536    1.39999998    2.17000008
   12.89111137  211.21800232    1.38000000    2.17000008
   12.89444447  244.51100159    1.38000000    2.17000008
   12.89777756  244.80499268    1.38000000    2.17000008
   12.90083313  249.25999451    1.38000000    2.17000008
   12.90416622  205.39900208    1.38000000    2.17000008
   12.90749931  213.55900574    1.36000001    2.17000008
   12.91055489  232.72000122    1.36000001    2.17000008
   12.91388893  250.85200500    1.36000001    2.17000008
   12.91694450  247.35299683    1.36000001    2.17000008
   12.92027855  230.23800659    1.36000001    2.17000008
   12.92277813  261.94601440    1.36000001    2.19000006
   12.92388916  241.46099854    1.36000001    2.19000006
   12.92722225  211.42199707    1.36000001    2.17000008
   12.93055630  223.53199768    1.36000001    2.17000008
   12.93361092  215.99899292    1.34000003    2.19000006
   12.93694496  201.14900208    1.34000003    2.19000006
   12.94027805  209.05999756    1.34000003    2.19000006
   12.94333363  178.88299561    1.34000003    2.19000006
   12.94666672  187.68800354    1.34000003    2.19000006
   12.94999981  215.49299622    1.34000003    2.19000006
   12.95305538  217.07600403    1.34000003    2.19000006
   12.95611095  206.03900146    1.33000004    2.19000006
   12.95666695  202.85099792    1.33000004    2.19000006
   12.96000004  159.35800171    1.33000004    2.19000006
   12.96333313  213.61900330    1.33000004    2.19000006
   12.96638870  191.34199524    1.33000004    2.19000006
   12.96972179  173.32099915    1.33000004    2.19000006
   12.97305489  193.52000427    1.30999994    2.19000006
   12.97611046  229.20399475    1.30999994    2.19000006
   12.97944355  229.05499268    1.30999994    2.19000006
   12.98249912  222.02200317    1.30999994    2.19000006
   12.98583317  220.52299500    1.30999994    2.21000004
   12.98916721  187.48800659    1.30999994    2.21000004
   12.98972225  232.10299683    1.30999994    2.21000004
   12.99305534  214.72000122    1.33000004    2.21000004
   12.99611092  213.00199890    1.33000004    2.21000004
   12.99944496  188.60600281    1.33000004    2.21000004
   13.00249958  215.32200623    1.33000004    2.21000004
   13.00583363  211.35699463    1.34000003    2.21000004
   13.00916672  229.63099670    1.34000003    2.23000002
   13.01249981  211.27299500    1.36000001    2.21000004
   13.01555538  181.03100586    1.36000001    2.21000004
   13.01888847  211.39999390    1.36000001    2.21000004
   13.02194405  201.83399963    1.36000001    2.23000002
   13.02305508  214.57400513    1.36000001    2.23000002
   13.02583313  201.22900391    1.36000001    2.23000002
   13.02888870  227.76899719    1.36000001    2.23000002
   13.03222179  247.82400513    1.38000000    2.23000002
   13.03527832  182.23300171    1.38000000    2.23000002
   13.03861141  207.87800598    1.38000000    2.23000002
   13.04194450  224.55599976    1.38000000    2.23000002
   13.04500008  191.72599792    1.38000000    2.23000002
   13.04833412  194.92100525    1.38000000    2.23000002
   13.05166721  199.92100525    1.38000000    2.23000002
   13.05472279  172.37199402    1.38000000    2.23000002
   13.05638885  195.69099426    1.38000000    2.23000002
   13.05861092  188.60800171    1.38000000    2.23000002
   13.06166649  159.04800415    1.38000000    2.23000002
   13.06500053  198.74099731    1.38000000    2.23000002
   13.06805515  171.48599243    1.38000000    2.23000002
   13.07138920  191.16400146    1.36000001    2.25000000
   13.07472229  203.75100708    1.34000003    2.25000000
   13.07777786  194.95599365    1.34000003    2.25000000
   13.08111095  197.50300598    1.34000003    2.25000000
   13.08444405  185.81399536    1.34000003    2.25000000
   13.08749962  199.12800598    1.34000003    2.25000000
   13.08972168  189.51800537    1.34000003    2.25000000
   13.09138870  215.63600159    1.34000003    2.25000000
   13.09444427  178.71600342    1.33000004    2.25000000
   13.09777737  191.71800232    1.33000004    2.25000000
   13.10083389  184.53999329    1.33000004    2.25000000
   13.10416698  191.61300659    1.33000004    2.25000000
   13.10750008  196.69000244    1.34000003    2.25000000
   13.11055565  214.57499695    1.34000003    2.25000000
   13.11388969  205.87399292    1.34000003    2.25000000
   13.11722279  206.78799438    1.36000001    2.25000000
   13.12027836  202.56599426    1.36000001    2.25000000
   13.12305546  191.43200684    1.36000001    2.25000000
   13.12416649  182.28199768    1.38000000    2.25000000
   13.12722206  183.89700317    1.38000000    2.26999998
   13.13055611  227.94799805    1.39999998    2.26999998
   13.13361073  250.49899292    1.39999998    2.25000000
   13.13694477  210.92199707    1.39999998    2.25000000
   13.14027786  198.32899475    1.39999998    2.26999998
   13.14333344  209.96699524    1.39999998    2.26999998
   13.14666653  211.59899902    1.39999998    2.26999998
   13.14999962  227.53799438    1.39999998    2.26999998
   13.15305519  193.17900085    1.39999998    2.26999998
   13.15638828  219.15800476    1.38000000    2.26999998
   13.15694427  231.32000732    1.38000000    2.26999998
   13.15999985  197.16200256    1.38000000    2.28999996
   13.16333294  210.05299377    1.38000000    2.28999996
   13.16666698  208.50100708    1.38000000    2.28999996
   13.16972256  223.11500549    1.38000000    2.28999996
   13.17305565  223.91000366    1.36000001    2.26999998
   13.17638874  223.37899780    1.36000001    2.26999998
   13.17944431  213.49000549    1.36000001    2.28999996
   13.18277836  187.60299683    1.36000001    2.28999996
   13.18583298  191.29400635    1.36000001    2.28999996
   13.18916702  170.71800232    1.36000001    2.28999996
   13.18972206  226.18099976    1.36000001    2.28999996
   13.19277763  225.88299561    1.36000001    2.28999996
   13.19583321  160.10800171    1.36000001    2.28999996
   13.19916630  186.01400757    1.36000001    2.28999996
   13.20249939  195.96200562    1.36000001    2.28999996
   13.20555496  213.78300476    1.34000003    2.28999996
   13.20888901  183.24600220    1.34000003    2.28999996
   13.21222210  181.11300659    1.34000003    2.28999996
   13.21527767  190.98899841    1.33000004    2.28999996
   13.21861076  211.58799744    1.33000004    2.28999996
   13.22194386  233.86599731    1.33000004    2.30999994
   13.22305489  215.83799744    1.33000004    2.30999994
   13.22555542  207.57800293    1.33000004    2.30999994
   13.22861099  214.82699585    1.33000004    2.28999996
   13.23194408  214.56100464    1.33000004    2.28999996
   13.23527813  198.42100525    1.30999994    2.30999994
   13.23833370  213.80200195    1.30999994    2.30999994
   13.24166679  218.62800598    1.33000004    2.30999994
   13.24472237  218.14999390    1.33000004    2.28999996
   13.24805546  222.11399841    1.34000003    2.30999994
   13.25138855  198.19500732    1.34000003    2.30999994
   13.25444412  198.57099915    1.34000003    2.30999994
   13.27250004  234.02200317    1.38000000    2.30999994
   13.27444458  216.14399719    1.39999998    2.30999994
   13.27777767  240.63299561    1.39999998    2.30999994
   13.28111076  267.33200073    1.41999996    2.30999994
   13.28416729  232.67199707    1.44000006    2.30999994
   13.28750038  236.92199707    1.44000006    2.30999994
   13.29083347  216.11000061    1.44000006    2.30999994
   13.29388905  235.99000549    1.44000006    2.30999994
   13.29722309  234.22300720    1.44000006    2.32999992
   13.30055618  240.40899658    1.46000004    2.30999994
   13.30361176  238.39999390    1.46000004    2.30999994
   13.30583382  198.47900391    1.46000004    2.30999994
   13.30722237  241.03199768    1.46000004    2.30999994
   13.31055546  196.48800659    1.46000004    2.30999994
   13.31388950  222.00900269    1.46000004    2.30999994
   13.31694412  223.26600647    1.44000006    2.32999992
   13.32027817  234.39900208    1.44000006    2.32999992
   13.32333374  181.04899597    1.41999996    2.32999992
   13.32666683  213.90199280    1.41999996    2.32999992
   13.32999992  204.98500061    1.39999998    2.32999992
   13.33305550  230.03799438    1.38000000    2.32999992
   13.33638859  234.49299622    1.38000000    2.32999992
   13.33916664  220.35600281    1.38000000    2.32999992
   13.34027767  217.21099854    1.38000000    2.32999992
   13.34333324  237.99200439    1.36000001    2.32999992
   13.34666634  222.15600586    1.36000001    2.32999992
   13.34972191  245.89500427    1.36000001    2.32999992
   13.35305595  246.38499451    1.34000003    2.32999992
   13.35638905  230.04899597    1.33000004    2.32999992
   13.35944462  254.60000610    1.30999994    2.32999992
   13.36277771  207.96099854    1.30999994    2.32999992
   13.36611176  219.83599854    1.26999998    2.32999992
   13.36916637  237.76300049    1.25000000    2.32999992
   13.37250042  230.38800049    1.23000002    2.34999990
   13.37277794  241.80900574    1.23000002    2.34999990
   13.37611103  237.48399353    1.23000002    2.34999990
   13.37972260  240.95199585    1.23000002    2.32999992
   13.38277817  241.18299866    1.23000002    2.32999992
   13.38638878  222.00999451    1.23000002    2.32999992
   13.38972187  215.51699829    1.23000002    2.34999990
   13.39277744  236.66299438    1.23000002    2.34999990
   13.39611053  226.46899414    1.23000002    2.34999990
   13.39944458  221.63900757    1.25000000    2.34999990
   13.40249920  237.57899475    1.25000000    2.34999990
   13.40583324  216.66299438    1.25000000    2.32999992
   13.40611076  206.93400574    1.25000000    2.32999992
   13.40944386  205.09300232    1.25000000    2.34999990
   13.41277695  216.30700684    1.26999998    2.34999990
   13.41583252  231.84899902    1.26999998    2.34999990
   13.41916656  218.32400513    1.28999996    2.34999990
   13.42250061  231.04400635    1.28999996    2.36999989
   13.42555618  232.64399719    1.28999996    2.36999989
   13.42888927  202.39300537    1.28999996    2.34999990
   13.43194485  204.04800415    1.30999994    2.34999990
   13.43527794  204.87399292    1.30999994    2.34999990
   13.43861103  230.58500671    1.30999994    2.34999990
   13.43916702  201.60499573    1.30999994    2.34999990
   13.44194412  207.78300476    1.30999994    2.36999989
   13.44527817  211.38999939    1.33000004    2.36999989
   13.44861126  217.41799927    1.33000004    2.34999990
   13.45166683  211.74899292    1.34000003    2.36999989
   13.45499992  203.65400696    1.34000003    2.34999990
   13.45833302  201.99800110    1.34000003    2.34999990
   13.46138859  181.87399292    1.34000003    2.36999989
   13.46472168  201.15600586    1.34000003    2.36999989
   13.46777725  212.80999756    1.34000003    2.36999989
   13.47111034  191.73399353    1.30999994    2.36999989
   13.47249985  190.30099487    1.28999996    2.36999989
   13.47472191  202.46200562    1.28999996    2.36999989
   13.47805500  186.73899841    1.26999998    2.36999989
   13.48138809  208.11999512    1.25000000    2.36999989
   13.48444462  183.97300720    1.25000000    2.39000010
   13.48777771  204.64599609    1.23000002    2.36999989
   13.49111176  198.05499268    1.23000002    2.36999989
   13.49416733  210.23399353    1.21000004    2.36999989
   13.49750042  200.86399841    1.19000006    2.36999989
   13.50083351  184.48699951    1.19000006    2.36999989
   13.50388908  198.34899902    1.16999996    2.36999989
   13.50583363  192.27999878    1.16999996    2.36999989
   13.50749969  200.74400330    1.16999996    2.36999989
   13.51083374  180.64900208    1.14999998    2.36999989
   13.51416683  200.12100220    1.13000000    2.36999989
   13.51722240  194.34100342    1.11000001    2.39000010
   13.52055550  201.82000732    1.11000001    2.39000010
   13.52388859  191.12199402    1.11000001    2.39000010
   13.52694416  198.00000000    1.09000003    2.36999989
   13.53027725  184.92999268    1.11000001    2.39000010
   13.53333378  193.86799622    1.11000001    2.39000010
   13.53666687  191.79800415    1.13000000    2.39000010
   13.53916740  189.72599792    1.13000000    2.39000010
   13.54027843  186.59800720    1.13000000    2.39000010
   13.54361153  182.77299500    1.11000001    2.39000010
   13.54694462  206.26800537    1.11000001    2.39000010
   13.55000019  192.69599915    1.11000001    2.39000010
   13.55333328  178.73699951    1.09000003    2.39000010
   13.55666733  195.29699707    1.07000005    2.39000010
   13.55972195  191.25799561    1.07000005    2.39000010
   13.56305599  190.85099792    1.07000005    2.39000010
   13.56611156  181.92700195    1.07000005    2.39000010
   13.56944466  189.05200195    1.14999998    2.39000010
   13.57250023  175.33299255    1.14999998    2.39000010
   13.57305527  184.50300598    1.14999998    2.39000010
   13.57638836  184.14700317    1.16999996    2.39000010
   13.57972240  182.38900757    1.16999996    2.39000010
   13.58277798  172.60899353    1.16999996    2.39000010
   13.58611107  188.67799377    1.16999996    2.39000010
   13.58944416  181.85899353    1.16999996    2.39000010
   13.59249973  163.12199402    1.16999996    2.40000010
   13.59583282  169.01499939    1.16999996    2.40000010
   13.59916592  177.29299927    1.16999996    2.40000010
   13.60222244  182.67599487    1.19000006    2.40000010
   13.60555553  187.08799744    1.19000006    2.40000010
   13.60611153  191.80499268    1.19000006    2.40000010
   13.60944462  199.79499817    1.21000004    2.39000010
   13.61250019  204.64999390    1.21000004    2.39000010
   13.61583328  187.00300598    1.16999996    2.39000010
   13.61888885  194.80900574    1.13000000    2.40000010
   13.62222195  191.03199768    1.13000000    2.40000010
   13.62555599  187.50700378    1.11000001    2.40000010
   13.62861156  204.21099854    1.09000003    2.40000010
   13.63194466  193.71899414    1.07000005    2.40000010
   13.63527775  186.07800293    1.05999994    2.40000010
   13.63833332  183.27400208    1.05999994    2.40000010
   13.63944435  177.97799683    1.05999994    2.40000010
   13.64222240  163.48800659    1.05999994    2.40000010
   13.64555550  179.41700745    1.05999994    2.40000010
   13.64861107  195.22399902    1.05999994    2.40000010
   13.65194416  202.61799622    1.05999994    2.40000010
   13.65527725  168.68200684    1.07000005    2.40000010
   13.65833282  197.29200745    1.07000005    2.40000010
   13.66166592  179.97500610    1.09000003    2.40000010
   13.66499996  196.43200684    1.11000001    2.40000010
   13.66805553  188.32000732    1.11000001    2.40000010
   13.67138958  195.79800415    1.11000001    2.40000010
   13.67277813  167.09899902    1.13000000    2.40000010
   13.67500019  181.21299744    1.13000000    2.40000010
   13.67833328  173.23300171    1.13000000    2.40000010
   13.68166733  197.07499695    1.11000001    2.40000010
   13.68472195  199.71600342    1.11000001    2.40000010
   13.68805599  221.46000671    1.09000003    2.40000010
   13.69138908  258.63900757    1.09000003    2.40000010
   13.69444466  210.16799927    1.09000003    2.40000010
   13.69777775  229.58099365    1.07000005    2.40000010
   13.70083332  250.36700439    1.05999994    2.42000008
   13.70416641  224.31399536    1.05999994    2.42000008
   13.70611095  215.84500122    1.05999994    2.42000008
   13.70805550  200.08599854    1.03999996    2.42000008
   13.71111107  240.44099426    1.03999996    2.42000008
   13.71444416  214.93499756    1.01999998    2.40000010
   13.71749973  196.00300598    1.01999998    2.40000010
   13.72083282  210.65499878    1.01999998    2.42000008
   13.72416592  188.94700623    1.01999998    2.40000010
   13.72722149  218.90800476    1.03999996    2.42000008
   13.73055553  210.51199341    1.03999996    2.42000008
   13.73388958  232.95300293    1.03999996    2.42000008
   13.73694515  231.47300720    1.05999994    2.42000008
   13.73944473  251.83500671    1.05999994    2.42000008
   13.74083328  229.69000244    1.05999994    2.42000008
   13.74388885  294.97198486    1.05999994    2.42000008
   13.74722290  268.88699341    1.05999994    2.44000006
   13.75027752  291.30801392    1.05999994    2.42000008
   13.75388908  287.43200684    1.07000005    2.42000008
   13.75694466  282.27200317    1.09000003    2.42000008
   13.76027775  288.60900879    1.09000003    2.42000008
   13.76333332  278.44799805    1.09000003    2.42000008
   13.76666641  259.46798706    1.09000003    2.42000008
   13.76999950  260.05200195    1.11000001    2.42000008
   13.77277756  252.58000183    1.11000001    2.42000008
   13.77361107  275.04299927    1.11000001    2.42000008
   13.77666664  277.26699829    1.11000001    2.42000008
   13.77999973  304.10699463    1.11000001    2.44000006
   13.78305531  304.83300781    1.11000001    2.44000006
   13.78638935  334.09298706    1.11000001    2.44000006
   13.78972244  314.47399902    1.11000001    2.44000006
   13.79277802  281.34698486    1.11000001    2.44000006
   13.79611111  286.37298584    1.11000001    2.44000006
   13.79944515  279.53298950    1.11000001    2.42000008
   13.80277824  294.92898560    1.13000000    2.44000006
   13.80611134  270.98699951    1.13000000    2.44000006
   13.80638885  265.03601074    1.14999998    2.42000008
   13.80972195  301.95498657    1.14999998    2.42000008
   13.81305599  248.42999268    1.16999996    2.44000006
   13.81611156  194.28199768    1.19000006    2.44000006
   13.81944466  215.85400391    1.19000006    2.44000006
   13.82277775  222.47700500    1.19000006    2.44000006
   13.82583332  202.56199646    1.19000006    2.44000006
   13.82916641  209.91099548    1.16999996    2.44000006
   13.83249950  211.66299438    1.19000006    2.44000006
   13.83555508  182.81700134    1.19000006    2.44000006
   13.83888817  201.47599792    1.16999996    2.44000006
   13.83972168  186.08200073    1.16999996    2.44000006
   13.84249973  200.46699524    1.14999998    2.44000006
   13.84583282  208.05200195    1.14999998    2.44000006
   13.84888840  206.72500610    1.13000000    2.44000006
   13.85222244  204.99099731    1.11000001    2.44000006
   13.85555553  203.36500549    1.11000001    2.44000006
   13.85861111  216.68400574    1.11000001    2.44000006
   13.86194515  197.96600342    1.11000001    2.44000006
   13.86527824  193.03500366    1.11000001    2.44000006
   13.86833382  185.12800598    1.13000000    2.44000006
   13.87166691  190.25900269    1.14999998    2.44000006
   13.87305546  170.69400024    1.14999998    2.44000006
   13.87527752  191.03900146    1.16999996    2.46000004
   13.87861156  186.78300476    1.16999996    2.44000006
   13.88166714  207.98199463    1.19000006    2.46000004
   13.88500023  192.45300293    1.19000006    2.44000006
   13.88833332  202.34800720    1.19000006    2.44000006
   13.89138889  192.75599670    1.19000006    2.46000004
   13.89472198  203.44200134    1.19000006    2.44000006
   13.89805508  201.89599609    1.19000006    2.44000006
   13.90111065  189.14700317    1.21000004    2.44000006
   13.90444374  190.50399780    1.23000002    2.46000004
   13.90638828  211.76600647    1.23000002    2.44000006
   13.90805531  203.16799927    1.23000002    2.44000006
   13.91138840  215.27299500    1.23000002    2.46000004
   13.91444397  206.78900146    1.23000002    2.44000006
   13.91777802  196.55099487    1.23000002    2.46000004
   13.92111111  172.96699524    1.23000002    2.46000004
   13.92416668  204.92199707    1.21000004    2.44000006
   13.92750072  207.43899536    1.21000004    2.46000004
   13.93083382  186.84899902    1.21000004    2.46000004
   13.93388939  193.84300232    1.19000006    2.44000006
   13.93722248  208.20700073    1.16999996    2.44000006
   13.94000053  197.16400146    1.16999996    2.44000006
   13.94083309  201.32099915    1.16999996    2.46000004
   13.94416714  204.14199829    1.16999996    2.46000004
   13.94722271  207.78300476    1.16999996    2.46000004
   13.95055580  202.50500488    1.16999996    2.46000004
   13.95388889  212.93800354    1.19000006    2.46000004
   13.95694447  191.15600586    1.19000006    2.46000004
   13.96027756  215.90299988    1.19000006    2.46000004
   13.96361065  202.04800415    1.16999996    2.46000004
   13.96666622  213.69799805    1.16999996    2.46000004
   13.96999931  203.16700745    1.19000006    2.46000004
   13.97333336  204.48699951    1.19000006    2.46000004
   13.97361088  207.55299377    1.19000006    2.46000004
   13.97694397  192.83200073    1.21000004    2.46000004
   13.97999954  201.78799438    1.23000002    2.46000004
   13.98333359  197.80000305    1.26999998    2.46000004
   13.98666668  212.12399292    1.28999996    2.46000004
   13.98972225  204.98699951    1.30999994    2.48000002
   13.99305534  209.45500183    1.30999994    2.48000002
   13.99638939  196.11500549    1.34000003    2.46000004
   13.99944496  203.99499512    1.33000004    2.46000004
   14.00277805  192.97799683    1.19000006    2.46000004
   14.00638866  209.56700134    1.13000000    2.46000004
   14.00694466  193.99699402    1.13000000    2.46000004
   14.00972176  188.22200012    1.13000000    2.46000004
   14.01305580  207.08900452    1.13000000    2.46000004
   14.01611137  209.43099976    1.11000001    2.48000002
   14.01944447  202.20599365    1.11000001    2.46000004
   14.02277756  216.95899963    1.09000003    2.46000004
   14.02583313  208.91999817    1.03999996    2.46000004
   14.02916622  204.76300049    1.01999998    2.48000002
   14.03249931  200.49699402    1.01999998    2.46000004
   14.03555584  205.49499512    1.03999996    2.48000002
   14.03888893  213.78999329    1.13000000    2.46000004
   14.04027843  211.18699646    1.14999998    2.48000002
   14.04250050  206.41799927    1.16999996    2.48000002
   14.04583359  208.68299866    1.25000000    2.46000004
   14.04888916  210.51699829    1.23000002    2.48000002
   14.05222225  201.33099365    1.23000002    2.48000002
   14.05555534  198.83799744    1.23000002    2.48000002
   14.05861092  196.17900085    1.14999998    2.46000004
   14.06194496  198.31100464    1.07000005    2.48000002
   14.06527805  199.46400452    1.05999994    2.48000002
   14.06833363  206.18800354    1.05999994    2.48000002
   14.07166672  206.81500244    1.05999994    2.48000002
   14.07361126  210.30099487    1.05999994    2.48000002
   14.07527733  218.38900757    1.05999994    2.48000002
   14.07861137  194.32200623    1.03999996    2.48000002
   14.08166695  191.06700134    1.05999994    2.48000002
   14.08500004  204.13000488    1.14999998    2.48000002
   14.08833313  201.39300537    1.09000003    2.48000002
   14.09138870  209.25799561    1.19000006    2.48000002
   14.09472179  206.61199951    1.13000000    2.48000002
   14.09805489  194.06500244    1.13000000    2.48000002
   14.10111141  210.74200439    1.11000001    2.48000002
   14.10444450  219.47000122    1.09000003    2.48000002
   14.10694504  192.24000549    1.05999994    2.48000002
   14.10833359  197.22999573    1.05999994    2.48000002
   14.11138916  193.95799255    1.05999994    2.48000002
   14.11472225  196.57499695    1.05999994    2.48000002
   14.11805534  194.02200317    1.05999994    2.48000002
   14.12111092  200.07200623    1.03999996    2.48000002
   14.12444496  191.23599243    1.03999996    2.48000002
   14.12777805  197.86799622    1.03999996    2.48000002
   14.13083363  182.65100098    1.01999998    2.48000002
   14.13416672  185.04299927    1.01999998    2.48000002
   14.13749981  196.79499817    1.00000000    2.50000000
   14.14027786  196.20899963    1.00000000    2.50000000
   14.14111137  200.85299683    1.00000000    2.48000002
   14.14444447  196.89399719    1.00000000    2.48000002
   14.14777756  190.65100098    1.00000000    2.48000002
   14.15083313  194.38000488    0.98000002    2.48000002
   14.15416622  205.35600281    0.98000002    2.48000002
   14.15722179  200.04899597    0.98000002    2.50000000
   14.16055489  184.87899780    0.98000002    2.48000002
   14.16388893  187.83900452    0.95999998    2.48000002
   14.16694450  195.52699280    0.95999998    2.48000002
   14.17027855  184.11700439    0.95999998    2.48000002
   14.17361164  197.45300293    0.94000000    2.50000000
   14.17416668  192.43499756    0.94000000    2.50000000
   14.17750072  184.11199951    0.94000000    2.48000002
   14.18055630  195.26300049    0.94000000    2.48000002
   14.18388939  191.03300476    0.94000000    2.50000000
   14.18722248  201.14199829    0.92000002    2.48000002
   14.19027805  196.29100037    0.89999998    2.50000000
   14.19361115  202.19700623    0.88000000    2.48000002
   14.19666672  197.69799805    0.89999998    2.50000000
   14.19999981  195.78999329    0.89999998    2.50000000
   14.20333290  199.94200134    0.89999998    2.50000000
   14.20638847  190.50399780    0.89999998    2.50000000
   14.20694447  192.57000732    0.89999998    2.50000000
   14.21027756  194.91499329    0.92000002    2.50000000
   14.21361065  186.30799866    0.94000000    2.50000000
   14.21666622  193.46800232    0.94000000    2.50000000
   14.21999931  192.55900574    0.94000000    2.50000000
   14.22305489  184.85099792    0.94000000    2.50000000
   14.22638798  175.81199646    0.94000000    2.50000000
   14.22972202  170.24800110    0.92000002    2.50000000
   14.23277760  177.58599854    0.92000002    2.50000000
   14.23611164  166.12300110    0.89999998    2.50000000
   14.23944473  191.63699341    0.92000002    2.51999998
   14.24027824  191.98500061    0.92000002    2.51999998
   14.24305534  182.51199341    0.92000002    2.51999998
   14.24638939  193.01699829    0.92000002    2.50000000
   14.24944496  179.85899353    0.94000000    2.50000000
   14.25277805  176.83999634    0.95999998    2.50000000
   14.25611115  178.23699951    0.94000000    2.50000000
   14.25916672  178.59500122    0.95999998    2.50000000
   14.26249981  182.50999451    0.95999998    2.50000000
   14.26555538  174.27099609    0.95999998    2.50000000
   14.26888847  186.70799255    0.94000000    2.50000000
   14.27222157  175.56500244    0.94000000    2.50000000
   14.28916740  174.08399963    0.92000002    2.50000000
   14.29194450  181.80400085    0.92000002    2.50000000
   14.29500008  158.35299683    0.89999998    2.51999998
   14.29833412  183.52299500    0.89999998    2.50000000
   14.30166721  173.27000427    0.89999998    2.50000000
   14.30472279  167.22599792    0.89999998    2.50000000
   14.30805588  166.83700562    0.92000002    2.50000000
   14.31138897  158.73399353    0.92000002    2.50000000
   14.31444454  171.66900635    0.92000002    2.50000000
   14.31777763  163.35200500    0.92000002    2.50000000
   14.32083321  163.20199585    0.89999998    2.50000000
   14.32250023  171.55599976    0.92000002    2.51999998
   14.32444477  175.98500061    0.92000002    2.51999998
   14.32777786  173.94099426    0.89999998    2.50000000
   14.33111095  167.53199768    0.92000002    2.50000000
   14.33416653  174.49899292    0.92000002    2.51999998
   14.33749962  183.92100525    0.94000000    2.50000000
   14.34055519  178.87199402    0.95999998    2.51999998
   14.34388828  161.66200256    0.95999998    2.51999998
   14.34722233  173.09700012    0.95999998    2.51999998
   14.35027790  171.70899963    0.94000000    2.50000000
   14.35361195  163.68200684    0.94000000    2.50000000
   14.35583401  176.63299561    0.94000000    2.50000000
   14.35722256  171.77900696    0.94000000    2.51999998
   14.36055565  171.04400635    0.94000000    2.51999998
   14.36388969  157.02999878    0.94000000    2.51999998
   14.36694431  165.08599854    0.94000000    2.51999998
   14.37027836  159.86700439    0.94000000    2.51999998
   14.37361145  168.38999939    0.94000000    2.51999998
   14.37666702  152.14999390    0.94000000    2.51999998
   14.38000011  182.18899536    0.94000000    2.51999998
   14.38305569  169.13400269    0.94000000    2.51999998
   14.38638878  167.66499329    0.94000000    2.51999998
   14.38916683  168.23399353    0.94000000    2.51999998
   14.39000034  163.95399475    0.94000000    2.51999998
   14.39333344  163.27000427    0.95999998    2.51999998
   14.39666653  162.78599548    0.94000000    2.51999998
   14.39972210  166.59199524    0.92000002    2.51999998
   14.40305519  157.22900391    0.92000002    2.51999998
   14.40638828  168.87600708    0.92000002    2.51999998
   14.40944386  159.37899780    0.92000002    2.51999998
   14.41277695  158.36300659    0.92000002    2.51999998
   14.41583252  162.69400024    0.92000002    2.51999998
   14.41916656  160.91499329    0.92000002    2.51999998
   14.42250061  160.01899719    0.92000002    2.51999998
   14.42277813  156.90600586    0.92000002    2.51999998
   14.42611122  163.90100098    0.92000002    2.51999998
   14.42944431  152.28900146    0.92000002    2.53999996
   14.43249989  142.76699829    0.92000002    2.53999996
   14.43583298  154.28300476    0.92000002    2.51999998
   14.43916702  155.26899719    0.92000002    2.53999996
   14.44222260  154.84599304    0.92000002    2.51999998
   14.44555569  158.53900146    0.89999998    2.51999998
   14.44888878  153.19099426    0.86000001    2.51999998
   14.45194435  146.38400269    0.86000001    2.51999998
   14.45527744  160.14799500    0.86000001    2.51999998
   14.45583344  151.24899292    0.83999997    2.53999996
   14.45888901  156.30099487    0.83999997    2.53999996
   14.46194458  158.97799683    0.86000001    2.51999998
   14.46527767  155.75999451    0.86000001    2.53999996
   14.46833324  154.53399658    0.83999997    2.51999998
   14.47166634  144.90800476    0.83999997    2.51999998
   14.47499943  150.36000061    0.83999997    2.53999996
   14.47805500  156.72999573    0.83999997    2.53999996
   14.48138809  145.41200256    0.83999997    2.53999996
   14.48472214  150.61500549    0.81999999    2.51999998
   14.48777771  149.79299927    0.81999999    2.51999998
   14.48916721  143.29299927    0.81999999    2.51999998
   14.49166679  152.58999634    0.81999999    2.53999996
   14.49472237  155.85800171    0.83999997    2.51999998
   14.49805546  152.50500488    0.83999997    2.53999996
   14.50111103  149.89999390    0.83999997    2.53999996
   14.50444412  154.73199463    0.86000001    2.53999996
   14.50777817  153.10600281    0.86000001    2.53999996
   14.51083374  145.49699402    0.86000001    2.53999996
   14.51416683  150.33200073    0.86000001    2.53999996
   14.51722240  145.27200317    0.86000001    2.53999996
   14.52055550  139.49699402    0.86000001    2.53999996
   14.52250004  157.97599792    0.86000001    2.53999996
   14.52444458  150.94299316    0.86000001    2.53999996
   14.52750015  142.64799500    0.86000001    2.53999996
   14.53083324  152.01899719    0.88000000    2.51999998
   14.53388977  153.28300476    0.88000000    2.51999998
   14.53722286  144.72599792    0.88000000    2.51999998
   14.54055595  145.80200195    0.89999998    2.51999998
   14.54361153  144.03399658    0.88000000    2.53999996
   14.54694462  153.22900391    0.88000000    2.53999996
   14.55027771  145.08200073    0.88000000    2.53999996
   14.55333328  135.36700439    0.86000001    2.53999996
   14.55583382  147.16299438    0.86000001    2.53999996
   14.55722237  147.96299744    0.86000001    2.53999996
   14.56027794  142.32000732    0.86000001    2.53999996
   14.56361103  134.94200134    0.86000001    2.53999996
   14.56694412  141.19500732    0.86000001    2.53999996
   14.56999969  140.54699707    0.86000001    2.53999996
   14.57333374  142.77299500    0.86000001    2.53999996
   14.57666683  135.18400574    0.86000001    2.53999996
   14.57972240  137.59599304    0.86000001    2.53999996
   14.58305550  138.71099854    0.86000001    2.53999996
   14.58611107  132.61999512    0.86000001    2.53999996
   14.58916664  140.28999329    0.86000001    2.53999996
   14.59000015  138.51400757    0.86000001    2.53999996
   14.59305477  139.99699402    0.83999997    2.53999996
   14.59638882  139.78399658    0.83999997    2.53999996
   14.59944439  140.50399780    0.83999997    2.53999996
   14.60277843  135.02499390    0.83999997    2.53999996
   14.60611153  137.56799316    0.83999997    2.53999996
   14.60944462  140.11000061    0.83999997    2.53999996
   14.61250019  140.85800171    0.83999997    2.53999996
   14.61583328  139.36000061    0.83999997    2.53999996
   14.61888885  138.19099426    0.83999997    2.53999996
   14.62222195  145.41499329    0.83999997    2.53999996
   14.62277794  141.56599426    0.83999997    2.53999996
   14.62611103  136.33399963    0.83999997    2.53999996
   14.62916660  136.05499268    0.83999997    2.53999996
   14.63249969  137.17700195    0.86000001    2.53999996
   14.63555527  136.12100220    0.86000001    2.53999996
   14.63888836  138.88000488    0.86000001    2.53999996
   14.64222240  130.23100281    0.86000001    2.53999996
   14.64527798  134.25500488    0.86000001    2.53999996
   14.64861107  136.34100342    0.86000001    2.53999996
   14.65194416  132.50300598    0.86000001    2.53999996
   14.65499973  133.24299622    0.86000001    2.53999996
   14.65611076  140.74800110    0.86000001    2.53999996
   14.65888882  132.05999756    0.88000000    2.53999996
   14.66194439  138.79899597    0.88000000    2.53999996
   14.66527748  134.72900391    0.88000000    2.53999996
   14.66833401  131.61700439    0.88000000    2.53999996
   14.67166710  130.73300171    0.88000000    2.55999994
   14.67500019  146.50399780    0.88000000    2.53999996
   14.67805576  135.09800720    0.88000000    2.55999994
   14.68138885  128.78599548    0.88000000    2.53999996
   14.68472195  134.14799500    0.88000000    2.53999996
   14.68777752  131.82400513    0.88000000    2.53999996
   14.68944454  138.01800537    0.86000001    2.55999994
   14.69166660  121.47299957    0.86000001    2.55999994
   14.69499969  139.91000366    0.86000001    2.53999996
   14.69805527  142.49600220    0.86000001    2.53999996
   14.70138836  131.44500732    0.86000001    2.53999996
   14.70472240  129.38600159    0.88000000    2.55999994
   14.70777798  126.15599823    0.88000000    2.53999996
   14.71111107  132.22500610    0.88000000    2.53999996
   14.71416664  126.13300323    0.88000000    2.53999996
   14.71749973  129.24299622    0.88000000    2.55999994
   14.72083282  133.65499878    0.89999998    2.53999996
   14.72277737  134.10400391    0.89999998    2.53999996
   14.72444439  132.30200195    0.89999998    2.55999994
   14.72749996  130.41600037    0.89999998    2.55999994
   14.73083305  132.77900696    0.89999998    2.55999994
   14.73388958  132.27900696    0.89999998    2.55999994
   14.73722267  124.85099792    0.89999998    2.53999996
   14.74055576  125.65000153    0.89999998    2.55999994
   14.74361134  137.17100525    0.89999998    2.55999994
   14.74694443  126.91799927    0.89999998    2.55999994
   14.75027752  129.40299988    0.89999998    2.55999994
   14.75333309  124.56999969    0.89999998    2.55999994
   14.75611115  130.42700195    0.89999998    2.55999994
   14.75722218  137.12100220    0.89999998    2.55999994
   14.76027775  131.86399841    0.89999998    2.55999994
   14.76361084  132.32899475    0.89999998    2.55999994
   14.76666641  137.26400757    0.89999998    2.55999994
   14.76999950  131.02799988    0.89999998    2.55999994
   14.77333355  126.07399750    0.89999998    2.55999994
   14.77666664  129.55000305    0.89999998    2.55999994
   14.77972221  131.18600464    0.89999998    2.55999994
   14.78305531  124.55599976    0.89999998    2.55999994
   14.78638935  129.54100037    0.89999998    2.55999994
   14.78944492  128.57600403    0.89999998    2.53999996
   14.79000092  129.96499634    0.89999998    2.53999996
   14.79305553  129.36599731    0.89999998    2.55999994
   14.79638958  127.46199799    0.88000000    2.55999994
   14.79972267  132.54200745    0.88000000    2.55999994
   14.80277824  127.95899963    0.88000000    2.55999994
   14.80611134  127.99400330    0.88000000    2.55999994
   14.80916691  132.26899719    0.88000000    2.55999994
   14.81250000  127.73300171    0.88000000    2.55999994
   14.81583309  128.40199280    0.88000000    2.55999994
   14.81888866  125.86900330    0.88000000    2.55999994
   14.82222176  130.42399597    0.88000000    2.57999992
   14.82277775  127.09200287    0.88000000    2.57999992
   14.82583332  126.41400146    0.88000000    2.55999994
   14.82888889  131.48300171    0.88000000    2.55999994
   14.83222198  124.44200134    0.88000000    2.55999994
   14.83555508  133.75100708    0.88000000    2.55999994
   14.83861065  131.77499390    0.88000000    2.55999994
   14.84194374  128.51300049    0.88000000    2.55999994
   14.84499931  129.63299561    0.86000001    2.55999994
   14.84833336  127.47499847    0.86000001    2.55999994
   14.85166740  126.95200348    0.86000001    2.55999994
   14.85472298  126.24299622    0.86000001    2.55999994
   14.85611153  129.80999756    0.86000001    2.55999994
   14.85861111  125.14099884    0.86000001    2.55999994
   14.86166668  128.89300537    0.88000000    2.55999994
   14.86500072  127.09200287    0.88000000    2.55999994
   14.86833382  133.93699646    0.88000000    2.55999994
   14.87138939  127.13800049    0.88000000    2.55999994
   14.87472248  124.13200378    0.88000000    2.55999994
   14.87805557  129.76800537    0.89999998    2.55999994
   14.88111115  134.92599487    0.89999998    2.55999994
   14.88444424  128.13400269    0.89999998    2.55999994
   14.88749981  127.83999634    0.92000002    2.55999994
   14.88944435  132.83099365    0.89999998    2.55999994
   14.89138889  133.38099670    0.89999998    2.55999994
   14.89444447  141.67199707    0.89999998    2.55999994
   14.89777756  128.82499695    0.92000002    2.55999994
   14.90111065  131.49699402    0.92000002    2.55999994
   14.90416622  123.85399628    0.92000002    2.55999994
   14.90749931  127.92299652    0.89999998    2.55999994
   14.91055489  122.95600128    0.89999998    2.55999994
   14.91388893  128.32699585    0.89999998    2.55999994
   14.91722298  124.72499847    0.89999998    2.55999994
   14.92027855  128.79299927    0.89999998    2.55999994
   14.92277813  130.05700684    0.89999998    2.55999994
   14.92416668  134.25100708    0.89999998    2.55999994
   14.92722225  126.84600067    0.89999998    2.55999994
   14.93055630  122.74800110    0.88000000    2.55999994
   14.93388939  126.28199768    0.88000000    2.55999994
   14.93694496  127.24400330    0.88000000    2.55999994
   14.94027805  132.07299805    0.88000000    2.55999994
   14.94361115  124.91000366    0.88000000    2.55999994
   14.94666672  129.93099976    0.88000000    2.55999994
   14.94999981  123.10199738    0.88000000    2.55999994
   14.95333290  131.16700745    0.88000000    2.55999994
   14.95611095  132.82899475    0.88000000    2.55999994
   14.95694447  129.05999756    0.88000000    2.55999994
   14.96000004  128.42100525    0.88000000    2.57999992
   14.96333313  133.93200684    0.88000000    2.57999992
   14.96666622  146.01800537    0.88000000    2.57999992
   14.96972179  134.64999390    0.88000000    2.55999994
   14.97305489  129.65199280    0.86000001    2.57999992
   14.97638798  145.29899597    0.86000001    2.55999994
   14.97944355  132.13800049    0.83999997    2.57999992
   14.98277760  136.96099854    0.83999997    2.57999992
   14.98583317  130.05999756    0.83999997    2.55999994
   14.98916721  133.79200745    0.81999999    2.57999992
   14.98972225  130.30999756    0.81999999    2.57999992
   14.99305534  145.30099487    0.81999999    2.57999992
   14.99611092  141.72300720    0.81999999    2.57999992
   14.99944496  152.47700500    0.80000001    2.57999992
   15.00277805  150.76199341    0.80000001    2.55999994
   15.00583363  142.76499939    0.80000001    2.55999994
   15.00916672  135.61199951    0.80000001    2.57999992
   15.01222229  139.27099609    0.80000001    2.57999992
   15.01555538  142.87100220    0.80000001    2.55999994
   15.01888847  131.72799683    0.80000001    2.57999992
   15.02194405  129.27999878    0.80000001    2.57999992
   15.02305508  149.69400024    0.80000001    2.57999992
   15.02583313  145.85200500    0.80000001    2.57999992
   15.02888870  142.49200439    0.80000001    2.57999992
   15.03222179  134.15400696    0.80000001    2.57999992
   15.03527832  151.92199707    0.80000001    2.57999992
   15.03861141  133.70399475    0.80000001    2.57999992
   15.04194450  131.04200745    0.81999999    2.57999992
   15.04527855  134.31300354    0.80000001    2.57999992
   15.04833412  126.90100098    0.80000001    2.57999992
   15.05166721  126.52200317    0.80000001    2.57999992
   15.05472279  131.68400574    0.80000001    2.57999992
   15.05638885  130.23800659    0.80000001    2.55999994
   15.05861092  127.19599915    0.80000001    2.55999994
   15.06194496  127.18099976    0.79000002    2.57999992
   15.06527805  125.74500275    0.76999998    2.55999994
   15.06888866  132.11199951    0.76999998    2.57999992
   15.07222176  126.54599762    0.76999998    2.57999992
   15.07527733  123.29799652    0.76999998    2.57999992
   15.07861137  123.25099945    0.76999998    2.57999992
   15.08166695  125.12799835    0.79000002    2.57999992
   15.08500004  125.69100189    0.79000002    2.57999992
   15.08833313  125.47499847    0.80000001    2.57999992
   15.08972168  130.66900635    0.80000001    2.57999992
   15.09194374  124.80599976    0.80000001    2.57999992
   15.09499931  133.42300415    0.80000001    2.57999992
   15.09833336  130.89900208    0.80000001    2.57999992
   15.10166740  136.10800171    0.80000001    2.57999992
   15.10472298  127.47899628    0.79000002    2.57999992
   15.10805607  142.96499634    0.76999998    2.57999992
   15.11111164  136.32899475    0.76999998    2.57999992
   15.11444473  128.61900330    0.76999998    2.57999992
   15.11777782  127.22200012    0.76999998    2.57999992
   15.12083340  137.03999329    0.76999998    2.57999992
   15.12305546  132.11399841    0.79000002    2.57999992
   15.12472248  126.69899750    0.79000002    2.57999992
   15.12777805  123.35500336    0.79000002    2.57999992
   15.13111115  137.15100098    0.80000001    2.57999992
   15.13444424  130.29899597    0.80000001    2.57999992
   15.13749981  132.93600464    0.80000001    2.57999992
   15.14083290  132.01600647    0.79000002    2.57999992
   15.14388847  139.69799805    0.80000001    2.57999992
   15.14722252  130.10099792    0.80000001    2.57999992
   15.15055561  135.44900513    0.80000001    2.57999992
   15.15361118  131.99699402    0.80000001    2.57999992
   15.15638828  137.31799316    0.80000001    2.57999992
   15.15749931  134.18400574    0.80000001    2.57999992
   15.16055489  140.08900452    0.80000001    2.57999992
   15.16388893  136.46699524    0.80000001    2.57999992
   15.16694450  136.01100159    0.79000002    2.57999992
   15.17027855  130.92700195    0.76999998    2.57999992
   15.17361164  132.64100647    0.76999998    2.57999992
   15.17666721  136.55000305    0.76999998    2.57999992
   15.18000031  125.79399872    0.76999998    2.59999990
   15.18333340  142.28100586    0.79000002    2.57999992
   15.18638897  130.41400146    0.79000002    2.57999992
   15.18972206  137.19500732    0.79000002    2.57999992
   15.19027805  128.09800720    0.79000002    2.57999992
   15.19333363  132.53700256    0.79000002    2.57999992
   15.19666672  125.23100281    0.79000002    2.57999992
   15.19972229  135.49200439    0.80000001    2.57999992
   15.20305538  134.98399353    0.80000001    2.57999992
   15.20638847  131.46699524    0.80000001    2.59999990
   15.20944405  128.76300049    0.80000001    2.59999990
   15.21277714  127.34799957    0.81999999    2.57999992
   15.21611118  133.31700134    0.80000001    2.57999992
   15.21916580  128.21400452    0.80000001    2.57999992
   15.22249985  135.90199280    0.80000001    2.59999990
   15.22305489  145.54299927    0.80000001    2.59999990
   15.22611046  132.62800598    0.80000001    2.59999990
   15.22916603  145.53700256    0.80000001    2.57999992
   15.23249912  147.64900208    0.80000001    2.57999992
   15.23583317  141.12199402    0.79000002    2.59999990
   15.23888874  144.79499817    0.79000002    2.57999992
   15.24222279  153.82299805    0.79000002    2.59999990
   15.24555588  149.87600708    0.76999998    2.57999992
   15.24861145  164.09100342    0.76999998    2.59999990
   15.25194454  159.04400635    0.76999998    2.59999990
   15.25527763  154.86999512    0.76999998    2.59999990
   15.25638866  141.72900391    0.79000002    2.59999990
   15.25888920  158.83700562    0.79000002    2.59999990
   15.26194477  176.26699829    0.79000002    2.59999990
   15.26527786  170.55900574    0.81999999    2.57999992
   15.26861095  172.50399780    0.81999999    2.59999990
   15.27166653  165.83500671    0.83999997    2.59999990
   15.27499962  173.94299316    0.83999997    2.59999990
   15.27833271  165.53199768    0.83999997    2.59999990
   15.28138828  146.86399841    0.83999997    2.59999990
   15.28472233  161.23199463    0.83999997    2.59999990
   15.28777790  152.64799500    0.95999998    2.59999990
   15.30583382  126.74900055    0.88000000    2.59999990
   15.30777836  130.20100403    0.88000000    2.59999990
   15.31083393  132.56700134    0.88000000    2.59999990
   15.31416702  132.19099426    0.88000000    2.59999990
   15.31750011  135.88099670    0.88000000    2.57999992
   15.32055569  129.40899658    0.88000000    2.59999990
   15.32388878  135.07800293    0.86000001    2.57999992
   15.32694435  130.57299805    0.83999997    2.57999992
   15.33027744  132.13400269    0.83999997    2.57999992
   15.33361053  131.44000244    0.83999997    2.59999990
   15.33694458  128.45799255    0.83999997    2.59999990
   15.33916664  137.57699585    0.81999999    2.59999990
   15.34055519  129.04699707    0.81999999    2.59999990
   15.34388828  138.64199829    0.80000001    2.59999990
   15.34722233  129.00799561    0.79000002    2.59999990
   15.35027790  137.43099976    0.79000002    2.59999990
   15.35361195  139.39999390    0.79000002    2.59999990
   15.35666752  132.89300537    0.79000002    2.59999990
   15.36000061  128.37699890    0.79000002    2.59999990
   15.36333370  132.98699951    0.79000002    2.59999990
   15.36638927  125.72699738    0.79000002    2.59999990
   15.36972237  128.48500061    0.79000002    2.59999990
   15.37250042  139.84199524    0.76999998    2.57999992
   15.37361145  133.50399780    0.76999998    2.57999992
   15.37666702  137.11099243    0.75000000    2.59999990
   15.38000011  138.28500366    0.75000000    2.59999990
   15.38305569  128.46899414    0.75000000    2.59999990
   15.38638878  128.29200745    0.75000000    2.59999990
   15.38972187  124.15899658    0.75000000    2.59999990
   15.39277744  126.96299744    0.73000002    2.59999990
   15.39611053  126.83599854    0.73000002    2.59999990
   15.39944458  126.35600281    0.73000002    2.59999990
   15.40249920  131.80700684    0.73000002    2.59999990
   15.40583324  127.66500092    0.73000002    2.59999990
   15.40638828  131.81300354    0.73000002    2.59999990
   15.40944386  132.11700439    0.73000002    2.59999990
   15.41277695  132.41200256    0.73000002    2.59999990
   15.41611099  131.33700562    0.73000002    2.59999990
   15.41916656  135.51300049    0.70999998    2.59999990
   15.42250061  136.13200378    0.70999998    2.59999990
   15.42555618  135.49299622    0.70999998    2.59999990
   15.42888927  146.57299805    0.70999998    2.61999989
   15.43222237  125.51399994    0.70999998    2.61999989
   15.43527794  140.99800110    0.67000002    2.61999989
   15.43861103  140.63900757    0.64999998    2.59999990
   15.43916702  132.44000244    0.64999998    2.59999990
   15.44222260  132.54100037    0.64999998    2.59999990
   15.44527817  127.77999878    0.64999998    2.59999990
   15.44861126  138.78599548    0.64999998    2.59999990
   15.45194435  127.05200195    0.67000002    2.59999990
   15.45499992  130.25799561    0.67000002    2.59999990
   15.45833302  134.49400330    0.67000002    2.59999990
   15.46166611  121.96499634    0.69000000    2.61999989
   15.46472168  124.57499695    0.69000000    2.61999989
   15.46805477  119.92199707    0.69000000    2.61999989
   15.47111034  127.76000214    0.69000000    2.59999990
   15.47249985  132.37399292    0.69000000    2.59999990
   15.47499943  135.08799744    0.69000000    2.59999990
   15.47805500  127.24600220    0.70999998    2.59999990
   15.48138809  127.06300354    0.70999998    2.59999990
   15.48472214  130.53399658    0.69000000    2.61999989
   15.48777771  117.20999908    0.70999998    2.61999989
   15.49111176  118.93399811    0.70999998    2.61999989
   15.49416733  153.81599426    0.70999998    2.61999989
   15.49750042  169.42700195    0.69000000    2.61999989
   15.50083351  222.33599854    0.69000000    2.59999990
   15.50388908  205.58700562    0.69000000    2.59999990
   15.50583363  221.68600464    0.67000002    2.59999990
   15.50777817  233.25000000    0.67000002    2.59999990
   15.51083374  243.66799927    0.67000002    2.59999990
   15.51416683  288.17498779    0.67000002    2.59999990
   15.51722240  276.53201294    0.67000002    2.61999989
   15.52055550  251.96499634    0.64999998    2.61999989
   15.52388859  205.35699463    0.64999998    2.61999989
   15.52694416  181.56300354    0.67000002    2.59999990
   15.53027725  203.72500610    0.67000002    2.59999990
   15.53361130  162.34800720    0.69000000    2.59999990
   15.53666687  190.38400269    0.70999998    2.61999989
   15.53944492  218.10400391    0.70999998    2.61999989
   15.54055595  194.86999512    0.70999998    2.61999989
   15.54388905  208.17300415    0.70999998    2.61999989
   15.54722309  211.58099365    0.70999998    2.61999989
   15.55027771  208.84899902    0.70999998    2.59999990
   15.55361176  208.87500000    0.70999998    2.59999990
   15.55694485  199.19200134    0.70999998    2.61999989
   15.56000042  211.05299377    0.70999998    2.59999990
   15.56333351  208.68400574    0.70999998    2.61999989
   15.56666660  193.53300476    0.70999998    2.59999990
   15.56972218  190.16299438    0.70999998    2.61999989
   15.57250023  185.87600708    0.70999998    2.61999989
   15.57361126  202.91099548    0.70999998    2.59999990
   15.57666683  206.11599731    0.70999998    2.59999990
   15.57999992  168.77099609    0.70999998    2.61999989
   15.58333302  179.89700317    0.69000000    2.61999989
   15.58666611  188.07899475    0.69000000    2.59999990
   15.58972168  195.83500671    0.69000000    2.59999990
   15.59305477  163.34199524    0.69000000    2.59999990
   15.59638882  195.84199524    0.69000000    2.59999990
   15.59944439  175.02999878    0.70999998    2.59999990
   15.60277843  180.10899353    0.69000000    2.59999990
   15.60583401  207.34899902    0.69000000    2.61999989
   15.60638905  187.42100525    0.69000000    2.61999989
   15.60972214  187.72200012    0.69000000    2.61999989
   15.61277771  171.18699646    0.69000000    2.61999989
   15.61611176  175.22099304    0.69000000    2.61999989
   15.61916637  175.41499329    0.69000000    2.59999990
   15.62250042  204.23300171    0.67000002    2.61999989
   15.62583351  189.83399963    0.67000002    2.61999989
   15.62888908  158.89100647    0.67000002    2.61999989
   15.63222218  204.13900757    0.67000002    2.61999989
   15.63555527  189.43200684    0.67000002    2.61999989
   15.63861084  175.27799988    0.69000000    2.61999989
   15.63916683  184.75599670    0.70999998    2.61999989
   15.64222240  167.21099854    0.70999998    2.61999989
   15.64527798  178.30999756    0.73000002    2.61999989
   15.64861107  170.55799866    0.75000000    2.61999989
   15.65194416  159.50000000    0.75000000    2.61999989
   15.65499973  151.04200745    0.75000000    2.61999989
   15.65833282  149.00500488    0.75000000    2.61999989
   15.66166592  148.14500427    0.73000002    2.61999989
   15.66472149  152.94599915    0.73000002    2.61999989
   15.66805553  145.55000305    0.73000002    2.61999989
   15.67111111  146.20599365    0.75000000    2.61999989
   15.67250061  149.23800659    0.79000002    2.59999990
   15.67500019  143.94299316    0.79000002    2.59999990
   15.67805576  155.28100586    0.80000001    2.61999989
   15.68138885  150.98399353    0.81999999    2.61999989
   15.68472195  157.21099854    0.81999999    2.59999990
   15.68777752  142.33500671    0.76999998    2.61999989
   15.69111156  149.83000183    0.76999998    2.61999989
   15.69444466  150.69900513    0.75000000    2.61999989
   15.69750023  154.84899902    0.76999998    2.61999989
   15.70083332  159.08599854    0.79000002    2.61999989
   15.70388889  170.66200256    0.76999998    2.59999990
   15.70583344  194.01699829    0.76999998    2.59999990
   15.70777798  179.58999634    0.76999998    2.59999990
   15.71111107  175.82200623    0.75000000    2.61999989
   15.71416664  163.46200562    0.73000002    2.61999989
   15.71749973  182.55299377    0.73000002    2.61999989
   15.72083282  208.23500061    0.73000002    2.61999989
   15.72388840  201.71099854    0.73000002    2.61999989
   15.72722149  187.00700378    0.73000002    2.61999989
   15.73027706  190.29100037    0.70999998    2.61999989
   15.73361111  224.33299255    0.73000002    2.61999989
   15.73694515  229.37199402    0.73000002    2.61999989
   15.73916721  191.53399658    0.73000002    2.61999989
   15.74055576  230.70700073    0.73000002    2.61999989
   15.74388885  245.91600037    0.76999998    2.61999989
   15.74694443  240.17599487    0.75000000    2.59999990
   15.75027752  279.92199707    0.75000000    2.61999989
   15.75333309  221.69099426    0.75000000    2.61999989
   15.75666714  235.27999878    0.75000000    2.61999989
   15.76000023  275.29299927    0.75000000    2.59999990
   15.76305580  275.41101074    0.75000000    2.61999989
   15.76638889  278.17001343    0.75000000    2.61999989
   15.76972198  216.32699585    0.73000002    2.61999989
   15.77250004  217.64500427    0.73000002    2.61999989
   15.77333355  227.25799561    0.73000002    2.61999989
   15.77666664  259.43701172    0.73000002    2.61999989
   15.77972221  245.26800537    0.73000002    2.61999989
   15.78305531  229.31199646    0.75000000    2.61999989
   15.78638935  228.65499878    0.75000000    2.61999989
   15.78944492  267.02398682    0.75000000    2.61999989
   15.79277802  206.54600525    0.75000000    2.61999989
   15.79611111  247.23300171    0.75000000    2.61999989
   15.79916668  233.77499390    0.75000000    2.61999989
   15.80249977  271.69699097    0.75000000    2.61999989
   15.80555534  213.26800537    0.75000000    2.61999989
   15.80638885  201.71699524    0.75000000    2.61999989
   15.80944443  209.05200195    0.73000002    2.61999989
   15.81277752  238.77000427    0.73000002    2.61999989
   15.81583309  207.36700439    0.73000002    2.61999989
   15.81916618  200.87600708    0.73000002    2.61999989
   15.82250023  214.13000488    0.73000002    2.61999989
   15.82555580  202.55200195    0.73000002    2.61999989
   15.82888889  202.98800659    0.75000000    2.61999989
   15.83222198  203.27400208    0.75000000    2.61999989
   15.83527756  227.25300598    0.75000000    2.61999989
   15.83861065  203.15800476    0.73000002    2.61999989
   15.83944416  190.85099792    0.73000002    2.61999989
   15.84222221  203.86599731    0.73000002    2.61999989
   15.84555531  219.66200256    0.73000002    2.61999989
   15.84861088  210.05400085    0.73000002    2.59999990
   15.85194492  196.44599915    0.75000000    2.61999989
   15.85527802  195.17599487    0.75000000    2.61999989
   15.85833359  215.48899841    0.75000000    2.61999989
   15.86166668  180.59899902    0.75000000    2.61999989
   15.86472225  232.36599731    0.75000000    2.61999989
   15.86805534  215.38499451    0.75000000    2.61999989
   15.87138939  190.48100281    0.75000000    2.61999989
   15.87277794  192.36799622    0.75000000    2.61999989
   15.87500000  207.73500061    0.75000000    2.61999989
   15.87833309  218.04400635    0.75000000    2.61999989
   15.88138866  177.52799988    0.75000000    2.61999989
   15.88472176  170.91000366    0.75000000    2.61999989
   15.88805580  174.24600220    0.75000000    2.61999989
   15.89111137  182.13099670    0.75000000    2.61999989
   15.89444447  180.66799927    0.73000002    2.61999989
   15.89777756  210.49899292    0.73000002    2.61999989
   15.90083313  189.23599243    0.70999998    2.61999989
   15.90416622  180.01100159    0.70999998    2.61999989
   15.90611076  184.75000000    0.70999998    2.61999989
   15.90777779  172.48100281    0.70999998    2.61999989
   15.91111088  176.96299744    0.70999998    2.61999989
   15.91416645  162.75599670    0.70999998    2.61999989
   15.91750050  172.34300232    0.70999998    2.61999989
   15.92083359  176.72300720    0.70999998    2.61999989
   15.92416668  173.02400208    0.70999998    2.61999989
   15.92722225  183.91400146    0.70999998    2.61999989
   15.93055630  160.84100342    0.70999998    2.61999989
   15.93388939  153.75000000    0.70999998    2.61999989
   15.93694496  160.11700439    0.70999998    2.61999989
   15.93972206  152.16400146    0.70999998    2.61999989
   15.94055557  164.49400330    0.70999998    2.61999989
   15.94388866  162.45399475    0.70999998    2.61999989
   15.94722271  156.82699585    0.70999998    2.61999989
   15.95027733  143.48100281    0.70999998    2.61999989
   15.95361137  157.11399841    0.70999998    2.61999989
   15.95666695  145.65600586    0.70999998    2.61999989
   15.96000004  151.38600159    0.70999998    2.61999989
   15.96333313  155.32400513    0.70999998    2.61999989
   15.96638870  154.42399597    0.70999998    2.61999989
   15.96972179  152.25300598    0.70999998    2.61999989
   15.97305489  141.96899414    0.73000002    2.61999989
   15.97333336  152.86500549    0.73000002    2.61999989
   15.97666645  147.63999939    0.73000002    2.61999989
   15.97972202  161.79800415    0.73000002    2.61999989
   15.98305511  158.33399963    0.73000002    2.61999989
   15.98638916  145.43099976    0.70999998    2.61999989
   15.98944473  148.62899780    0.70999998    2.61999989
   15.99277782  149.87800598    0.73000002    2.61999989
   15.99611092  153.51400757    0.73000002    2.61999989
   15.99916649  162.70700073    0.73000002    2.61999989
   16.00250053  150.96099854    0.73000002    2.61999989
   16.00555611  146.46499634    0.70999998    2.61999989
   16.00638962  160.84300232    0.70999998    2.61999989
   16.00916672  135.68200684    0.69000000    2.61999989
   16.01250076  143.52600098    0.67000002    2.61999989
   16.01555634  140.67900085    0.67000002    2.61999989
   16.01888847  138.52400208    0.67000002    2.61999989
   16.02222252  143.70599365    0.67000002    2.61999989
   16.02527809  154.48300171    0.69000000    2.61999989
   16.02861023  143.27200317    0.70999998    2.61999989
   16.03194427  144.65299988    0.73000002    2.61999989
   16.03499985  139.10800171    0.73000002    2.61999989
   16.03833199  136.41499329    0.73000002    2.61999989
   16.03972244  146.11099243    0.73000002    2.61999989
   16.04194450  139.99200439    0.73000002    2.64000010
   16.04555511  145.54400635    0.75000000    2.61999989
   16.04861069  140.15699768    0.73000002    2.64000010
   16.05194283  148.03100586    0.73000002    2.61999989
   16.05499840  150.64199829    0.73000002    2.61999989
   16.05833244  133.87300110    0.73000002    2.61999989
   16.06166649  140.93099976    0.70999998    2.61999989
   16.06472206  142.21299744    0.70999998    2.61999989
   16.06805611  144.26300049    0.69000000    2.61999989
   16.07111168  142.91600037    0.69000000    2.61999989
   16.07305717  139.89199829    0.69000000    2.61999989
   16.07472229  141.13999939    0.69000000    2.61999989
   16.07805634  144.61000061    0.69000000    2.61999989
   16.08139038  127.85800171    0.70999998    2.64000010
   16.08444595  140.16499329    0.70999998    2.64000010
   16.08777809  140.03599548    0.75000000    2.61999989
   16.09083366  137.47200012    0.81999999    2.61999989
   16.09416771  136.84800720    0.92000002    2.61999989
   16.09749985  140.11000061    0.94000000    2.61999989
   16.10055542  136.56500244    0.94000000    2.61999989
   16.10388947  145.93499756    0.98000002    2.61999989
   16.10639000  132.36900330    0.98000002    2.61999989
   16.10750008  125.73999786    0.98000002    2.61999989
   16.11083412  141.14399719    1.00000000    2.61999989
   16.11416626  131.55499268    1.00000000    2.61999989
   16.11722183  133.52499390    1.00000000    2.61999989
   16.12055588  122.19899750    1.03999996    2.61999989
   16.12361145  131.49000549    1.00000000    2.61999989
   16.12694550  133.51899719    0.95999998    2.61999989
   16.13027763  142.65199280    0.88000000    2.64000010
   16.13361168  138.63600159    0.81999999    2.61999989
   16.13666725  134.51499939    0.81999999    2.61999989
   16.13972282  136.61399841    0.83999997    2.61999989
   16.14027786  136.43800354    0.83999997    2.61999989
   16.14361191  124.62999725    0.88000000    2.61999989
   16.14694405  126.81900024    0.94000000    2.61999989
   16.14999962  132.30700684    0.94000000    2.61999989
   16.15333366  124.83899689    0.98000002    2.61999989
   16.15638924  124.10900116    0.98000002    2.61999989
   16.15972137  124.76000214    1.01999998    2.61999989
   16.16305542  129.57400513    0.95999998    2.61999989
   16.16611099  130.44799805    0.89999998    2.61999989
   16.16944313  132.77699280    0.89999998    2.61999989
   16.17277718  143.37600708    0.92000002    2.61999989
   16.17333221  136.99499512    0.92000002    2.61999989
   16.17638779  130.83700562    0.95999998    2.61999989
   16.17972183  122.10199738    0.94000000    2.61999989
   16.18305397  120.07199860    0.89999998    2.64000010
   16.18610954  141.70300293    0.86000001    2.61999989
   16.18944359  126.48999786    0.83999997    2.64000010
   16.19249916  125.96099854    0.83999997    2.64000010
   16.19583321  127.49800110    0.83999997    2.64000010
   16.19916534  130.97799683    0.86000001    2.64000010
   16.20222282  139.74400330    0.83999997    2.61999989
   16.20555687  124.91899872    0.83999997    2.61999989
   16.20666695  126.48699951    0.81999999    2.61999989
   16.20944595  127.39800262    0.81999999    2.61999989
   16.21250153  135.59300232    0.80000001    2.61999989
   16.21583366  133.10899353    0.80000001    2.64000010
   16.21888924  133.35800171    0.79000002    2.61999989
   16.22222328  124.05699921    0.79000002    2.61999989
   16.22555542  136.70199585    0.79000002    2.64000010
   16.22861099  128.01899719    0.79000002    2.64000010
   16.23194504  131.69799805    0.76999998    2.61999989
   16.23527718  134.33700562    0.76999998    2.61999989
   16.23833275  133.89999390    0.76999998    2.64000010
   16.23999977  135.25000000    0.76999998    2.61999989
   16.24194527  127.97899628    0.76999998    2.61999989
   16.24527740  135.57000732    0.81999999    2.64000010
   16.24861145  130.20799255    0.81999999    2.64000010
   16.25166702  135.36000061    0.76999998    2.61999989
   16.25499916  124.98699951    0.76999998    2.64000010
   16.25833321  130.86900330    0.76999998    2.64000010
   16.26138878  127.37400055    0.75000000    2.64000010
   16.26472282  127.68199921    0.75000000    2.64000010
   16.26777840  138.87399292    0.76999998    2.64000010
   16.27111053  131.12399292    0.79000002    2.61999989
   16.27333260  127.60299683    0.79000002    2.61999989
   16.27472115  131.96800232    0.79000002    2.61999989
   16.27805519  125.04699707    0.79000002    2.61999989
   16.28138924  129.72900391    0.80000001    2.61999989
   16.28444481  122.39499664    0.76999998    2.64000010
   16.28777695  122.40100098    0.73000002    2.61999989
   16.29083252  131.13600159    0.69000000    2.64000010
   16.29416656  128.09300232    0.67000002    2.64000010
   16.29749870  129.38800049    0.70999998    2.64000010
   16.30083275  132.26400757    0.70999998    2.64000010
   16.30388832  127.61900330    0.70999998    2.64000010
   16.32250023  140.44200134    0.67000002    2.64000010
   16.32361221  130.08500671    0.67000002    2.64000010
   16.32694626  136.30900574    0.64999998    2.64000010
   16.33027840  134.35800171    0.64999998    2.64000010
   16.33333397  139.15400696    0.64999998    2.64000010
   16.33666801  132.42599487    0.64999998    2.64000010
   16.33972359  124.90299988    0.64999998    2.64000010
   16.34305573  132.58000183    0.64999998    2.64000010
   16.34638977  135.41499329    0.67000002    2.61999989
   16.34944534  136.58900452    0.67000002    2.64000010
   16.35277748  124.93599701    0.64999998    2.61999989
   16.35555649  125.71499634    0.67000002    2.64000010
   16.35639000  133.43600464    0.67000002    2.64000010
   16.35972214  132.64900208    0.67000002    2.64000010
   16.36277771  127.10800171    0.67000002    2.61999989
   16.36611176  130.20100403    0.67000002    2.64000010
   16.36944389  133.96699524    0.67000002    2.64000010
   16.37249947  131.44799805    0.64999998    2.64000010
   16.37583351  128.98100281    0.64999998    2.61999989
   16.37888908  132.00500488    0.64999998    2.61999989
   16.38222313  127.18000031    0.64999998    2.64000010
   16.38555527  130.08500671    0.64999998    2.64000010
   16.38861084  125.58999634    0.64999998    2.64000010
   16.38944435  127.14800262    0.64999998    2.64000010
   16.39249992  133.56700134    0.67000002    2.64000010
   16.39583397  124.72299957    0.67000002    2.64000010
   16.39916611  128.49600220    0.67000002    2.64000010
   16.40222168  129.14399719    0.67000002    2.61999989
   16.40555573  128.13800049    0.67000002    2.61999989
   16.40861130  128.95199585    0.67000002    2.64000010
   16.41194344  127.43199921    0.67000002    2.64000010
   16.41527748  134.92300415    0.67000002    2.61999989
   16.41833305  123.07399750    0.67000002    2.64000010
   16.42194366  135.88099670    0.67000002    2.64000010
   16.42277718  132.98899841    0.67000002    2.64000010
   16.42527771  126.91799927    0.67000002    2.64000010
   16.42860985  130.74000549    0.67000002    2.64000010
   16.43194389  139.11500549    0.67000002    2.64000010
   16.43499947  134.60899353    0.64999998    2.64000010
   16.43833160  128.13099670    0.64999998    2.64000010
   16.44138718  139.53300476    0.64999998    2.61999989
   16.44472122  127.31099701    0.64999998    2.61999989
   16.44805527  130.86599731    0.64999998    2.61999989
   16.45111275  130.10400391    0.64999998    2.61999989
   16.45444489  130.52200317    0.63000000    2.64000010
   16.45611191  134.81700134    0.63000000    2.64000010
   16.45805550  127.96299744    0.63000000    2.64000010
   16.46138954  132.96800232    0.69000000    2.64000010
   16.46472359  127.89399719    0.69000000    2.64000010
   16.46777916  130.83299255    0.70999998    2.64000010
   16.47111130  125.60800171    0.70999998    2.64000010
   16.47444534  130.02099609    0.69000000    2.64000010
   16.47750092  134.55000305    0.63000000    2.64000010
   16.48083305  129.88000488    0.61000001    2.64000010
   16.48388863  119.89299774    0.58999997    2.61999989
   16.48722267  130.05599976    0.58999997    2.61999989
   16.48944473  130.38200378    0.61000001    2.64000010
   16.49083328  133.51499939    0.61000001    2.64000010
   16.49416733  134.83599854    0.61000001    2.64000010
   16.49749947  133.49699402    0.63000000    2.64000010
   16.50055504  126.27899933    0.63000000    2.64000010
   16.50388908  132.53100586    0.61000001    2.64000010
   16.50694466  127.60800171    0.61000001    2.64000010
   16.51027870  126.60399628    0.63000000    2.64000010
   16.51361084  136.98500061    0.61000001    2.64000010
   16.51666641  137.35600281    0.61000001    2.64000010
   16.52000046  128.41999817    0.58999997    2.64000010
   16.52277756  132.35600281    0.61000001    2.64000010
   16.52361107  133.85200500    0.61000001    2.64000010
   16.52694511  129.32299805    0.61000001    2.64000010
   16.53027725  132.05400085    0.61000001    2.64000010
   16.53333282  129.37399292    0.61000001    2.64000010
   16.53666687  127.84300232    0.61000001    2.64000010
   16.53999901  131.53799438    0.61000001    2.64000010
   16.54305458  123.51699829    0.61000001    2.64000010
   16.54638863  129.11300659    0.63000000    2.61999989
   16.54972076  123.51300049    0.63000000    2.64000010
   16.55277634  127.82399750    0.61000001    2.64000010
   16.55611038  125.85299683    0.61000001    2.64000010
   16.55638885  130.41600037    0.61000001    2.64000010
   16.55972099  127.55100250    0.61000001    2.64000010
   16.56305504  128.25300598    0.61000001    2.64000010
   16.56611061  127.94499969    0.61000001    2.64000010
   16.56944466  121.75399780    0.61000001    2.64000010
   16.57277870  129.82099915    0.58999997    2.64000010
   16.57583427  128.33799744    0.58999997    2.64000010
   16.57916832  138.67799377    0.58999997    2.64000010
   16.58250046  128.81599426    0.58999997    2.61999989
   16.58555603  128.04800415    0.58999997    2.64000010
   16.58889008  120.77400208    0.58999997    2.64000010
   16.58944511  130.10299683    0.58999997    2.64000010
   16.59222221  128.57600403    0.58999997    2.64000010
   16.59555626  128.16099548    0.58999997    2.64000010
   16.59889030  128.27200317    0.56999999    2.64000010
   16.60194397  127.94499969    0.56999999    2.64000010
   16.60527802  122.92199707    0.56999999    2.61999989
   16.60861206  131.61300659    0.56999999    2.61999989
   16.61166763  129.97500610    0.56999999    2.64000010
   16.61499977  120.37899780    0.56999999    2.64000010
   16.61805534  125.22100067    0.56999999    2.64000010
   16.62138939  128.73800659    0.56999999    2.64000010
   16.62277794  131.94299316    0.56999999    2.64000010
   16.62500000  130.35499573    0.58999997    2.64000010
   16.62833405  135.67799377    0.61000001    2.64000010
   16.63166618  127.76399994    0.61000001    2.64000010
   16.63472176  127.88600159    0.63000000    2.64000010
   16.63805580  136.18600464    0.64999998    2.64000010
   16.64138794  128.82200623    0.64999998    2.64000010
   16.64444351  128.26199341    0.64999998    2.64000010
   16.64777756  133.37800598    0.63000000    2.64000010
   16.65083313  117.81800079    0.63000000    2.64000010
   16.65416718  119.86000061    0.61000001    2.64000010
   16.65611076  134.87300110    0.61000001    2.64000010
   16.65777779  126.72200012    0.61000001    2.64000010
   16.66110992  124.82499695    0.63000000    2.61999989
   16.66444397  122.61000061    0.63000000    2.61999989
   16.66749954  131.49899292    0.63000000    2.64000010
   16.67083359  137.16099548    0.61000001    2.64000010
   16.67416573  126.31099701    0.61000001    2.64000010
   16.67722130  134.24299622    0.58999997    2.64000010
   16.68055534  136.79299927    0.61000001    2.64000010
   16.68388748  134.80700684    0.63000000    2.64000010
   16.68694305  132.35699463    0.63000000    2.64000010
   16.68944359  137.00100708    0.61000001    2.64000010
   16.69055557  140.74000549    0.61000001    2.64000010
   16.69388771  142.19200134    0.61000001    2.64000010
   16.69722176  139.43299866    0.61000001    2.64000010
   16.70027924  139.44900513    0.61000001    2.64000010
   16.70361137  133.35800171    0.61000001    2.64000010
   16.70694542  138.41900635    0.61000001    2.64000010
   16.71000099  131.06300354    0.61000001    2.64000010
   16.71333504  136.24800110    0.63000000    2.64000010
   16.71666718  130.93200684    0.61000001    2.64000010
   16.72000122  132.66200256    0.58999997    2.61999989
   16.72277832  131.84700012    0.58999997    2.61999989
   16.72333336  131.02999878    0.56999999    2.64000010
   16.72666740  130.35899353    0.56999999    2.64000010
   16.73000145  130.69700623    0.56999999    2.64000010
   16.73305511  134.57600403    0.56999999    2.64000010
   16.73638916  138.88200378    0.56999999    2.64000010
   16.73972321  135.61500549    0.56999999    2.64000010
   16.74277878  130.80099487    0.56999999    2.64000010
   16.74611092  138.17399597    0.55000001    2.64000010
   16.74916649  132.38999939    0.55000001    2.64000010
   16.75250053  127.02300262    0.55000001    2.64000010
   16.75583267  133.03399658    0.55000001    2.64000010
   16.75638962  129.74200439    0.55000001    2.64000010
   16.75972176  119.95400238    0.55000001    2.64000010
   16.76305580  134.13800049    0.55000001    2.64000010
   16.76611137  128.54600525    0.55000001    2.64000010
   16.76944351  133.58200073    0.55000001    2.64000010
   16.77249908  127.50599670    0.55000001    2.64000010
   16.77583313  139.62899780    0.55000001    2.64000010
   16.77916718  130.70599365    0.56999999    2.64000010
   16.78222275  129.21200562    0.56999999    2.64000010
   16.78555489  127.18199921    0.56999999    2.64000010
   16.78888893  136.31500244    0.56999999    2.61999989
   16.78972244  131.77299500    0.56999999    2.61999989
   16.79222107  133.37600708    0.56999999    2.64000010
   16.79555511  130.95500183    0.56999999    2.64000010
   16.79888916  126.39900208    0.56999999    2.64000010
   16.80194283  121.61100006    0.56999999    2.64000010
   16.80527687  126.51100159    0.56999999    2.64000010
   16.80861092  126.58699799    0.56999999    2.64000010
   16.81166649  121.25900269    0.58999997    2.64000010
   16.81499863  124.80300140    0.58999997    2.64000010
   16.81833458  135.63600159    0.56999999    2.64000010
   16.82139015  143.68200684    0.56999999    2.64000010
   16.82305717  127.47599792    0.56999999    2.64000010
   16.82500076  134.26800537    0.56999999    2.64000010
   16.82833481  132.67599487    0.56999999    2.64000010
   16.83166695  141.43099976    0.56999999    2.64000010
   16.83472252  138.84199524    0.56999999    2.64000010
   16.83805656  125.21700287    0.55000001    2.64000010
   16.84111214  127.66600037    0.55000001    2.64000010
   16.84444427  128.03500366    0.56999999    2.64000010
   16.84777832  129.70500183    0.55000001    2.64000010
   16.85083389  129.64500427    0.55000001    2.64000010
   16.85416794  131.28599548    0.55000001    2.64000010
   16.85639000  136.78300476    0.55000001    2.64000010
   16.85777855  130.69400024    0.55000001    2.64000010
   16.86111069  128.98100281    0.55000001    2.64000010
   16.86444473  138.79899597    0.55000001    2.64000010
   16.86750031  140.01300049    0.55000001    2.64000010
   16.87083435  126.55100250    0.55000001    2.64000010
   16.87416649  131.75500488    0.55000001    2.66000009
   16.87722206  132.52900696    0.55000001    2.64000010
   16.88055611  127.29499817    0.55000001    2.64000010
   16.88361168  139.22399902    0.55000001    2.64000010
   16.88694382  137.83999634    0.52999997    2.64000010
   16.88972282  128.89900208    0.55000001    2.64000010
   16.89055634  125.94699860    0.55000001    2.64000010
   16.89388847  125.96700287    0.52999997    2.64000010
   16.89722252  132.72900391    0.55000001    2.64000010
   16.90027809  135.20100403    0.52999997    2.64000010
   16.90361023  128.74299622    0.52999997    2.64000010
   16.90666580  129.13999939    0.52999997    2.64000010
   16.90999985  132.41000366    0.55000001    2.64000010
   16.91333389  130.20100403    0.55000001    2.64000010
   16.91638756  133.09700012    0.55000001    2.64000010
   16.91972160  128.60000610    0.55000001    2.64000010
   16.92305565  122.59200287    0.52999997    2.64000010
   16.92333221  137.18800354    0.52999997    2.64000010
   16.92666626  130.11900330    0.52999997    2.64000010
   16.93000031  128.20300293    0.52999997    2.64000010
   16.93305397  126.27200317    0.55000001    2.61999989
   16.93638802  136.08999634    0.55000001    2.64000010
   16.93944359  130.00700378    0.55000001    2.64000010
   16.94277763  130.33900452    0.55000001    2.64000010
   16.94610977  131.26300049    0.55000001    2.64000010
   16.94916534  124.88700104    0.52999997    2.64000010
   16.95250130  130.55400085    0.55000001    2.64000010
   16.95583344  134.15199280    0.55000001    2.64000010
   16.95639038  128.27900696    0.55000001    2.64000010
   16.95916748  130.29899597    0.55000001    2.64000010
   16.96250153  127.11399841    0.55000001    2.64000010
   16.96583366  124.77100372    0.55000001    2.64000010
   16.96888924  129.04400635    0.55000001    2.64000010
   16.97222328  133.30900574    0.55000001    2.64000010
   16.97555542  128.40400696    0.55000001    2.61999989
   16.97861099  127.83000183    0.55000001    2.64000010
   16.98194504  136.68899536    0.55000001    2.64000010
   16.98527718  131.39300537    0.55000001    2.64000010
   16.98833275  124.97499847    0.55000001    2.64000010
   16.98972321  129.82600403    0.55000001    2.64000010
   16.99194527  134.74000549    0.56999999    2.64000010
   16.99527740  133.19500732    0.56999999    2.64000010
   16.99861145  128.48300171    0.55000001    2.64000010
   17.00166702  122.34899902    0.56999999    2.64000010
   17.00499916  123.86699677    0.56999999    2.64000010
   17.00833321  126.11100006    0.55000001    2.64000010
   17.01138878  127.59899902    0.55000001    2.64000010
   17.01472282  134.34100342    0.55000001    2.64000010
   17.01777840  133.49299622    0.55000001    2.64000010
   17.02111053  129.71400452    0.55000001    2.64000010
   17.02305603  122.51799774    0.55000001    2.64000010
   17.02472115  128.40899658    0.55000001    2.64000010
   17.02805519  131.02699280    0.52999997    2.64000010
   17.03138924  127.60500336    0.52999997    2.64000010
   17.03444481  127.42600250    0.55000001    2.64000010
   17.03777695  134.16200256    0.55000001    2.64000010
   17.04111099  131.35099792    0.55000001    2.64000010
   17.04416656  130.50900269    0.55000001    2.64000010
   17.04749870  131.36199951    0.56999999    2.64000010
   17.05083275  127.95999908    0.56999999    2.64000010
   17.05388832  133.68200684    0.56999999    2.64000010
   17.05638885  128.51400757    0.56999999    2.64000010
   17.05749893  128.64700317    0.56999999    2.64000010
   17.06083298  133.88400269    0.56999999    2.64000010
   17.06416512  131.10299683    0.56999999    2.64000010
   17.06722260  129.17599487    0.58999997    2.64000010
   17.07055664  122.95500183    0.63000000    2.64000010
   17.07389069  133.85400391    0.63000000    2.61999989
   17.07694626  123.17800140    0.63000000    2.64000010
   17.08027840  130.44599915    0.67000002    2.64000010
   17.08333397  129.14700317    0.67000002    2.64000010
   17.08666801  127.09799957    0.67000002    2.64000010
   17.08972359  130.59500122    0.69000000    2.64000010
   17.09027863  125.90000153    0.69000000    2.64000010
   17.09361267  131.43800354    0.69000000    2.61999989
   17.09694481  132.07299805    0.69000000    2.61999989
   17.10000038  130.47099304    0.70999998    2.61999989
   17.10333443  129.44999695    0.79000002    2.61999989
   17.10666656  132.05400085    0.79000002    2.61999989
   17.10972214  126.85700226    0.83999997    2.61999989
   17.11305618  132.04100037    0.83999997    2.61999989
   17.11611176  132.45300293    0.76999998    2.64000010
   17.11944389  134.67100525    0.79000002    2.64000010
   17.12277794  129.76600647    0.79000002    2.64000010
   17.12333298  134.42300415    0.79000002    2.64000010
   17.12638855  128.70399475    0.76999998    2.64000010
   17.12972260  132.27799988    0.75000000    2.64000010
   17.13305473  135.94599915    0.70999998    2.64000010
   17.13611031  131.55799866    0.69000000    2.61999989
   17.13944435  131.21299744    0.67000002    2.64000010
   17.14249992  126.81700134    0.67000002    2.64000010
   17.14583397  124.16899872    0.67000002    2.61999989
   17.14916611  129.38800049    0.64999998    2.64000010
   17.15222168  130.83700562    0.67000002    2.64000010
   17.15555573  144.54299927    0.64999998    2.64000010
   17.15666580  143.04699707    0.64999998    2.64000010
   17.15916634  133.68600464    0.69000000    2.64000010
   17.16250038  129.92799377    0.69000000    2.64000010
   17.16583252  136.63999939    0.70999998    2.64000010
   17.16888809  131.46800232    0.69000000    2.61999989
   17.17222214  132.87199402    0.69000000    2.61999989
   17.17527771  129.12500000    0.70999998    2.64000010
   17.17860985  138.68699646    0.69000000    2.64000010
   17.18194389  127.58000183    0.67000002    2.64000010
   17.18499947  129.46000671    0.64999998    2.64000010
   17.18833160  137.14199829    0.67000002    2.61999989
   17.18999863  140.19799805    0.67000002    2.61999989
   17.19194412  135.16999817    0.64999998    2.64000010
   17.19527626  125.59300232    0.64999998    2.64000010
   17.19861031  136.78300476    0.63000000    2.64000010
   17.20166779  147.40699768    0.63000000    2.64000010
   17.20499992  141.86999512    0.63000000    2.64000010
   17.20805550  140.66000366    0.63000000    2.64000010
   17.21138954  142.61999512    0.63000000    2.64000010
   17.21472359  136.10699463    0.63000000    2.64000010
   17.21777916  138.22999573    0.63000000    2.64000010
   17.22111130  142.12699890    0.63000000    2.64000010
   17.22333336  139.27999878    0.63000000    2.64000010
   17.22472191  146.44500732    0.63000000    2.64000010
   17.22805595  130.52799988    0.63000000    2.64000010
   17.23139000  135.12399292    0.63000000    2.64000010
   17.23444557  135.39900208    0.63000000    2.64000010
   17.23777771  137.96600342    0.63000000    2.64000010
   17.24083328  133.16799927    0.63000000    2.64000010
   17.24416733  136.99099731    0.63000000    2.64000010
   17.24749947  125.06199646    0.63000000    2.64000010
   17.25055504  137.47500610    0.63000000    2.61999989
   17.25388908  142.68499756    0.61000001    2.64000010
   17.25666618  140.25500488    0.61000001    2.64000010
   17.25749969  128.25999451    0.61000001    2.64000010
   17.26083374  131.94500732    0.61000001    2.64000010
   17.26416588  130.10200500    0.63000000    2.64000010
   17.26722145  134.15100098    0.63000000    2.64000010
   17.27055550  128.13800049    0.61000001    2.61999989
   17.27361107  131.01199341    0.61000001    2.64000010
   17.27694511  142.83399963    0.61000001    2.64000010
   17.28027725  130.63999939    0.61000001    2.64000010
   17.28333282  125.29100037    0.61000001    2.64000010
   17.28666687  127.61399841    0.61000001    2.64000010
   17.28999901  130.48100281    0.61000001    2.64000010
   17.29027748  132.31500244    0.61000001    2.64000010
   17.29361153  138.63499451    0.61000001    2.64000010
   17.29694366  129.24000549    0.61000001    2.64000010
   17.29999924  133.04600525    0.61000001    2.64000010
   17.30333328  128.30700684    0.61000001    2.64000010
   17.30666542  143.15699768    0.61000001    2.64000010
   17.30999947  146.69200134    0.61000001    2.64000010
   17.31305504  136.06900024    0.61000001    2.61999989
   17.31638718  141.14599609    0.61000001    2.64000010
   17.31972313  139.05000305    0.61000001    2.64000010
   17.33916664  136.21499634    0.58999997    2.64000010
   17.33944511  128.90199280    0.58999997    2.64000010
   17.34277916  131.53199768    0.56999999    2.64000010
   17.34583473  128.43600464    0.56999999    2.64000010
   17.34916687  133.28399658    0.56999999    2.64000010
   17.35250092  138.86300659    0.58999997    2.64000010
   17.35583305  131.56799316    0.58999997    2.64000010
   17.35916710  136.64300537    0.58999997    2.64000010
   17.36222267  129.31799316    0.58999997    2.64000010
   17.36555672  136.00900269    0.58999997    2.64000010
   17.36888885  130.04400635    0.69000000    2.61999989
   17.37194443  139.15299988    0.88000000    2.64000010
   17.37249947  137.51400757    0.88000000    2.64000010
   17.37583351  141.08599854    0.75000000    2.64000010
   17.37916756  139.67900085    0.67000002    2.64000010
   17.38249969  135.99800110    0.76999998    2.64000010
   17.38555527  140.10099792    0.76999998    2.64000010
   17.38888931  147.49800110    0.88000000    2.61999989
   17.39222145  136.18200684    0.89999998    2.64000010
   17.39527702  146.69999695    0.81999999    2.64000010
   17.39861107  136.30099487    0.69000000    2.64000010
   17.40166664  141.24299622    0.64999998    2.64000010
   17.40499878  136.89100647    0.64999998    2.64000010
   17.40583229  146.50199890    0.63000000    2.64000010
   17.40861130  155.18600464    0.63000000    2.64000010
   17.41194344  143.86300659    0.61000001    2.64000010
   17.41499901  157.68400574    0.58999997    2.64000010
   17.41833305  159.40899658    0.58999997    2.64000010
   17.42166519  167.11900330    0.61000001    2.64000010
   17.42472076  170.65400696    0.61000001    2.64000010
   17.42805481  164.74099731    0.61000001    2.64000010
   17.43138885  157.89799500    0.61000001    2.64000010
   17.43444443  168.33299255    0.64999998    2.64000010
   17.43777657  192.28199768    0.70999998    2.66000009
   17.43916512  184.18099976    0.70999998    2.66000009
   17.44138718  204.36599731    0.70999998    2.66000009
   17.44444275  187.95399475    0.69000000    2.64000010
   17.44777679  173.63900757    0.69000000    2.64000010
   17.45111275  168.07499695    0.70999998    2.64000010
   17.45416832  183.04499817    0.75000000    2.61999989
   17.45750046  162.41799927    0.73000002    2.64000010
   17.46083450  166.36000061    0.70999998    2.64000010
   17.46389008  180.58900452    0.69000000    2.61999989
   17.46722221  194.32499695    0.69000000    2.61999989
   17.47027779  148.51199341    0.73000002    2.64000010
   17.47277832  177.24400330    0.76999998    2.61999989
   17.47416687  166.50199890    0.76999998    2.61999989
   17.47750092  158.74099731    0.75000000    2.64000010
   17.48083305  175.13000488    0.75000000    2.61999989
   17.48388863  169.11599731    0.75000000    2.61999989
   17.48722267  153.54699707    0.75000000    2.61999989
   17.49055672  175.74000549    0.67000002    2.61999989
   17.49361229  190.36300659    0.67000002    2.64000010
   17.49694443  181.91400146    0.67000002    2.64000010
   17.50027847  188.16200256    0.67000002    2.61999989
   17.50333405  191.20599365    0.67000002    2.61999989
   17.50583267  182.15400696    0.67000002    2.61999989
   17.50694466  159.44200134    0.69000000    2.61999989
   17.51000023  180.68299866    0.67000002    2.64000010
   17.51333427  170.87699890    0.67000002    2.64000010
   17.51666641  165.84500122    0.67000002    2.61999989
   17.51972198  165.18699646    0.67000002    2.64000010
   17.52305603  174.36999512    0.67000002    2.64000010
   17.52638817  172.44000244    0.67000002    2.64000010
   17.52944374  145.88999939    0.67000002    2.64000010
   17.53277779  174.54200745    0.67000002    2.61999989
   17.53583336  177.67300415    0.67000002    2.61999989
   17.53916550  167.66999817    0.67000002    2.64000010
   17.53972244  152.90199280    0.67000002    2.64000010
   17.54277802  147.29899597    0.67000002    2.64000010
   17.54611015  165.17599487    0.69000000    2.61999989
   17.54944420  167.43200684    0.69000000    2.61999989
   17.55249977  146.98100281    0.69000000    2.61999989
   17.55583191  151.32499695    0.69000000    2.64000010
   17.55916595  155.49899292    0.67000002    2.61999989
   17.56222153  155.19700623    0.67000002    2.64000010
   17.56555557  154.78799438    0.67000002    2.64000010
   17.56861115  157.75300598    0.69000000    2.61999989
   17.57194519  151.33099365    0.67000002    2.64000010
   17.57250023  162.75599670    0.67000002    2.64000010
   17.57555580  149.90600586    0.64999998    2.64000010
   17.57888985  158.21699524    0.64999998    2.64000010
   17.58194542  171.85000610    0.64999998    2.64000010
   17.58527756  166.00300598    0.64999998    2.61999989
   17.58833313  161.17700195    0.64999998    2.61999989
   17.59166718  156.75300598    0.64999998    2.64000010
   17.59500122  165.94500732    0.64999998    2.64000010
   17.59805679  176.27699280    0.67000002    2.64000010
   17.60138893  175.08599854    0.67000002    2.64000010
   17.60472298  155.41400146    0.69000000    2.61999989
   17.60583305  160.30299377    0.69000000    2.61999989
   17.60833359  147.13200378    0.69000000    2.61999989
   17.61166763  162.55999756    0.63000000    2.64000010
   17.61472321  165.88099670    0.63000000    2.64000010
   17.61805534  163.92500305    0.64999998    2.64000010
   17.62111092  143.01899719    0.63000000    2.61999989
   17.62444496  142.39900208    0.61000001    2.61999989
   17.62777710  152.30999756    0.61000001    2.64000010
   17.63083267  159.97099304    0.58999997    2.64000010
   17.63416672  158.61599731    0.58999997    2.61999989
   17.63750076  148.09800720    0.58999997    2.61999989
   17.63916588  135.95199585    0.58999997    2.64000010
   17.64111137  140.51300049    0.58999997    2.64000010
   17.64444351  147.98399353    0.58999997    2.61999989
   17.64749908  151.37600708    0.58999997    2.61999989
   17.65083313  139.36799622    0.56999999    2.64000010
   17.65416718  165.72599792    0.58999997    2.64000010
   17.65749931  146.96600342    0.58999997    2.61999989
   17.66055489  147.64999390    0.56999999    2.64000010
   17.66388893  144.55400085    0.56999999    2.64000010
   17.66694450  136.55299377    0.56999999    2.64000010
   17.67027664  137.61099243    0.56999999    2.61999989
   17.67249870  143.10299683    0.56999999    2.64000010
   17.67388916  151.73599243    0.56999999    2.64000010
   17.67722130  153.52099609    0.56999999    2.64000010
   17.68027687  152.11000061    0.56999999    2.64000010
   17.68361092  166.24200439    0.56999999    2.61999989
   17.68694305  156.35099792    0.58999997    2.61999989
   17.68999863  144.97500610    0.58999997    2.61999989
   17.69333267  147.43499756    0.56999999    2.64000010
   17.69666672  152.10000610    0.58999997    2.61999989
   17.69972038  147.90899658    0.56999999    2.61999989
   17.70305634  139.00500488    0.56999999    2.61999989
   17.70583344  140.85600281    0.56999999    2.61999989
   17.70666695  141.76800537    0.56999999    2.61999989
   17.71000099  148.20300293    0.56999999    2.61999989
   17.71305656  143.73100281    0.58999997    2.61999989
   17.71638870  123.62100220    0.58999997    2.64000010
   17.71944427  151.16600037    0.56999999    2.61999989
   17.72277832  151.52400208    0.58999997    2.61999989
   17.72611237  143.51199341    0.61000001    2.64000010
   17.72916794  137.80700684    0.61000001    2.61999989
   17.73250008  151.63900757    0.61000001    2.61999989
   17.73583412  144.61099243    0.61000001    2.64000010
   17.73888969  153.24800110    0.61000001    2.64000010
   17.73944473  156.45500183    0.61000001    2.64000010
   17.74277878  141.34599304    0.61000001    2.61999989
   17.74611092  143.91700745    0.58999997    2.61999989
   17.74916649  147.26100159    0.61000001    2.61999989
   17.75250053  149.97799683    0.61000001    2.61999989
   17.75555611  138.14300537    0.63000000    2.64000010
   17.75888824  143.82299805    0.63000000    2.64000010
   17.76222229  139.83399963    0.63000000    2.61999989
   17.76527786  146.37899780    0.63000000    2.61999989
   17.76861000  154.05099487    0.64999998    2.61999989
   17.77194405  161.15499878    0.64999998    2.61999989
   17.77277756  163.12899780    0.64999998    2.61999989
   17.77555466  166.87500000    0.64999998    2.61999989
   17.77888870  168.87300110    0.64999998    2.61999989
   17.78194427  192.55999756    0.64999998    2.61999989
   17.78527641  192.77200317    0.63000000    2.61999989
   17.78833199  236.27799988    0.64999998    2.61999989
   17.79166603  242.30999756    0.64999998    2.61999989
   17.79500008  268.16400146    0.64999998    2.61999989
   17.79805565  257.60299683    0.63000000    2.61999989
   17.80138779  269.72698975    0.64999998    2.61999989
   17.80472183  295.40200806    0.61000001    2.61999989
   17.80611038  286.68399048    0.61000001    2.61999989
   17.80833244  272.86401367    0.61000001    2.64000010
   17.81166649  277.24798584    0.61000001    2.61999989
   17.81472206  250.38400269    0.63000000    2.61999989
   17.81805611  294.30700684    0.63000000    2.61999989
   17.82111168  281.48699951    0.63000000    2.61999989
   17.82444572  284.08999634    0.63000000    2.61999989
   17.82777786  268.18899536    0.64999998    2.61999989
   17.83083344  280.38299561    0.67000002    2.61999989
   17.83416748  265.37899780    0.67000002    2.61999989
   17.83750153  248.96499634    0.67000002    2.61999989
   17.83944511  253.60800171    0.67000002    2.61999989
   17.84111214  238.20199585    0.67000002    2.61999989
   17.84444427  258.33200073    0.69000000    2.64000010
   17.84749985  231.88299561    0.67000002    2.61999989
   17.85083389  272.51901245    0.67000002    2.61999989
   17.85388947  256.27801514    0.67000002    2.61999989
   17.85722351  257.63900757    0.67000002    2.61999989
   17.86055565  247.64100647    0.64999998    2.61999989
   17.86361122  224.60800171    0.64999998    2.61999989
   17.86694527  231.41000366    0.64999998    2.61999989
   17.87027740  230.00100708    0.64999998    2.61999989
   17.87277794  224.82200623    0.64999998    2.61999989
   17.87388992  222.16000366    0.64999998    2.61999989
   17.87722206  226.77400208    0.64999998    2.61999989
   17.88027763  216.97399902    0.64999998    2.61999989
   17.88361168  217.25599670    0.64999998    2.61999989
   17.88666725  218.48899841    0.64999998    2.61999989
   17.88999939  208.21000671    0.64999998    2.61999989
   17.89333344  206.87399292    0.64999998    2.61999989
   17.89638901  210.24299622    0.64999998    2.61999989
   17.89972115  221.05599976    0.63000000    2.61999989
   17.90305519  206.28300476    0.63000000    2.61999989
   17.90611076  199.39100647    0.63000000    2.61999989
   17.90666580  197.04400635    0.63000000    2.61999989
   17.90999985  201.97799683    0.63000000    2.61999989
   17.91305542  198.80900574    0.63000000    2.61999989
   17.91638756  180.97200012    0.63000000    2.61999989
   17.91972160  205.37800598    0.61000001    2.61999989
   17.92277718  204.77900696    0.61000001    2.61999989
   17.92611122  205.03900146    0.63000000    2.61999989
   17.92916679  207.23599243    0.64999998    2.61999989
   17.93249893  205.53799438    0.67000002    2.61999989
   17.93583298  202.52900696    0.67000002    2.61999989
   17.93888855  203.07099915    0.64999998    2.61999989
   17.93944359  182.52900696    0.64999998    2.61999989
   17.94249916  191.73800659    0.64999998    2.61999989
   17.94583321  197.26499939    0.67000002    2.61999989
   17.94888878  202.44000244    0.69000000    2.61999989
   17.95222282  210.96800232    0.69000000    2.61999989
   17.95555687  199.70500183    0.70999998    2.61999989
   17.95861244  201.03300476    0.70999998    2.59999990
   17.96194458  192.82099915    0.70999998    2.61999989
   17.96500015  186.29400635    0.70999998    2.61999989
   17.96833420  185.11700439    0.70999998    2.61999989
   17.97166634  193.22200012    0.76999998    2.61999989
   17.97277832  188.47500610    0.76999998    2.61999989
   17.97527885  194.02799988    0.76999998    2.61999989
   17.97861099  207.42599487    0.80000001    2.64000010
   17.98166656  192.40400696    0.73000002    2.61999989
   17.98500061  191.06300354    0.73000002    2.61999989
   17.98833275  193.15100098    0.73000002    2.61999989
   17.99138832  195.99400330    0.69000000    2.61999989
   17.99472237  195.01699829    0.69000000    2.61999989
   17.99805641  206.82899475    0.69000000    2.61999989
   18.00111198  197.04899597    0.67000002    2.61999989
   18.00444412  198.33900452    0.67000002    2.61999989
   18.00611115  184.79299927    0.70999998    2.61999989
   18.00805473  185.08799744    0.70999998    2.61999989
   18.01138878  184.30099487    0.70999998    2.61999989
   18.01444435  180.13900757    0.70999998    2.59999990
   18.01777840  185.93099976    0.70999998    2.59999990
   18.02111053  183.43800354    0.73000002    2.61999989
   18.02416611  181.81799316    0.75000000    2.61999989
   18.02750015  184.09899902    0.75000000    2.61999989
   18.03055573  184.87100220    0.73000002    2.59999990
   18.03388786  184.34100342    0.73000002    2.59999990
   18.03722191  175.02499390    0.70999998    2.61999989
   18.03944397  176.93600464    0.70999998    2.61999989
   18.04083252  178.53700256    0.70999998    2.61999989
   18.04416656  167.43099976    0.69000000    2.61999989
   18.04722214  169.17199707    0.69000000    2.61999989
   18.05055428  163.43299866    0.69000000    2.61999989
   18.05388832  177.83200073    0.70999998    2.61999989
   18.05694389  172.11999512    0.67000002    2.61999989
   18.06027794  170.37899780    0.64999998    2.61999989
   18.06333351  165.43299866    0.64999998    2.61999989
   18.06666756  169.15400696    0.64999998    2.59999990
   18.07000160  181.35899353    0.64999998    2.59999990
   18.07277870  169.34800720    0.64999998    2.59999990
   18.07361221  173.59300232    0.64999998    2.59999990
   18.07694626  174.69999695    0.64999998    2.61999989
   18.08000183  166.07800293    0.64999998    2.61999989
   18.08333397  168.49600220    0.67000002    2.61999989
   18.08666801  162.88999939    0.70999998    2.61999989
   18.08972359  161.00799561    0.70999998    2.61999989
   18.09305573  157.78599548    0.70999998    2.61999989
   18.09611130  166.70199585    0.73000002    2.61999989
   18.09944534  165.25700378    0.73000002    2.61999989
   18.10277748  170.99699402    0.73000002    2.59999990
   18.10583305  169.16900635    0.73000002    2.59999990
   18.10639000  168.59300232    0.73000002    2.59999990
   18.10972214  167.29100037    0.73000002    2.61999989
   18.11305618  169.57600403    0.70999998    2.59999990
   18.11611176  171.31799316    0.70999998    2.59999990
   18.11944389  163.28700256    0.70999998    2.61999989
   18.12249947  163.83299255    0.70999998    2.59999990
   18.12583351  166.58500671    0.69000000    2.59999990
   18.12916756  157.05700684    0.69000000    2.59999990
   18.13222313  164.45300293    0.69000000    2.61999989
   18.13555527  161.19700623    0.69000000    2.61999989
   18.13888931  164.95300293    0.69000000    2.61999989
   18.13972282  169.58599854    0.69000000    2.59999990
   18.14249992  163.19900513    0.69000000    2.59999990
   18.14583397  169.51300049    0.69000000    2.61999989
   18.14888954  156.44500732    0.70999998    2.59999990
   18.15222168  161.60000610    0.73000002    2.61999989
   18.15555573  170.75900269    0.73000002    2.59999990
   18.15861130  160.23899841    0.73000002    2.59999990
   18.16194344  155.98300171    0.73000002    2.59999990
   18.16527748  178.97999573    0.73000002    2.61999989
   18.16833305  166.63299561    0.73000002    2.59999990
   18.17166519  172.51600647    0.73000002    2.59999990
   18.17305565  159.85299683    0.73000002    2.59999990
   18.17527771  175.16499329    0.73000002    2.59999990
   18.17860985  163.44099426    0.73000002    2.59999990
   18.18166542  165.18499756    0.73000002    2.59999990
   18.18499947  156.62600708    0.70999998    2.59999990
   18.18805504  165.89700317    0.70999998    2.59999990
   18.19138718  162.86799622    0.69000000    2.59999990
   18.19472122  163.75900269    0.69000000    2.59999990
   18.19777679  163.67599487    0.69000000    2.61999989
   18.20111275  162.84199524    0.69000000    2.59999990
   18.20444489  160.62399292    0.73000002    2.59999990
   18.20639038  162.80900574    0.70999998    2.61999989
   18.20805550  166.88099670    0.70999998    2.61999989
   18.21138954  164.67900085    0.70999998    2.61999989
   18.21444511  163.06500244    0.70999998    2.61999989
   18.21777916  166.29299927    0.70999998    2.61999989
   18.22111130  159.88400269    0.70999998    2.59999990
   18.22416687  152.46099854    0.69000000    2.59999990
   18.22750092  164.20599365    0.69000000    2.59999990
   18.23055649  166.10400391    0.70999998    2.59999990
   18.23388863  161.36500549    0.70999998    2.59999990
   18.23722267  160.83700562    0.70999998    2.59999990
   18.23972321  157.85499573    0.69000000    2.61999989
   18.24083328  150.67199707    0.69000000    2.61999989
   18.24416733  159.11700439    0.69000000    2.61999989
   18.24749947  160.76400757    0.67000002    2.61999989
   18.25055504  162.08500671    0.67000002    2.59999990
   18.25388908  153.89100647    0.69000000    2.59999990
   18.25694466  161.08700562    0.67000002    2.59999990
   18.26027870  152.08799744    0.67000002    2.61999989
   18.26361084  160.85499573    0.67000002    2.61999989
   18.26666641  162.22999573    0.67000002    2.59999990
   18.27000046  149.26600647    0.67000002    2.59999990
   18.27305603  153.45599365    0.67000002    2.59999990
   18.27361107  158.28799438    0.67000002    2.59999990
   18.27694511  155.94299316    0.67000002    2.59999990
   18.28000069  158.26199341    0.67000002    2.59999990
   18.28333282  162.94999695    0.67000002    2.59999990
   18.28638840  145.08200073    0.67000002    2.59999990
   18.28972244  154.82400513    0.67000002    2.59999990
   18.29277802  160.53100586    0.67000002    2.59999990
   18.29611015  154.85400391    0.67000002    2.59999990
   18.29944420  150.24400330    0.67000002    2.59999990
   18.30249977  161.02799988    0.69000000    2.59999990
   18.30583191  166.85000610    0.69000000    2.59999990
   18.30638885  163.99699402    0.67000002    2.59999990
   18.30944443  145.28199768    0.67000002    2.59999990
   18.31250000  157.63200378    0.67000002    2.59999990
   18.31583214  159.56199646    0.67000002    2.61999989
   18.31916809  154.39399719    0.67000002    2.59999990
   18.32222366  150.12699890    0.64999998    2.59999990
   18.32555580  148.62399292    0.64999998    2.59999990
   18.32888985  161.50999451    0.64999998    2.59999990
   18.33194542  155.79200745    0.67000002    2.59999990
   18.33527756  154.81500244    0.67000002    2.59999990
   18.33833313  151.71400452    0.67000002    2.59999990
   18.35555649  149.38999939    0.69000000    2.59999990
   18.35833359  148.81799316    0.69000000    2.59999990
   18.36138916  150.60499573    0.70999998    2.59999990
   18.36472321  151.79100037    0.73000002    2.57999992
   18.36777878  153.94599915    0.73000002    2.57999992
   18.37111092  158.02499390    0.75000000    2.59999990
   18.37444496  154.08200073    0.75000000    2.59999990
   18.37777710  161.25700378    0.79000002    2.59999990
   18.38083267  153.40499878    0.80000001    2.59999990
   18.38416672  161.28399658    0.80000001    2.59999990
   18.38750076  161.75799561    0.79000002    2.59999990
   18.38888931  154.90499878    0.75000000    2.57999992
   18.39111137  156.30700684    0.75000000    2.59999990
   18.39416695  149.25000000    0.75000000    2.59999990
   18.39749908  153.91200256    0.75000000    2.59999990
   18.40083313  147.23100281    0.75000000    2.59999990
   18.40388870  155.89999390    0.75000000    2.57999992
   18.40722275  155.88699341    0.75000000    2.59999990
   18.41027832  149.31300354    0.73000002    2.59999990
   18.41361046  159.18200684    0.81999999    2.59999990
   18.41694450  156.75700378    0.88000000    2.59999990
   18.42000008  153.97300720    0.81999999    2.59999990
   18.42222214  138.75199890    0.80000001    2.59999990
   18.42388916  150.85200500    0.80000001    2.57999992
   18.42722130  149.34199524    0.80000001    2.57999992
   18.43027687  147.28900146    0.80000001    2.59999990
   18.43361092  144.62399292    0.76999998    2.57999992
   18.43666649  147.39700317    0.70999998    2.57999992
   18.43999863  143.63800049    0.73000002    2.57999992
   18.44333267  146.16000366    0.75000000    2.59999990
   18.44638824  149.52299500    0.75000000    2.59999990
   18.44972038  142.78700256    0.73000002    2.57999992
   18.45305634  149.99800110    0.75000000    2.59999990
   18.45555687  139.51100159    0.70999998    2.59999990
   18.45666695  144.11599731    0.70999998    2.59999990
   18.46000099  150.91600037    0.69000000    2.57999992
   18.46305656  149.15299988    0.67000002    2.59999990
   18.46638870  151.38299561    0.64999998    2.57999992
   18.46944427  153.01400757    0.64999998    2.57999992
   18.47277832  144.06500244    0.64999998    2.59999990
   18.47611237  147.93800354    0.63000000    2.59999990
   18.47916794  150.31799316    0.63000000    2.59999990
   18.48250008  136.73599243    0.63000000    2.59999990
   18.48583412  148.60899353    0.64999998    2.57999992
   18.48888969  139.53599548    0.64999998    2.59999990
   18.48944473  141.46200562    0.64999998    2.59999990
   18.49277878  146.80000305    0.63000000    2.59999990
   18.49583435  143.13400269    0.63000000    2.57999992
   18.49916649  141.06500244    0.63000000    2.59999990
   18.50222206  142.83000183    0.63000000    2.59999990
   18.50555611  151.84100342    0.63000000    2.59999990
   18.50888824  138.01199341    0.63000000    2.61999989
   18.51194382  147.02999878    0.63000000    2.59999990
   18.51527786  144.62199402    0.63000000    2.59999990
   18.51861000  142.05000305    0.64999998    2.59999990
   18.52194405  133.81900024    0.67000002    2.57999992
   18.52249908  142.17399597    0.67000002    2.57999992
   18.52527809  147.22399902    0.76999998    2.59999990
   18.52861023  143.41400146    0.76999998    2.59999990
   18.53194427  146.67700195    0.73000002    2.59999990
   18.53499985  144.67999268    0.69000000    2.59999990
   18.53833199  138.82699585    0.67000002    2.59999990
   18.54166603  139.15199280    0.69000000    2.57999992
   18.54472160  142.38200378    0.69000000    2.57999992
   18.54805565  150.48899841    0.69000000    2.57999992
   18.55111122  142.90400696    0.69000000    2.57999992
   18.55444336  141.49299622    0.70999998    2.59999990
   18.55583191  142.88400269    0.73000002    2.59999990
   18.55805397  143.79400635    0.73000002    2.59999990
   18.56138802  139.07600403    0.70999998    2.57999992
   18.56472206  141.52499390    0.73000002    2.57999992
   18.56777954  141.47900391    0.73000002    2.57999992
   18.57111168  146.74200439    0.73000002    2.57999992
   18.57444572  135.75700378    0.73000002    2.57999992
   18.57750130  135.71400452    0.73000002    2.57999992
   18.58083344  144.39999390    0.73000002    2.57999992
   18.58388901  134.86500549    0.69000000    2.57999992
   18.58722305  140.24099731    0.67000002    2.57999992
   18.58916664  134.65400696    0.67000002    2.57999992
   18.59111214  134.85699463    0.67000002    2.57999992
   18.59416771  140.84899902    0.67000002    2.57999992
   18.59749985  145.13200378    0.67000002    2.59999990
   18.60083389  135.72200012    0.67000002    2.59999990
   18.60388947  140.49499512    0.67000002    2.57999992
   18.60722351  137.61799622    0.69000000    2.57999992
   18.61055565  138.05900574    0.69000000    2.57999992
   18.61361122  141.33799744    0.67000002    2.59999990
   18.61694527  137.53300476    0.67000002    2.57999992
   18.62000084  136.46499634    0.67000002    2.57999992
   18.62249947  139.22099304    0.67000002    2.57999992
   18.62388992  132.46800232    0.67000002    2.57999992
   18.62694550  132.22900391    0.69000000    2.57999992
   18.63027763  135.62600708    0.64999998    2.57999992
   18.63361168  140.29100037    0.64999998    2.57999992
   18.63666725  136.60800171    0.63000000    2.57999992
   18.63999939  139.83700562    0.63000000    2.57999992
   18.64333344  138.15100098    0.64999998    2.59999990
   18.64638901  141.53999329    0.64999998    2.59999990
   18.64972115  139.54200745    0.67000002    2.57999992
   18.65277672  135.54800415    0.69000000    2.57999992
   18.65611076  138.41600037    0.70999998    2.57999992
   18.65666580  137.43499756    0.70999998    2.57999992
   18.65999985  141.69500732    0.69000000    2.57999992
   18.66305542  137.29299927    0.69000000    2.57999992
   18.66638756  134.47999573    0.69000000    2.57999992
   18.66972160  139.94299316    0.69000000    2.57999992
   18.67277718  140.97999573    0.70999998    2.57999992
   18.67611122  139.21499634    0.70999998    2.55999994
   18.67944336  137.05000305    0.75000000    2.57999992
   18.68249893  141.77099609    0.73000002    2.57999992
   18.68583298  132.43800354    0.73000002    2.57999992
   18.68888855  142.54299927    0.73000002    2.57999992
   18.68944359  135.83099365    0.73000002    2.57999992
   18.69277763  138.27999878    0.73000002    2.57999992
   18.69610977  131.31100464    0.73000002    2.57999992
   18.69916534  137.91900635    0.69000000    2.57999992
   18.70250130  143.22000122    0.69000000    2.57999992
   18.70555687  131.65199280    0.69000000    2.57999992
   18.70888901  136.14199829    0.69000000    2.57999992
   18.71222305  139.36099243    0.69000000    2.57999992
   18.71527863  139.89100647    0.70999998    2.55999994
   18.71861076  138.62399292    0.70999998    2.55999994
   18.72194481  131.98500061    0.70999998    2.57999992
   18.72277832  135.58500671    0.70999998    2.57999992
   18.72555542  133.47200012    0.70999998    2.57999992
   18.72888947  134.91900635    0.70999998    2.57999992
   18.73194504  139.77499390    0.69000000    2.55999994
   18.73527718  138.10000610    0.69000000    2.57999992
   18.73861122  141.96600342    0.69000000    2.57999992
   18.74166679  131.87300110    0.70999998    2.55999994
   18.74500084  149.94299316    0.70999998    2.57999992
   18.74805641  141.75300598    0.70999998    2.55999994
   18.75138855  147.54100037    0.73000002    2.57999992
   18.75472260  150.06599426    0.73000002    2.57999992
   18.75611115  148.26199341    0.73000002    2.57999992
   18.75833321  155.37600708    0.73000002    2.55999994
   18.76166725  139.33299255    0.76999998    2.55999994
   18.76472282  143.40899658    0.76999998    2.55999994
   18.76805496  139.99200439    0.81999999    2.55999994
   18.77111053  138.49200439    0.80000001    2.55999994
   18.77444458  134.19900513    0.73000002    2.55999994
   18.77777672  138.28599548    0.73000002    2.55999994
   18.78083229  141.95799255    0.75000000    2.55999994
   18.78416634  141.60699463    0.70999998    2.55999994
   18.78750038  147.78199768    0.73000002    2.55999994
   18.78944397  136.49600220    0.73000002    2.55999994
   18.79111099  143.97399902    0.73000002    2.55999994
   18.79444313  144.96800232    0.73000002    2.55999994
   18.79749870  138.78300476    0.67000002    2.55999994
   18.80083275  143.60800171    0.70999998    2.55999994
   18.80416679  139.94400024    0.67000002    2.55999994
   18.80722237  142.29299927    0.67000002    2.55999994
   18.81055450  144.91400146    0.64999998    2.55999994
   18.81388855  144.22500610    0.64999998    2.55999994
   18.81694603  147.92599487    0.63000000    2.55999994
   18.82027817  130.73699951    0.63000000    2.55999994
   18.82277870  145.53700256    0.63000000    2.55999994
   18.82389069  142.84399414    0.63000000    2.55999994
   18.82722282  143.58200073    0.63000000    2.55999994
   18.83027840  149.37199402    0.63000000    2.55999994
   18.83361244  137.93099976    0.63000000    2.55999994
   18.83694458  140.51899719    0.63000000    2.55999994
   18.84000015  144.07400513    0.63000000    2.55999994
   18.84333420  145.32499695    0.64999998    2.55999994
   18.84666824  141.59899902    0.67000002    2.55999994
   18.84972191  145.81300354    0.67000002    2.55999994
   18.85305595  140.34500122    0.67000002    2.55999994
   18.85611153  137.61900330    0.67000002    2.55999994
   18.85666656  137.92999268    0.64999998    2.55999994
   18.86000061  132.20199585    0.64999998    2.55999994
   18.86305618  138.21499634    0.64999998    2.55999994
   18.86638832  145.17599487    0.63000000    2.55999994
   18.86972237  142.93099976    0.63000000    2.55999994
   18.87277794  141.64599609    0.64999998    2.55999994
   18.87611198  132.38900757    0.64999998    2.55999994
   18.87916756  138.76499939    0.64999998    2.55999994
   18.88249969  148.78100586    0.64999998    2.55999994
   18.88583374  140.05599976    0.63000000    2.55999994
   18.88888931  133.58299255    0.64999998    2.55999994
   18.88972282  137.45799255    0.64999998    2.55999994
   18.89249992  145.80099487    0.64999998    2.55999994
   18.89583397  143.29200745    0.63000000    2.55999994
   18.89888954  139.00300598    0.63000000    2.55999994
   18.90222168  144.14500427    0.64999998    2.55999994
   18.90555573  148.39599609    0.64999998    2.55999994
   18.90861130  137.13600159    0.63000000    2.55999994
   18.91194344  140.77200317    0.67000002    2.55999994
   18.91527748  143.83500671    0.67000002    2.55999994
   18.91833305  135.53900146    0.67000002    2.57999992
   18.92166519  133.70399475    0.69000000    2.55999994
   18.92277718  135.76300049    0.70999998    2.55999994
   18.92527771  136.18800354    0.70999998    2.55999994
   18.92860985  135.90699768    0.70999998    2.55999994
   18.93194389  134.39799500    0.70999998    2.55999994
   18.93499947  132.65800476    0.70999998    2.55999994
   18.93833160  133.57099915    0.70999998    2.55999994
   18.94138718  133.52499390    0.70999998    2.55999994
   18.94472122  140.52299500    0.70999998    2.55999994
   18.94805527  134.45199585    0.70999998    2.55999994
   18.95111275  137.52499390    0.70999998    2.55999994
   18.95444489  138.63800049    0.70999998    2.55999994
   18.95611191  131.04600525    0.70999998    2.55999994
   18.95805550  135.50000000    0.70999998    2.55999994
   18.96138954  137.36500549    0.70999998    2.55999994
   18.96444511  131.00700378    0.70999998    2.55999994
   18.96777916  135.05700684    0.70999998    2.55999994
   18.97111130  131.17700195    0.70999998    2.55999994
   18.97416687  139.96800232    0.70999998    2.55999994
   18.97750092  137.31100464    0.70999998    2.55999994
   18.98055649  141.30900574    0.70999998    2.55999994
   18.98388863  136.91999817    0.70999998    2.55999994
   18.98722267  143.10400391    0.70999998    2.55999994
   18.98944473  138.93699646    0.70999998    2.55999994
   18.99083328  136.49099731    0.70999998    2.55999994
   18.99416733  133.81599426    0.70999998    2.55999994
   18.99722290  137.84199524    0.70999998    2.55999994
   19.00055504  147.83799744    0.70999998    2.55999994
   19.00388908  138.56300354    0.70999998    2.55999994
   19.00694466  131.60299683    0.70999998    2.55999994
   19.01027870  136.31199646    0.70999998    2.55999994
   19.01361084  135.74400330    0.70999998    2.55999994
   19.01666641  129.05599976    0.70999998    2.55999994
   19.02000046  141.12199402    0.70999998    2.55999994
   19.02277756  135.64399719    0.70999998    2.55999994
   19.02361107  139.21899414    0.70999998    2.55999994
   19.02694511  133.88000488    0.70999998    2.55999994
   19.03000069  142.05099487    0.70999998    2.55999994
   19.03333282  131.43899536    0.70999998    2.55999994
   19.03666687  140.02499390    0.70999998    2.55999994
   19.03972244  132.69099426    0.70999998    2.55999994
   19.04305458  132.71899414    0.70999998    2.55999994
   19.04611015  137.04499817    0.70999998    2.55999994
   19.04944420  138.78999329    0.70999998    2.55999994
   19.05277634  141.65600586    0.70999998    2.55999994
   19.05583191  139.72999573    0.70999998    2.55999994
   19.05638885  136.67799377    0.70999998    2.55999994
   19.05972099  138.96099854    0.70999998    2.55999994
   19.06305504  133.85600281    0.70999998    2.55999994
   19.06611061  130.61399841    0.70999998    2.55999994
   19.06944466  135.14199829    0.70999998    2.55999994
   19.07277870  135.26199341    0.70999998    2.55999994
   19.07583427  136.87600708    0.70999998    2.55999994
   19.07916832  138.92599487    0.70999998    2.55999994
   19.08222389  136.16900635    0.70999998    2.55999994
   19.08555603  131.60200500    0.70999998    2.55999994
   19.08889008  137.47799683    0.70999998    2.55999994
   19.08972359  135.60099792    0.70999998    2.55999994
   19.09250069  139.15800476    0.70999998    2.55999994
   19.09583473  132.33399963    0.70999998    2.55999994
   19.09889030  132.45700073    0.70999998    2.55999994
   19.10222244  140.51699829    0.70999998    2.55999994
   19.10555649  147.17999268    0.70999998    2.55999994
   19.10861206  148.54600525    0.70999998    2.55999994
   19.11194420  151.92199707    0.70999998    2.55999994
   19.11499977  144.05299377    0.70999998    2.55999994
   19.11833382  154.24000549    0.70999998    2.55999994
   19.12166595  157.55700684    0.70999998    2.55999994
   19.12305641  168.91600037    0.70999998    2.55999994
   19.12527847  159.07299805    0.70999998    2.55999994
   19.12861061  156.25700378    0.70999998    2.55999994
   19.13166618  150.33500671    0.70999998    2.55999994
   19.13500023  159.75500488    0.70999998    2.55999994
   19.13805580  156.58099365    0.70999998    2.55999994
   19.14138794  154.30099487    0.70999998    2.55999994
   19.14472198  157.03399658    0.70999998    2.55999994
   19.14777756  158.34500122    0.70999998    2.55999994
   19.15111160  162.74200439    0.70999998    2.55999994
   19.15444374  150.14700317    0.70999998    2.55999994
   19.15638924  155.02200317    0.70999998    2.55999994
   19.15805435  140.02299500    0.70999998    2.55999994
   19.16138840  160.68899536    0.70999998    2.55999994
   19.16444397  164.65499878    0.70999998    2.55999994
   19.16777802  163.28999329    0.70999998    2.55999994
   19.17083359  156.33200073    0.70999998    2.55999994
   19.17416573  154.20799255    0.70999998    2.55999994
   19.17749977  150.81199646    0.70999998    2.55999994
   19.18083191  163.63999939    0.70999998    2.55999994
   19.18388748  160.07200623    0.70999998    2.55999994
   19.18722153  157.95300293    0.70999998    2.55999994
   19.18972206  142.11799622    0.70999998    2.55999994
   19.19083214  138.50199890    0.70999998    2.55999994
   19.19416618  147.44200134    0.70999998    2.55999994
   19.19722176  144.59199524    0.70999998    2.55999994
   19.20055580  154.40100098    0.70999998    2.55999994
   19.20388985  144.90600586    0.70999998    2.55999994
   19.20694542  164.59700012    0.70999998    2.55999994
   19.21027946  154.70500183    0.70999998    2.55999994
   19.21333504  163.44500732    0.70999998    2.55999994
   19.21666718  153.87399292    0.70999998    2.55999994
   19.22000122  136.35000610    0.70999998    2.55999994
   19.22305679  158.79100037    0.70999998    2.55999994
   19.22361183  167.30499268    0.70999998    2.55999994
   19.22694588  146.05700684    0.70999998    2.55999994
   19.23000145  141.87800598    0.70999998    2.55999994
   19.23333359  133.20799255    0.70999998    2.55999994
   19.23666763  147.11700439    0.70999998    2.55999994
   19.23972321  141.03100586    0.70999998    2.55999994
   19.24305534  145.37300110    0.70999998    2.55999994
   19.24611092  149.55999756    0.70999998    2.55999994
   19.24944496  143.75700378    0.70999998    2.55999994
   19.25277710  139.31399536    0.70999998    2.55999994
   19.25583267  138.11399841    0.70999998    2.55999994
   19.25666618  132.07699585    0.70999998    2.55999994
   19.25944519  144.46600342    0.70999998    2.55999994
   19.26277733  147.21000671    0.70999998    2.55999994
   19.26583290  145.21899414    0.70999998    2.55999994
   19.26916695  139.32899475    0.70999998    2.55999994
   19.27249908  148.04200745    0.70999998    2.55999994
   19.27555466  149.81500244    0.70999998    2.55999994
   19.27888870  138.03199768    0.70999998    2.55999994
   19.28222275  142.43400574    0.70999998    2.55999994
   19.28527641  144.06300354    0.70999998    2.55999994
   19.28861046  137.11599731    0.70999998    2.55999994
   19.28999901  146.49200439    0.70999998    2.55999994
   19.29249954  142.30700684    0.70999998    2.55999994
   19.29583359  145.38000488    0.70999998    2.55999994
   19.29916573  140.03300476    0.70999998    2.55999994
   19.30222130  134.91000366    0.70999998    2.55999994
   19.30555534  130.80200195    0.70999998    2.55999994
   19.30861092  137.01199341    0.70999998    2.55999994
   19.31194305  142.07200623    0.70999998    2.55999994
   19.31527710  140.92999268    0.70999998    2.55999994
   19.31833458  139.46099854    0.70999998    2.55999994
   19.32166672  140.37399292    0.70999998    2.55999994
   19.32333374  142.91000366    0.70999998    2.55999994
   19.32527924  137.98199463    0.70999998    2.55999994
   19.32861137  137.00100708    0.70999998    2.55999994
   19.33166695  129.02400208    0.70999998    2.55999994
   19.33500099  134.91700745    0.70999998    2.55999994
   19.33833313  146.18400574    0.70999998    2.55999994
   19.34138870  135.04299927    0.70999998    2.55999994
   19.34472275  141.06500244    0.70999998    2.55999994
   19.34805679  131.10600281    0.70999998    2.55999994
   19.35111237  125.57399750    0.70999998    2.55999994
   19.35444450  145.53300476    0.70999998    2.55999994
   19.37222290  143.88099670    0.70999998    2.55999994
   19.37444496  144.38099670    0.70999998    2.55999994
   19.37750053  138.73899841    0.70999998    2.55999994
   19.38083267  139.52799988    0.70999998    2.55999994
   19.38416672  147.01499939    0.70999998    2.55999994
   19.38722229  152.33999634    0.70999998    2.55999994
   19.39055634  143.18200684    0.70999998    2.55999994
   19.39361191  129.77400208    0.70999998    2.55999994
   19.39694405  147.11199951    0.70999998    2.55999994
   19.40027809  141.33099365    0.70999998    2.55999994
   19.40333366  133.78500366    0.70999998    2.55999994
   19.40555573  129.30200195    0.70999998    2.55999994
   19.40694427  138.32299805    0.70999998    2.55999994
   19.41027832  130.33700562    0.70999998    2.55999994
   19.41361046  136.03900146    0.70999998    2.55999994
   19.41666603  137.65899658    0.70999998    2.55999994
   19.42000008  140.94099426    0.70999998    2.55999994
   19.42305565  134.05499268    0.70999998    2.55999994
   19.42638779  136.48100281    0.70999998    2.55999994
   19.42972183  136.95899963    0.70999998    2.55999994
   19.43277740  139.81199646    0.70999998    2.55999994
   19.43610954  137.26800537    0.70999998    2.55999994
   19.43888855  131.16700745    0.70999998    2.55999994
   19.43999863  132.82099915    0.70999998    2.55999994
   19.44305420  130.49499512    0.70999998    2.55999994
   19.44638824  136.56300354    0.70999998    2.55999994
   19.44944382  137.56900024    0.70999998    2.55999994
   19.45277786  128.76300049    0.70999998    2.55999994
   19.45611191  137.30200195    0.70999998    2.55999994
   19.45916748  132.79200745    0.70999998    2.55999994
   19.46250153  142.68800354    0.70999998    2.55999994
   19.46555710  137.64300537    0.70999998    2.55999994
   19.46888924  131.84899902    0.70999998    2.55999994
   19.47222328  142.35499573    0.70999998    2.55999994
   19.47249985  130.85699463    0.70999998    2.55999994
   19.47583389  133.82699585    0.70999998    2.55999994
   19.47916794  134.17399597    0.70999998    2.55999994
   19.48222351  129.61700439    0.70999998    2.55999994
   19.48555565  137.19400024    0.70999998    2.55999994
   19.48888969  138.84800720    0.70999998    2.55999994
   19.49194527  139.42399597    0.70999998    2.55999994
   19.49527740  137.48399353    0.70999998    2.55999994
   19.49833298  138.56500244    0.70999998    2.55999994
   19.50166702  135.51199341    0.70999998    2.55999994
   19.50499916  132.94000244    0.70999998    2.55999994
   19.50555611  137.09300232    0.70999998    2.55999994
   19.50833321  135.22799683    0.70999998    2.55999994
   19.51166725  138.41499329    0.70999998    2.55999994
   19.51555634  134.94299316    0.70999998    2.55999994
   19.51888847  132.29400635    0.70999998    2.55999994
   19.52194405  138.03199768    0.70999998    2.55999994
   19.52527809  138.77000427    0.70999998    2.55999994
   19.52861023  143.46099854    0.70999998    2.55999994
   19.53166580  137.77999878    0.70999998    2.55999994
   19.53499985  138.12500000    0.70999998    2.55999994
   19.53833199  137.42300415    0.70999998    2.55999994
   19.53888893  131.96400452    0.70999998    2.55999994
   19.54194450  135.92300415    0.70999998    2.55999994
   19.54500008  137.84399414    0.70999998    2.55999994
   19.54833221  129.87899780    0.70999998    2.55999994
   19.55138779  132.23699951    0.70999998    2.55999994
   19.55472183  131.93200684    0.70999998    2.55999994
   19.55805397  128.40699768    0.70999998    2.55999994
   19.56110954  134.97599792    0.70999998    2.55999994
   19.56444359  133.98100281    0.70999998    2.55999994
   19.56777954  130.28199768    0.70999998    2.55999994
   19.57083511  136.25799561    0.70999998    2.55999994
   19.57222366  131.50100708    0.70999998    2.55999994
   19.57472229  131.95599365    0.70999998    2.55999994
   19.57777786  141.27499390    0.70999998    2.55999994
   19.58111191  129.13299561    0.70999998    2.55999994
   19.58416748  138.65100098    0.70999998    2.55999994
   19.58750153  132.27999878    0.70999998    2.55999994
   19.59083366  132.45599365    0.70999998    2.55999994
   19.59388924  129.90299988    0.70999998    2.55999994
   19.59722328  145.73800659    0.70999998    2.55999994
   19.60055542  129.75000000    0.70999998    2.55999994
   19.60361099  135.88999939    0.70999998    2.55999994
   19.60555649  134.58299255    0.70999998    2.55999994
   19.60750008  131.99299622    0.70999998    2.55999994
   19.61055565  135.19799805    0.70999998    2.55999994
   19.61388969  137.42599487    0.70999998    2.55999994
   19.61694527  139.40299988    0.70999998    2.55999994
   19.62027740  134.55099487    0.70999998    2.55999994
   19.62361145  135.23500061    0.70999998    2.55999994
   19.62666702  134.39999390    0.70999998    2.55999994
   19.63000107  138.11000061    0.70999998    2.55999994
   19.63333321  136.19999695    0.70999998    2.55999994
   19.63638878  142.31599426    0.70999998    2.55999994
   19.63888931  142.25300598    0.70999998    2.55999994
   19.64027786  137.78199768    0.70999998    2.55999994
   19.64333344  137.24200439    0.70999998    2.55999994
   19.64666748  144.28500366    0.70999998    2.55999994
   19.64972115  142.88999939    0.70999998    2.55999994
   19.65305519  135.71099854    0.70999998    2.55999994
   19.65638924  131.97599792    0.70999998    2.55999994
   19.65944481  137.20399475    0.70999998    2.55999994
   19.66277695  144.97700500    0.70999998    2.55999994
   19.66611099  136.94299316    0.70999998    2.55999994
   19.66916656  133.51499939    0.70999998    2.55999994
   19.67222214  136.64599609    0.70999998    2.55999994
   19.67305565  137.04100037    0.70999998    2.55999994
   19.67611122  138.60099792    0.70999998    2.55999994
   19.67944336  139.41600037    0.70999998    2.55999994
   19.68249893  141.01100159    0.70999998    2.55999994
   19.68583298  149.94500732    0.70999998    2.55999994
   19.68916512  139.94000244    0.70999998    2.55999994
   19.69249916  133.51899719    0.70999998    2.55999994
   19.69555473  143.99499512    0.70999998    2.55999994
   19.69888878  133.75500488    0.70999998    2.55999994
   19.70194435  130.58000183    0.70999998    2.55999994
   19.70527840  129.44099426    0.70999998    2.55999994
   19.70583344  128.59100342    0.70999998    2.55999994
   19.70916748  139.89399719    0.70999998    2.55999994
   19.71222305  150.06500244    0.70999998    2.55999994
   19.71555710  144.76800537    0.70999998    2.55999994
   19.71888924  147.04100037    0.70999998    2.55999994
   19.72194481  142.55900574    0.70999998    2.55999994
   19.72527885  141.66299438    0.70999998    2.55999994
   19.72833443  162.96200562    0.70999998    2.55999994
   19.73166656  173.33099365    0.70999998    2.55999994
   19.73500061  155.08000183    0.70999998    2.55999994
   19.73805618  193.57200623    0.70999998    2.55999994
   19.73916626  202.06100464    0.70999998    2.55999994
   19.74194527  209.89599609    0.70999998    2.55999994
   19.74500084  226.09700012    0.70999998    2.55999994
   19.74833298  225.62100220    0.70999998    2.55999994
   19.75166702  256.15600586    0.70999998    2.55999994
   19.75472260  242.30999756    0.70999998    2.55999994
   19.75805473  171.31599426    0.70999998    2.55999994
   19.76111031   71.70420074    0.70999998    2.55999994
   19.76444435   -1.00000000    0.70999998    2.55999994
   19.76777840   -1.00000000    0.70999998    2.55999994
   19.77083397   -1.00000000    0.70999998    2.55999994
   19.77444458   -1.00000000    0.70999998    2.55999994
   19.77777672   -1.00000000    0.70999998    2.55999994
   19.78111076   -1.00000000    0.70999998    2.55999994
   19.78416634   -1.00000000    0.70999998    2.55999994
   19.78750038   -1.00000000    0.70999998    2.55999994
   19.79055595   -1.00000000    0.70999998    2.55999994
   19.79388809   -1.00000000    0.70999998    2.55999994
   19.79722214   -1.00000000    0.70999998    2.55999994
   19.80027771   -1.00000000    0.70999998    2.55999994
   19.80360985   -1.00000000    0.70999998    2.55999994
   19.80694389   -1.00000000    0.70999998    2.55999994
   19.81027794   -1.00000000    0.70999998    2.55999994
   19.81361008   -1.00000000    0.70999998    2.55999994
   19.81666756   -1.00000000    0.70999998    2.55999994
   19.82000160   -1.00000000    0.70999998    2.55999994
   19.82305717   -1.00000000    0.70999998    2.55999994
   19.82638931   -1.00000000    0.70999998    2.55999994
   19.82972336   -1.00000000    0.70999998    2.55999994
   19.83277893   -1.00000000    0.70999998    2.55999994
   19.83611107   -1.00000000    0.70999998    2.55999994
   19.83944511   -1.00000000    0.70999998    2.55999994
   19.84277916   -1.00000000    0.70999998    2.55999994
   19.84611130   -1.00000000    0.70999998    2.55999994
   19.84916687   -1.00000000    0.70999998    2.55999994
   19.85250092   -1.00000000    0.70999998    2.55999994
   19.85555649   -1.00000000    0.70999998    2.55999994
   19.85888863   -1.00000000    0.70999998    2.55999994
   19.86222267   -1.00000000    0.70999998    2.55999994
   19.86527824   -1.00000000    0.70999998    2.55999994
   19.86861038   -1.00000000    0.70999998    2.55999994
   19.87194443   -1.00000000    0.70999998    2.55999994
   19.87527847   -1.00000000    0.70999998    2.55999994
   19.87861061   -1.00000000    0.70999998    2.55999994
   19.88194466   -1.00000000    0.70999998    2.55999994
   19.88500023   -1.00000000    0.70999998    2.55999994
   19.88833237   -1.00000000    0.70999998    2.55999994
   19.89166641   -1.00000000    0.70999998    2.55999994
   19.89472198   -1.00000000    0.70999998    2.55999994
   19.89805603   -1.00000000    0.70999998    2.55999994
   19.90111160   -1.00000000    0.70999998    2.55999994
   19.90444374   -1.00000000    0.70999998    2.55999994
   19.90777779   -1.00000000    0.70999998    2.55999994
   19.91110992   -1.00000000    0.70999998    2.55999994
   19.91444397   -1.00000000    0.70999998    2.55999994
   19.91749954   -1.00000000    0.70999998    2.55999994
   19.92083359   -1.00000000    0.70999998    2.55999994
   19.92416573   -1.00000000    0.70999998    2.55999994
   19.92722130   -1.00000000    0.70999998    2.55999994
   19.93055534   -1.00000000    0.70999998    2.55999994
   19.93361092   -1.00000000    0.70999998    2.55999994
   19.93694305   -1.00000000    0.70999998    2.55999994
   19.94027710   -1.00000000    0.70999998    2.55999994
   19.94361115   -1.00000000    0.70999998    2.55999994
   19.94694328   -1.00000000    0.70999998    2.55999994
   19.95000076   -1.00000000    0.70999998    2.55999994
   19.95333481   -1.00000000    0.70999998    2.55999994
   19.95666695   -1.00000000    0.70999998    2.55999994
   19.95972252   -1.00000000    0.70999998    2.55999994
   19.96305656   -1.00000000    0.70999998    2.55999994
   19.96611214   -1.00000000    0.70999998    2.55999994
   19.96944427   -1.00000000    0.70999998    2.55999994
   19.97277832   -1.00000000    0.70999998    2.55999994
   19.97611237   -1.00000000    0.70999998    2.55999994
   19.97944450   -1.00000000    0.70999998    2.55999994
   19.98250008   -1.00000000    0.70999998    2.55999994
   19.98583412   -1.00000000    0.70999998    2.55999994
   19.98916626   -1.00000000    0.70999998    2.55999994
   19.99222183   -1.00000000    0.70999998    2.55999994
   19.99555588   -1.00000000    0.70999998    2.55999994
   19.99861145   -1.00000000    0.70999998    2.55999994
   20.00194359   -1.00000000    0.70999998    2.55999994
   20.00527763   -1.00000000    0.70999998    2.55999994
   20.00861168   -1.00000000    0.70999998    2.55999994
   20.01194382   -1.00000000    0.70999998    2.55999994
   20.01527786   -1.00000000    0.70999998    2.55999994
   20.01833344   -1.00000000    0.70999998    2.55999994
   20.02166557   -1.00000000    0.70999998    2.55999994
   20.02499962   -1.00000000    0.70999998    2.55999994
   20.02805519   -1.00000000    0.70999998    2.55999994
   20.03138924   -1.00000000    0.70999998    2.55999994
   20.03444481   -1.00000000    0.70999998    2.55999994
   20.03777695   -1.00000000    0.70999998    2.55999994
   20.04111099   -1.00000000    0.70999998    2.55999994
   20.04444313   -1.00000000    0.70999998    2.55999994
   20.04777718   -1.00000000    0.70999998    2.55999994
   20.05083275   -1.00000000    0.70999998    2.55999994
   20.05416679   -1.00000000    0.70999998    2.55999994
   20.05749893   -1.00000000    0.70999998    2.55999994
   20.06055450   -1.00000000    0.70999998    2.55999994
   20.06388855   -1.00000000    0.70999998    2.55999994
   20.06694603   -1.00000000    0.70999998    2.55999994
   20.07027817   -1.00000000    0.70999998    2.55999994
   20.07361221   -1.00000000    0.70999998    2.55999994
   20.07694626   -1.00000000    0.70999998    2.55999994
   20.08027840   -1.00000000    0.70999998    2.55999994
   20.08333397   -1.00000000    0.70999998    2.55999994
   20.08666801   -1.00000000    0.70999998    2.55999994
   20.09000015   -1.00000000    0.70999998    2.55999994
   20.09305573   -1.00000000    0.70999998    2.55999994
   20.09638977   -1.00000000    0.70999998    2.55999994
   20.09944534   -1.00000000    0.70999998    2.55999994
   20.10277748   -1.00000000    0.70999998    2.55999994
   20.10611153   -1.00000000    0.70999998    2.55999994
   20.10944557   -1.00000000    0.70999998    2.55999994
   20.11277771   -1.00000000    0.70999998    2.55999994
   20.11583328   -1.00000000    0.70999998    2.55999994
   20.11916733   -1.00000000    0.70999998    2.55999994
   20.12249947   -1.00000000    0.70999998    2.55999994
   20.12555504   -1.00000000    0.70999998    2.55999994
   20.12888908   -1.00000000    0.70999998    2.55999994
   20.13194466   -1.00000000    0.70999998    2.55999994
   20.13527679   -1.00000000    0.70999998    2.55999994
   20.13861084   -1.00000000    0.70999998    2.55999994
   20.14222145   -1.00000000    0.70999998    2.55999994
   20.14527702   -1.00000000    0.70999998    2.55999994
   20.14861107   -1.00000000    0.70999998    2.55999994
   20.15166664   -1.00000000    0.70999998    2.55999994
   20.15499878   -1.00000000    0.70999998    2.55999994
   20.15833282   -1.00000000    0.70999998    2.55999994
   20.16138840   -1.00000000    0.70999998    2.55999994
   20.16472244   -1.00000000    0.70999998    2.55999994
   20.16805458   -1.00000000    0.70999998    2.55999994
   20.17111015   -1.00000000    0.70999998    2.55999994
   20.17472076   -1.00000000    0.70999998    2.55999994
   20.17777634   -1.00000000    0.70999998    2.55999994
   20.18111038   -1.00000000    0.70999998    2.55999994
   20.18416595   -1.00000000    0.70999998    2.55999994
   20.18750000   -1.00000000    0.70999998    2.55999994
   20.19083214   -1.00000000    0.70999998    2.55999994
   20.19388771   -1.00000000    0.70999998    2.55999994
   20.19722176   -1.00000000    0.70999998    2.55999994
   20.20055580   -1.00000000    0.70999998    2.55999994
   20.20361137   -1.00000000    0.70999998    2.55999994
   20.20722389   -1.00000000    0.70999998    2.55999994
   20.21027946   -1.00000000    0.70999998    2.55999994
   20.21361160   -1.00000000    0.70999998    2.55999994
   20.21666718   -1.00000000    0.70999998    2.55999994
   20.22000122   -1.00000000    0.70999998    2.55999994
   20.22333336   -1.00000000    0.70999998    2.55999994
   20.22638893   -1.00000000    0.70999998    2.55999994
   20.22972298   -1.00000000    0.70999998    2.55999994
   20.23305511   -1.00000000    0.70999998    2.55999994
   20.23611069   -1.00000000    0.70999998    2.55999994
   20.23944473   -1.00000000    0.70999998    2.55999994
   20.24277878   -1.00000000    0.70999998    2.55999994
   20.24611092   -1.00000000    0.70999998    2.55999994
   20.24916649   -1.00000000    0.70999998    2.55999994
   20.25250053   -1.00000000    0.70999998    2.55999994
   20.25583267   -1.00000000    0.70999998    2.55999994
   20.25888824   -1.00000000    0.70999998    2.55999994
   20.26222229   -1.00000000    0.70999998    2.55999994
   20.26555634   -1.00000000    0.70999998    2.55999994
   20.26861000   -1.00000000    0.70999998    2.55999994
   20.27194405   -1.00000000    0.70999998    2.55999994
   20.27555466   -1.00000000    0.70999998    2.55999994
   20.27861023   -1.00000000    0.70999998    2.55999994
   20.28194427   -1.00000000    0.70999998    2.55999994
   20.28499985   -1.00000000    0.70999998    2.55999994
   20.28833199   -1.00000000    0.70999998    2.55999994
   20.29166603   -1.00000000    0.70999998    2.55999994
   20.29472160   -1.00000000    0.70999998    2.55999994
   20.29805565   -1.00000000    0.70999998    2.55999994
   20.30138779   -1.00000000    0.70999998    2.55999994
   20.30444336   -1.00000000    0.70999998    2.55999994
   20.30805397   -1.00000000    0.70999998    2.55999994
   20.31110954   -1.00000000    0.70999998    2.55999994
   20.31444359   -1.00000000    0.70999998    2.55999994
   20.31750107   -1.00000000    0.70999998    2.55999994
   20.32083511   -1.00000000    0.70999998    2.55999994
   20.32416725   -1.00000000    0.70999998    2.55999994
   20.32722282   -1.00000000    0.70999998    2.55999994
   20.33055687   -1.00000000    0.70999998    2.55999994
   20.33388901   -1.00000000    0.70999998    2.55999994
   20.33694458   -1.00000000    0.70999998    2.55999994
   20.34055710   -1.00000000    0.70999998    2.55999994
   20.34361267   -1.00000000    0.70999998    2.55999994
   20.34694481   -1.00000000    0.70999998    2.55999994
   20.35000038   -1.00000000    0.70999998    2.55999994
   20.35333443   -1.00000000    0.70999998    2.55999994
   20.35666656   -1.00000000    0.70999998    2.55999994
   20.35972214   -1.00000000    0.70999998    2.55999994
   20.36305618   -1.00000000    0.70999998    2.55999994
   20.36638832   -1.00000000    0.70999998    2.55999994
   20.36944389   -1.00000000    0.70999998    2.55999994
   20.38916588   -1.00000000    0.70999998    2.55999994
   20.39222145   -1.00000000    0.70999998    2.55999994
   20.39555550   -1.00000000    0.70999998    2.55999994
   20.39888954   -1.00000000    0.70999998    2.55999994
   20.40194321   -1.00000000    0.70999998    2.55999994
   20.40527725   -1.00000000    0.70999998    2.55999994
   20.40861130   -1.00000000    0.70999998    2.55999994
   20.41166687   -1.00000000    0.70999998    2.55999994
   20.41499901   -1.00000000    0.70999998    2.55999994
   20.41805458   -1.00000000    0.70999998    2.55999994
   20.42138863   -1.00000000    0.70999998    2.55999994
   20.42499924   -1.00000000    0.70999998    2.55999994
   20.42805481   -1.00000000    0.70999998    2.55999994
   20.43138885   -1.00000000    0.70999998    2.55999994
   20.43444443   -1.00000000    0.70999998    2.55999994
   20.43777657   -1.00000000    0.70999998    2.55999994
   20.44111061   -1.00000000    0.70999998    2.55999994
   20.44416618   -1.00000000    0.70999998    2.55999994
   20.44749832   -1.00000000    0.70999998    2.55999994
   20.45083427   -1.00000000    0.70999998    2.55999994
   20.45388985   -1.00000000    0.70999998    2.55999994
   20.45750046   -1.00000000    0.70999998    2.55999994
   20.46055603   -1.00000000    0.70999998    2.55999994
   20.46389008   -1.00000000    0.70999998    2.55999994
   20.46694565   -1.00000000    0.70999998    2.55999994
   20.47027779   -1.00000000    0.70999998    2.55999994
   20.47361183   -1.00000000    0.70999998    2.55999994
   20.47666740   -1.00000000    0.70999998    2.55999994
   20.48000145   -1.00000000    0.70999998    2.55999994
   20.48333359   -1.00000000    0.70999998    2.55999994
   20.48638916   -1.00000000    0.70999998    2.55999994
   20.48999977   -1.00000000    0.70999998    2.55999994
   20.49305534   -1.00000000    0.70999998    2.55999994
   20.49638939   -1.00000000    0.70999998    2.55999994
   20.49944496   -1.00000000    0.70999998    2.55999994
   20.50277710   -1.00000000    0.70999998    2.55999994
   20.50611115   -1.00000000    0.70999998    2.55999994
   20.50916672   -1.00000000    0.70999998    2.55999994
   20.51250076   -1.00000000    0.70999998    2.55999994
   20.51583290   -1.00000000    0.70999998    2.55999994
   20.51888847   -1.00000000    0.70999998    2.55999994
   20.52249908   -1.00000000    0.70999998    2.55999994
   20.52555466   -1.00000000    0.70999998    2.55999994
   20.52888870   -1.00000000    0.70999998    2.55999994
   20.53194427   -1.00000000    0.70999998    2.55999994
   20.53527641   -1.00000000    0.70999998    2.55999994
   20.53861046   -1.00000000    0.70999998    2.55999994
   20.54166603   -1.00000000    0.70999998    2.55999994
   20.54500008   -1.00000000    0.70999998    2.55999994
   20.54833221   -1.00000000    0.70999998    2.55999994
   20.55138779   -1.00000000    0.70999998    2.55999994
   20.55472183   -1.00000000    0.70999998    2.55999994
   20.55833244   -1.00000000    0.70999998    2.55999994
   20.56138802   -1.00000000    0.70999998    2.55999994
   20.56472206   -1.00000000    0.70999998    2.55999994
   20.56805611   -1.00000000    0.70999998    2.55999994
   20.57111168   -1.00000000    0.70999998    2.55999994
   20.57444572   -1.00000000    0.70999998    2.55999994
   20.57750130   -1.00000000    0.70999998    2.55999994
   20.58083344   -1.00000000    0.70999998    2.55999994
   20.58416748   -1.00000000    0.70999998    2.55999994
   20.58722305   -1.00000000    0.70999998    2.55999994
   20.59083366   -1.00000000    0.70999998    2.55999994
   20.59388924   -1.00000000    0.70999998    2.55999994
   20.59722328   -1.00000000    0.70999998    2.55999994
   20.60055542   -1.00000000    0.70999998    2.55999994
   20.60361099   -1.00000000    0.70999998    2.55999994
   20.60694504   -1.00000000    0.70999998    2.55999994
   20.61000061   -1.00000000    0.70999998    2.55999994
   20.61333466   -1.00000000    0.70999998    2.55999994
   20.61666679   -1.00000000    0.70999998    2.55999994
   20.61972237   -1.00000000    0.70999998    2.55999994
   20.62333298   -1.00000000    0.70999998    2.55999994
   20.62638855   -1.00000000    0.70999998    2.55999994
   20.62972260   -1.00000000    0.70999998    2.55999994
   20.63305473   -1.00000000    0.70999998    2.55999994
   20.63611031   -1.00000000    0.70999998    2.55999994
   20.63944435   -1.00000000    0.70999998    2.55999994
   20.64249992   -1.00000000    0.70999998    2.55999994
   20.64583397   -1.00000000    0.70999998    2.55999994
   20.64916611   -1.00000000    0.70999998    2.55999994
   20.65222168   -1.00000000    0.70999998    2.55999994
   20.65583229   -1.00000000    0.70999998    2.55999994
   20.65888786   -1.00000000    0.70999998    2.55999994
   20.66222191   -1.00000000    0.70999998    2.55999994
   20.66555595   -1.00000000    0.70999998    2.55999994
   20.66860962   -1.00000000    0.70999998    2.55999994
   20.67194366   -1.00000000    0.70999998    2.55999994
   20.67499924   -1.00000000    0.70999998    2.55999994
   20.67833328   -1.00000000    0.70999998    2.55999994
   20.68166542   -1.00000000    0.70999998    2.55999994
   20.68472099   -1.00000000    0.70999998    2.55999994
   20.68805504   -1.00000000    0.70999998    2.55999994
   20.69166565   -1.00000000    0.70999998    2.55999994
   20.69472122   -1.00000000    0.70999998    2.55999994
   20.69805527   -1.00000000    0.70999998    2.55999994
   20.70138931   -1.00000000    0.70999998    2.55999994
   20.70444489   -1.00000000    0.70999998    2.55999994
   20.70777893   -1.00000000    0.70999998    2.55999994
   20.71083450   -1.00000000    0.70999998    2.55999994
   20.71416664   -1.00000000    0.70999998    2.55999994
   20.71750069   -1.00000000    0.70999998    2.55999994
   20.72055626   -1.00000000    0.70999998    2.55999994
   20.72416687   -1.00000000    0.70999998    2.55999994
   20.72722244   -1.00000000    0.70999998    2.55999994
   20.73055649   -1.00000000    0.70999998    2.55999994
   20.73361206   -1.00000000    0.70999998    2.55999994
   20.73694420   -1.00000000    0.70999998    2.55999994
   20.74027824   -1.00000000    0.70999998    2.55999994
   20.74333382   -1.00000000    0.70999998    2.55999994
   20.74666786   -1.00000000    0.70999998    2.55999994
   20.75000000   -1.00000000    0.70999998    2.55999994
   20.75305557   -1.00000000    0.70999998    2.55999994
   20.75666618   -1.00000000    0.70999998    2.55999994
   20.75972176   -1.00000000    0.70999998    2.55999994
   20.76305580   -1.00000000    0.70999998    2.55999994
   20.76611137   -1.00000000    0.70999998    2.55999994
   20.76944351   -1.00000000    0.70999998    2.55999994
   20.77277756   -1.00000000    0.70999998    2.55999994
   20.77583313   -1.00000000    0.70999998    2.55999994
   20.77916718   -1.00000000    0.70999998    2.55999994
   20.78249931   -1.00000000    0.70999998    2.55999994
   20.78555489   -1.00000000    0.70999998    2.55999994
   20.78916550   -1.00000000    0.70999998    2.55999994
   20.79222107   -1.00000000    0.70999998    2.55999994
   20.79555511   -1.00000000    0.70999998    2.55999994
   20.79888916   -1.00000000    0.70999998    2.55999994
   20.80194283   -1.00000000    0.70999998    2.55999994
   20.80527687   -1.00000000    0.70999998    2.55999994
   20.80833244   -1.00000000    0.70999998    2.55999994
   20.81166649   -1.00000000    0.70999998    2.55999994
   20.81499863   -1.00000000    0.70999998    2.55999994
   20.81805611   -1.00000000    0.70999998    2.55999994
   20.82139015   -1.00000000    0.70999998    2.55999994
   20.82500076   -1.00000000    0.70999998    2.55999994
   20.82805634   -1.00000000    0.70999998    2.55999994
   20.83139038   -1.00000000    0.70999998    2.55999994
   20.83472252   -1.00000000    0.70999998    2.55999994
   20.83777809   -1.00000000    0.70999998    2.55999994
   20.84111214   -1.00000000    0.70999998    2.55999994
   20.84444427   -1.00000000    0.70999998    2.55999994
   20.84749985   -1.00000000    0.70999998    2.55999994
   20.85083389   -1.00000000    0.70999998    2.55999994
   20.85388947   -1.00000000    0.70999998    2.55999994
   20.85750008   -1.00000000    0.70999998    2.55999994
   20.86055565   -1.00000000    0.70999998    2.55999994
   20.86388969   -1.00000000    0.70999998    2.55999994
   20.86722183   -1.00000000    0.70999998    2.55999994
   20.87027740   -1.00000000    0.70999998    2.55999994
   20.87361145   -1.00000000    0.70999998    2.55999994
   20.87666702   -1.00000000    0.70999998    2.55999994
   20.88000107   -1.00000000    0.70999998    2.55999994
   20.88333321   -1.00000000    0.70999998    2.55999994
   20.88638878   -1.00000000    0.70999998    2.55999994
   20.88999939   -1.00000000    0.70999998    2.55999994
   20.89305496   -1.00000000    0.70999998    2.55999994
   20.89638901   -1.00000000    0.70999998    2.55999994
   20.89972115   -1.00000000    0.70999998    2.55999994
   20.90277672   -1.00000000    0.70999998    2.55999994
   20.90611076   -1.00000000    0.70999998    2.55999994
   20.90916634   -1.00000000    0.70999998    2.55999994
   20.91250038   -1.00000000    0.70999998    2.55999994
   20.91583252   -1.00000000    0.70999998    2.55999994
   20.91888809   -1.00000000    0.70999998    2.55999994
   20.92249870   -1.00000000    0.70999998    2.55999994
   20.92555428   -1.00000000    0.70999998    2.55999994
   20.92888832   -1.00000000    0.70999998    2.55999994
   20.93222237   -1.00000000    0.70999998    2.55999994
   20.93527603   -1.00000000    0.70999998    2.55999994
   20.93861008   -1.00000000    0.70999998    2.55999994
   20.94166565   -1.00000000    0.70999998    2.55999994
   20.94499969   -1.00000000    0.70999998    2.55999994
   20.94833183   -1.00000000    0.70999998    2.55999994
   20.95138931   -1.00000000    0.70999998    2.55999994
   20.95472336   -1.00000000    0.70999998    2.55999994
   20.95833397   -1.00000000    0.70999998    2.55999994
   20.96138954   -1.00000000    0.70999998    2.55999994
   20.96472359   -1.00000000    0.70999998    2.55999994
   20.96805573   -1.00000000    0.70999998    2.55999994
   20.97111130   -1.00000000    0.70999998    2.55999994
   20.97444534   -1.00000000    0.70999998    2.55999994
   20.97750092   -1.00000000    0.70999998    2.55999994
   20.98083305   -1.00000000    0.70999998    2.55999994
   20.98416710   -1.00000000    0.70999998    2.55999994
   20.98722267   -1.00000000    0.70999998    2.55999994
   20.99083328   -1.00000000    0.70999998    2.55999994
   20.99388885   -1.00000000    0.70999998    2.55999994
   20.99722290   -1.00000000    0.70999998    2.55999994
   21.00055504   -1.00000000    0.70999998    2.55999994
   21.00361061   -1.00000000    0.70999998    2.55999994
   21.00694466   -1.00000000    0.70999998    2.55999994
   21.01000023   -1.00000000    0.70999998    2.55999994
   21.01333427   -1.00000000    0.70999998    2.55999994
   21.01666641   -1.00000000    0.70999998    2.55999994
   21.01972198   -1.00000000    0.70999998    2.55999994
   21.02333260   -1.00000000    0.70999998    2.55999994
   21.02638817   -1.00000000    0.70999998    2.55999994
   21.02972221   -1.00000000    0.70999998    2.55999994
   21.03305435   -1.00000000    0.70999998    2.55999994
   21.03610992   -1.00000000    0.70999998    2.55999994
   21.03944397   -1.00000000    0.70999998    2.55999994
   21.04277802   -1.00000000    0.70999998    2.55999994
   21.04583359   -1.00000000    0.70999998    2.55999994
   21.04916573   -1.00000000    0.70999998    2.55999994
   21.05222130   -1.00000000    0.70999998    2.55999994
   21.05583191   -1.00000000    0.70999998    2.55999994
   21.05888748   -1.00000000    0.70999998    2.55999994
   21.06222153   -1.00000000    0.70999998    2.55999994
   21.06555557   -1.00000000    0.70999998    2.55999994
   21.06861115   -1.00000000    0.70999998    2.55999994
   21.07194519   -1.00000000    0.70999998    2.55999994
   21.07527924   -1.00000000    0.70999998    2.55999994
   21.07833481   -1.00000000    0.70999998    2.55999994
   21.08166695   -1.00000000    0.70999998    2.55999994
   21.08472252   -1.00000000    0.70999998    2.55999994
   21.08805656   -1.00000000    0.70999998    2.55999994
   21.09166718   -1.00000000    0.70999998    2.55999994
   21.09500122   -1.00000000    0.70999998    2.55999994
   21.09805679   -1.00000000    0.70999998    2.55999994
   21.10138893   -1.00000000    0.70999998    2.55999994
   21.10444450   -1.00000000    0.70999998    2.55999994
   21.10777855   -1.00000000    0.70999998    2.55999994
   21.11111069   -1.00000000    0.70999998    2.55999994
   21.11416626   -1.00000000    0.70999998    2.55999994
   21.11750031   -1.00000000    0.70999998    2.55999994
   21.12083435   -1.00000000    0.70999998    2.55999994
   21.12416649   -1.00000000    0.70999998    2.55999994
   21.12750053   -1.00000000    0.70999998    2.55999994
   21.13055611   -1.00000000    0.70999998    2.55999994
   21.13388824   -1.00000000    0.70999998    2.55999994
   21.13694382   -1.00000000    0.70999998    2.55999994
   21.14027786   -1.00000000    0.70999998    2.55999994
   21.14361191   -1.00000000    0.70999998    2.55999994
   21.14666748   -1.00000000    0.70999998    2.55999994
   21.14999962   -1.00000000    0.70999998    2.55999994
   21.15333366   -1.00000000    0.70999998    2.55999994
   21.15666580   -1.00000000    0.70999998    2.55999994
   21.15999985   -1.00000000    0.70999998    2.55999994
   21.16305542   -1.00000000    0.70999998    2.55999994
   21.16638756   -1.00000000    0.70999998    2.55999994
   21.16944313   -1.00000000    0.70999998    2.55999994
   21.17277718   -1.00000000    0.70999998    2.55999994
   21.17611122   -1.00000000    0.70999998    2.55999994
   21.17916679   -1.00000000    0.70999998    2.55999994
   21.18249893   -1.00000000    0.70999998    2.55999994
   21.18583298   -1.00000000    0.70999998    2.55999994
   21.18916512   -1.00000000    0.70999998    2.55999994
   21.19222069   -1.00000000    0.70999998    2.55999994
   21.19555473   -1.00000000    0.70999998    2.55999994
   21.19888878   -1.00000000    0.70999998    2.55999994
   21.20194435   -1.00000000    0.70999998    2.55999994
   21.20527840   -1.00000000    0.70999998    2.55999994
   21.20861244   -1.00000000    0.70999998    2.55999994
   21.21166801   -1.00000000    0.70999998    2.55999994
   21.21500015   -1.00000000    0.70999998    2.55999994
   21.21805573   -1.00000000    0.70999998    2.55999994
   21.22138977   -1.00000000    0.70999998    2.55999994
   21.22500038   -1.00000000    0.70999998    2.55999994
   21.22833443   -1.00000000    0.70999998    2.55999994
   21.23139000   -1.00000000    0.70999998    2.55999994
   21.23472214   -1.00000000    0.70999998    2.55999994
   21.23777771   -1.00000000    0.70999998    2.55999994
   21.24111176   -1.00000000    0.70999998    2.55999994
   21.24444389   -1.00000000    0.70999998    2.55999994
   21.24749947   -1.00000000    0.70999998    2.55999994
   21.25083351   -1.00000000    0.70999998    2.55999994
   21.25416756   -1.00000000    0.70999998    2.55999994
   21.25749969   -1.00000000    0.70999998    2.55999994
   21.26083374   -1.00000000    0.70999998    2.55999994
   21.26388931   -1.00000000    0.70999998    2.55999994
   21.26722145   -1.00000000    0.70999998    2.55999994
   21.27027702   -1.00000000    0.70999998    2.55999994
   21.27361107   -1.00000000    0.70999998    2.55999994
   21.27694511   -1.00000000    0.70999998    2.55999994
   21.28000069   -1.00000000    0.70999998    2.55999994
   21.28333282   -1.00000000    0.70999998    2.55999994
   21.28638840   -1.00000000    0.70999998    2.55999994
   21.28999901   -1.00000000    0.70999998    2.55999994
   21.29333305   -1.00000000    0.70999998    2.55999994
   21.29638863   -1.00000000    0.70999998    2.55999994
   21.29972076   -1.00000000    0.70999998    2.55999994
   21.30277634   -1.00000000    0.70999998    2.55999994
   21.30611038   -1.00000000    0.70999998    2.55999994
   21.30944443   -1.00000000    0.70999998    2.55999994
   21.31250000   -1.00000000    0.70999998    2.55999994
   21.31583214   -1.00000000    0.70999998    2.55999994
   21.31888962   -1.00000000    0.70999998    2.55999994
   21.32250023   -1.00000000    0.70999998    2.55999994
   21.32555580   -1.00000000    0.70999998    2.55999994
   21.32888985   -1.00000000    0.70999998    2.55999994
   21.33222389   -1.00000000    0.70999998    2.55999994
   21.33527756   -1.00000000    0.70999998    2.55999994
   21.33861160   -1.00000000    0.70999998    2.55999994
   21.34194565   -1.00000000    0.70999998    2.55999994
   21.34500122   -1.00000000    0.70999998    2.55999994
   21.34833336   -1.00000000    0.70999998    2.55999994
   21.35166740   -1.00000000    0.70999998    2.55999994
   21.35472298   -1.00000000    0.70999998    2.55999994
   21.35833359   -1.00000000    0.70999998    2.55999994
   21.36166763   -1.00000000    0.70999998    2.55999994
   21.36472321   -1.00000000    0.70999998    2.55999994
   21.36805534   -1.00000000    0.70999998    2.55999994
   21.37111092   -1.00000000    0.70999998    2.55999994
   21.37444496   -1.00000000    0.70999998    2.55999994
   21.37777710   -1.00000000    0.70999998    2.55999994
   21.38083267   -1.00000000    0.70999998    2.55999994
   21.38416672   -1.00000000    0.70999998    2.55999994
   21.38750076   -1.00000000    0.70999998    2.55999994
   21.40722275   -1.00000000    0.70999998    2.55999994
   21.41055489   -1.00000000    0.70999998    2.55999994
   21.41388893   -1.00000000    0.70999998    2.55999994
   21.41694450   -1.00000000    0.70999998    2.55999994
   21.42027664   -1.00000000    0.70999998    2.55999994
   21.42388916   -1.00000000    0.70999998    2.55999994
   21.42722130   -1.00000000    0.70999998    2.55999994
   21.43027687   -1.00000000    0.70999998    2.55999994
   21.43361092   -1.00000000    0.70999998    2.55999994
   21.43666649   -1.00000000    0.70999998    2.55999994
   21.43999863   -1.00000000    0.70999998    2.55999994
   21.44333267   -1.00000000    0.70999998    2.55999994
   21.44638824   -1.00000000    0.70999998    2.55999994
   21.44972038   -1.00000000    0.70999998    2.55999994
   21.45305634   -1.00000000    0.70999998    2.55999994
   21.45639038   -1.00000000    0.70999998    2.55999994
   21.45972252   -1.00000000    0.70999998    2.55999994
   21.46277809   -1.00000000    0.70999998    2.55999994
   21.46611214   -1.00000000    0.70999998    2.55999994
   21.46916771   -1.00000000    0.70999998    2.55999994
   21.47249985   -1.00000000    0.70999998    2.55999994
   21.47583389   -1.00000000    0.70999998    2.55999994
   21.47888947   -1.00000000    0.70999998    2.55999994
   21.48222351   -1.00000000    0.70999998    2.55999994
   21.48555565   -1.00000000    0.70999998    2.55999994
   21.48861122   -1.00000000    0.70999998    2.55999994
   21.49222183   -1.00000000    0.70999998    2.55999994
   21.49555588   -1.00000000    0.70999998    2.55999994
   21.49888992   -1.00000000    0.70999998    2.55999994
   21.50194359   -1.00000000    0.70999998    2.55999994
   21.50527763   -1.00000000    0.70999998    2.55999994
   21.50861168   -1.00000000    0.70999998    2.55999994
   21.51166725   -1.00000000    0.70999998    2.55999994
   21.51499939   -1.00000000    0.70999998    2.55999994
   21.51805496   -1.00000000    0.70999998    2.55999994
   21.52138901   -1.00000000    0.70999998    2.55999994
   21.52472115   -1.00000000    0.70999998    2.55999994
   21.52805519   -1.00000000    0.70999998    2.55999994
   21.53138924   -1.00000000    0.70999998    2.55999994
   21.53444481   -1.00000000    0.70999998    2.55999994
   21.53777695   -1.00000000    0.70999998    2.55999994
   21.54111099   -1.00000000    0.70999998    2.55999994
   21.54416656   -1.00000000    0.70999998    2.55999994
   21.54749870   -1.00000000    0.70999998    2.55999994
   21.55055428   -1.00000000    0.70999998    2.55999994
   21.55388832   -1.00000000    0.70999998    2.55999994
   21.55722237   -1.00000000    0.70999998    2.55999994
   21.56055450   -1.00000000    0.70999998    2.55999994
   21.56388855   -1.00000000    0.70999998    2.55999994
   21.56694603   -1.00000000    0.70999998    2.55999994
   21.57027817   -1.00000000    0.70999998    2.55999994
   21.57361221   -1.00000000    0.70999998    2.55999994
   21.57666779   -1.00000000    0.70999998    2.55999994
   21.58000183   -1.00000000    0.70999998    2.55999994
   21.58305550   -1.00000000    0.70999998    2.55999994
   21.58638954   -1.00000000    0.70999998    2.55999994
   21.58972359   -1.00000000    0.70999998    2.55999994
   21.59305573   -1.00000000    0.70999998    2.55999994
   21.59638977   -1.00000000    0.70999998    2.55999994
   21.59944534   -1.00000000    0.70999998    2.55999994
   21.60277748   -1.00000000    0.70999998    2.55999994
   21.60611153   -1.00000000    0.70999998    2.55999994
   21.60916710   -1.00000000    0.70999998    2.55999994
   21.61250114   -1.00000000    0.70999998    2.55999994
   21.61555672   -1.00000000    0.70999998    2.55999994
   21.61888885   -1.00000000    0.70999998    2.55999994
   21.62222290   -1.00000000    0.70999998    2.55999994
   21.62555504   -1.00000000    0.70999998    2.55999994
   21.62888908   -1.00000000    0.70999998    2.55999994
   21.63194466   -1.00000000    0.70999998    2.55999994
   21.63527679   -1.00000000    0.70999998    2.55999994
