    HOUR (UT)   FLARE FACTOR    SKY TESTER    SUN TESTER
   14.41861153   -1.00000000   -1.00000000   -1.00000000
   14.44138908  143.59599304    0.52999997    2.59999990
   14.44444466  139.71000671    0.52999997    2.59999990
   14.44777775  148.07899475    0.52999997    2.57999992
   14.45111084  142.26400757    0.52999997    2.59999990
   14.45416641  139.00700378    0.52999997    2.57999992
   14.45749950  135.81199646    0.51999998    2.57999992
   14.46166611  135.81199646    0.51999998    2.57999992
   14.46583271  130.07899475    0.51999998    2.59999990
   14.46888828  142.66299438    0.51999998    2.59999990
   14.47222137  143.28199768    0.52999997    2.59999990
   14.47416592  140.25300598    0.52999997    2.59999990
   14.47583294  147.33700562    0.52999997    2.57999992
   14.47916603  145.07800293    0.52999997    2.59999990
   14.48222160  142.95899963    0.52999997    2.57999992
   14.48555565  149.21299744    0.51999998    2.57999992
   14.48861122  143.14599609    0.51999998    2.57999992
   14.49194431  142.86599731    0.52999997    2.57999992
   14.49527836  145.22000122    0.52999997    2.57999992
   14.49833393  139.84800720    0.52999997    2.59999990
   14.50444412  139.84800720    0.52999997    2.59999990
   14.50861073  154.03999329    0.55000001    2.59999990
   14.51166630  135.32299805    0.63000000    2.59999990
   14.51500034  144.14199829    0.63000000    2.59999990
   14.51833344  144.24800110    0.61000001    2.57999992
   14.52138901  139.46099854    0.63000000    2.57999992
   14.52472210  143.65699768    0.63000000    2.57999992
   14.52777767  129.02099609    0.63000000    2.57999992
   14.53111076  141.31100464    0.61000001    2.59999990
   14.53500080  142.63600159    0.00000000    0.00000000
   14.53888893  141.81100464    0.00000000    0.00000000
   14.54083347  132.43800354    0.00000000    0.00000000
   14.54305553  143.47300720    0.00000000    0.00000000
   14.54777813  143.47300720    0.00000000    0.00000000
   14.55249977  148.86799622    0.00000000    0.00000000
   14.55638885  145.19099426    0.00000000    0.00000000
   14.56027794  137.59100342    0.00000000    0.00000000
   14.56416702  145.40400696    0.00000000    0.00000000
   14.56805515  138.01499939    0.00000000    0.00000000
   14.57194424  136.79499817    0.00000000    0.00000000
   14.57416630  142.29400635    0.00000000    0.00000000
   14.57611084  141.93699646    0.00000000    0.00000000
   14.57999992  142.46699524    0.00000000    0.00000000
   14.58388901  149.68299866    0.00000000    0.00000000
   14.59083271  149.68299866    0.00000000    0.00000000
   14.59555531  138.41900635    0.00000000    0.00000000
   14.59944439  139.90800476    0.00000000    0.00000000
   14.60305595  138.85400391    0.00000000    0.00000000
   14.60722256  136.66099548    0.00000000    0.00000000
   14.60750008  135.83700562    0.00000000    0.00000000
   14.61111164  146.14100647    0.00000000    0.00000000
   14.61500072  142.72900391    0.00000000    0.00000000
   14.61888885  144.41000366    0.00000000    0.00000000
   14.62277794  143.32800293    0.00000000    0.00000000
   14.62666702  138.00100708    0.00000000    0.00000000
   14.63361073  138.00100708    0.00000000    0.00000000
   14.63833332  139.37600708    0.00000000    0.00000000
   14.64083290  139.13000488    0.00000000    0.00000000
   14.64249992  140.89700317    0.00000000    0.00000000
   14.64638901  137.73699951    0.00000000    0.00000000
   14.65027714  128.69000244    0.00000000    0.00000000
   14.65416622  138.78700256    0.00000000    0.00000000
   14.65805531  132.80900574    0.00000000    0.00000000
   14.66194439  137.00000000    0.00000000    0.00000000
   14.66555500  138.13999939    0.00000000    0.00000000
   14.66944504  136.61900330    0.00000000    0.00000000
   14.67638874  136.61900330    0.00000000    0.00000000
   14.68111134  131.25900269    0.00000000    0.00000000
   14.68500042  136.48899841    0.00000000    0.00000000
   14.68888855  139.22200012    0.00000000    0.00000000
   14.69277763  145.54299927    0.00000000    0.00000000
   14.69666672  138.25000000    0.00000000    0.00000000
   14.70055580  140.83399963    0.00000000    0.00000000
   14.70416641  138.05499268    0.00000000    0.00000000
   14.70805550  137.15100098    0.00000000    0.00000000
   14.70861053  140.65699768    0.00000000    0.00000000
   14.71249962  132.57699585    0.00000000    0.00000000
   14.71916580  132.57699585    0.00000000    0.00000000
   14.72388840  135.14799500    0.00000000    0.00000000
   14.72777748  135.75900269    0.00000000    0.00000000
   14.73166656  131.04200745    0.00000000    0.00000000
   14.73555565  134.40400696    0.00000000    0.00000000
   14.73944473  141.95700073    0.00000000    0.00000000
   14.74194431  137.97399902    0.00000000    0.00000000
   14.74361134  137.13699341    0.00000000    0.00000000
   14.74750042  136.94099426    0.00000000    0.00000000
   14.75138855  136.66499329    0.00000000    0.00000000
   14.75500011  133.15100098    0.00000000    0.00000000
   14.76222229  133.15100098    0.00000000    0.00000000
   14.76694393  135.54600525    0.00000000    0.00000000
   14.77083302  133.38200378    0.00000000    0.00000000
   14.77472210  134.86799622    0.00000000    0.00000000
   14.77527714  133.64900208    0.00000000    0.00000000
   14.77888870  130.20500183    0.00000000    0.00000000
   14.78277779  133.32699585    0.00000000    0.00000000
   14.78666687  135.66799927    0.00000000    0.00000000
   14.79055595  131.56199646    0.00000000    0.00000000
   14.79416752  132.41000366    0.00000000    0.00000000
   14.79805565  130.41200256    0.00000000    0.00000000
   14.80500031  130.41200256    0.00000000    0.00000000
   14.80972195  125.71499634    0.00000000    0.00000000
   14.81361103  132.75000000    0.00000000    0.00000000
   14.81750011  132.33799744    0.00000000    0.00000000
   14.82138920  132.93899536    0.00000000    0.00000000
   14.82499981  133.06300354    0.00000000    0.00000000
   14.82888889  133.09800720    0.00000000    0.00000000
   14.83277798  134.27600098    0.00000000    0.00000000
   14.83666611  132.44700623    0.00000000    0.00000000
   14.84055519  130.74200439    0.00000000    0.00000000
   14.84194374  131.41900635    0.00000000    0.00000000
   14.84777737  131.41900635    0.00000000    0.00000000
   14.85249996  134.53599548    0.00000000    0.00000000
   14.85638905  126.06600189    0.00000000    0.00000000
   14.85972214  128.02299500    0.61000001    2.59999990
   14.86305618  130.37100220    0.61000001    2.59999990
   14.86611176  126.96800232    0.61000001    2.59999990
   14.86944485  127.90799713    0.61000001    2.59999990
   14.87277794  130.32299805    0.61000001    2.59999990
   14.87527752  129.14599609    0.61000001    2.59999990
   14.87638855  129.97500610    0.61000001    2.59999990
   14.87972260  131.52999878    0.61000001    2.59999990
   14.88277817  125.96800232    0.61000001    2.59999990
   14.88611126  131.99499512    0.61000001    2.59999990
   14.89027786  131.99499512    0.47999999    2.61999989
   14.89444447  131.19900513    0.50000000    2.61999989
   14.89750004  130.74000549    0.47999999    2.61999989
   14.90083313  127.54399872    0.47999999    2.61999989
   14.90388870  127.77300262    0.50000000    2.61999989
   14.90722179  124.98500061    0.47999999    2.61999989
   14.90861034  124.42500305    0.50000000    2.61999989
   14.91083336  126.39399719    0.50000000    2.64000010
   14.91416645  125.25599670    0.47999999    2.61999989
   14.91722298  126.98500061    0.50000000    2.61999989
   14.92055607  125.86299896    0.50000000    2.61999989
   14.92388916  125.96199799    0.50000000    2.64000010
   14.92694473  125.88300323    0.47999999    2.64000010
   14.93305588  125.88300323    0.50000000    2.64000010
   14.93722248  126.98899841    0.47999999    2.64000010
   14.94027805  130.98300171    0.47999999    2.61999989
   14.94194412  131.77200317    0.47999999    2.61999989
   14.94388866  127.02500153    0.47999999    2.61999989
   14.94722271  129.12899780    0.50000000    2.64000010
   14.95027733  127.71399689    0.50000000    2.64000010
   14.95361137  125.92900085    0.51999998    2.61999989
   14.95694447  127.37999725    0.51999998    2.61999989
   14.96000004  126.41500092    0.50000000    2.61999989
   14.96333313  122.42400360    0.50000000    2.64000010
   14.96638870  124.70899963    0.50000000    2.64000010
   14.96972179  127.10600281    0.50000000    2.64000010
   14.97583294  127.10600281    0.50000000    2.64000010
   14.97999954  129.30900574    0.50000000    2.64000010
   14.98333359  126.54000092    0.50000000    2.64000010
   14.98638916  126.18800354    0.50000000    2.64000010
   14.98972225  128.66799927    0.50000000    2.61999989
   14.99305534  127.13899994    0.50000000    2.64000010
   14.99611092  126.46600342    0.50000000    2.64000010
   14.99944496  122.30100250    0.50000000    2.61999989
   15.00249958  129.31199646    0.50000000    2.64000010
   15.00583363  127.31300354    0.52999997    2.64000010
   15.00861073  125.38300323    0.51999998    2.64000010
   15.00944424  122.74099731    0.51999998    2.64000010
   15.11416721   -1.00000000   -1.00000000   -1.00000000
   15.20888901   -1.00000000   -1.00000000   -1.00000000
   15.32027817   -1.00000000   -1.00000000   -1.00000000
   15.34249973  124.78199768    0.56999999    2.66000009
   15.34583282  122.05200195    0.56999999    2.66000009
   15.34916592  124.19000244    0.56999999    2.66000009
   15.35222244  120.69799805    0.56999999    2.64000010
   15.35555553  119.43399811    0.56999999    2.66000009
   15.35861111  127.32399750    0.56999999    2.66000009
   15.36277771  127.32399750    0.56999999    2.66000009
   15.36694431  127.95800018    0.55000001    2.64000010
   15.37027836  123.34600067    0.55000001    2.66000009
   15.37333393  127.59600067    0.55000001    2.66000009
   15.37583351  124.17900085    0.52999997    2.66000009
   15.37722206  128.55400085    0.52999997    2.66000009
   15.38027763  122.92199707    0.52999997    2.66000009
   15.38361073  126.73899841    0.52999997    2.66000009
   15.38666630  131.32099915    0.52999997    2.66000009
   15.39000034  126.79299927    0.52999997    2.66000009
   15.39333344  124.44300079    0.51999998    2.64000010
   15.39638901  127.36699677    0.51999998    2.66000009
   15.39972210  126.51100159    0.52999997    2.66000009
   15.40555477  126.51100159    0.50000000    2.66000009
   15.40972137  122.44899750    0.51999998    2.66000009
   15.41305542  123.05699921    0.50000000    2.66000009
   15.41638851  123.02500153    0.50000000    2.66000009
   15.41944504  122.41200256    0.50000000    2.66000009
   15.42277813  125.32199860    0.50000000    2.66000009
   15.42611122  123.32499695    0.50000000    2.66000009
   15.42916679  125.20700073    0.50000000    2.66000009
   15.43249989  123.95500183    0.50000000    2.67000008
   15.43583298  128.92999268    0.50000000    2.66000009
   15.43888855  120.94999695    0.50000000    2.66000009
   15.44222260  118.94499969    0.50000000    2.66000009
   15.44277763  121.15899658    0.50000000    2.64000010
   15.44861126  121.15899658    0.50000000    2.66000009
   15.45277786  117.69499969    0.50000000    2.67000008
   15.45583344  122.24900055    0.47999999    2.66000009
   15.45916653  128.97500610    0.50000000    2.66000009
   15.46222210  123.92400360    0.50000000    2.66000009
   15.46555519  126.64900208    0.50000000    2.66000009
   15.46888828  125.77100372    0.47999999    2.64000010
   15.47194386  122.09899902    0.47999999    2.66000009
   15.47527695  123.71399689    0.47999999    2.66000009
   15.47611046  124.85900116    0.47999999    2.66000009
   15.47861099  127.03399658    0.47999999    2.66000009
   15.48194408  127.36699677    0.47999999    2.66000009
   15.48527813  125.72699738    0.47999999    2.66000009
   15.49138927  125.72699738    0.47999999    2.66000009
   15.49555588  120.11799622    0.47999999    2.66000009
   15.49861145  121.85199738    0.47999999    2.66000009
   15.50194454  122.46099854    0.47999999    2.66000009
   15.50527763  122.21299744    0.46000001    2.66000009
   15.50833321  122.60700226    0.46000001    2.66000009
   15.50944424  123.88999939    0.46000001    2.66000009
   15.51222229  122.04599762    0.46000001    2.66000009
   15.51527786  125.72899628    0.46000001    2.66000009
   15.51861095  123.05300140    0.46000001    2.66000009
   15.52194405  126.14700317    0.46000001    2.66000009
   15.52499962  119.81900024    0.46000001    2.66000009
   15.52833271  120.81800079    0.47999999    2.66000009
   15.53416729  120.81800079    0.46000001    2.66000009
   15.53833389  122.26699829    0.47999999    2.66000009
   15.54166698  122.57299805    0.47999999    2.66000009
   15.54277802  122.08799744    0.47999999    2.66000009
   15.54500008  124.41899872    0.47999999    2.66000009
   15.54833412  118.29000092    0.50000000    2.66000009
   15.55166721  124.95200348    0.47999999    2.66000009
   15.55472279  123.36399841    0.50000000    2.66000009
   15.55805588  121.73699951    0.50000000    2.66000009
   15.56111145  121.26200104    0.50000000    2.66000009
   15.56444454  119.46900177    0.50000000    2.66000009
   15.56777763  125.66699982    0.50000000    2.66000009
   15.57083321  123.24800110    0.51999998    2.66000009
   15.57694435  123.24800110    0.51999998    2.66000009
   15.58111095  119.67500305    0.52999997    2.66000009
   15.58444405  119.75499725    0.52999997    2.66000009
   15.58749962  118.71900177    0.51999998    2.66000009
   15.59083271  125.01399994    0.55000001    2.66000009
   15.59416676  122.28500366    0.61000001    2.66000009
   15.59749985  124.49500275    0.61000001    2.66000009
   15.60055637  122.33200073    0.63000000    2.66000009
   15.60388947  124.12500000    0.63000000    2.66000009
   15.60722256  117.38800049    0.79000002    2.66000009
   15.60944462  120.58300018    0.79000002    2.66000009
   15.61055565  123.71299744    0.83999997    2.66000009
   15.61388969  121.45400238    0.83999997    2.66000009
   15.61999989  121.45400238    0.76999998    2.66000009
   15.62416649  123.23200226    0.79000002    2.66000009
   15.62722206  125.97200012    0.86000001    2.66000009
   15.63055611  124.62200165    0.92000002    2.66000009
   15.63361073  128.16499329    0.94000000    2.66000009
   15.63694477  122.89800262    0.94000000    2.66000009
   15.64027786  120.93599701    0.94000000    2.66000009
   15.64277744  122.66000366    1.05999994    2.66000009
   15.64361095  124.34400177    1.03999996    2.66000009
   15.64694405  121.34400177    1.03999996    2.66000009
   15.65027714  120.83100128    1.03999996    2.66000009
   15.65333271  120.02600098    1.03999996    2.66000009
   15.65666676  119.69599915    1.01999998    2.66000009
   15.66277695  119.69599915    0.98000002    2.66000009
   15.66694450  121.79699707    1.00000000    2.66000009
   15.67000008  123.57199860    0.95999998    2.66000009
   15.67333412  119.54799652    0.88000000    2.64000010
   15.67611122  118.52600098    0.86000001    2.66000009
   15.67694473  124.30599976    0.86000001    2.66000009
   15.68027782  122.60800171    0.86000001    2.66000009
   15.68361092  120.83399963    0.95999998    2.66000009
   15.68666649  124.91899872    0.89999998    2.66000009
   15.69000053  120.89399719    0.86000001    2.66000009
   15.69333363  122.70999908    0.92000002    2.67000008
   15.69638920  123.76300049    0.92000002    2.67000008
   15.69972229  122.86000061    0.98000002    2.66000009
   15.70555496  122.86000061    0.88000000    2.66000009
   15.70972157  117.47799683    0.83999997    2.66000009
   15.71305561  125.22299957    0.83999997    2.66000009
   15.71611118  120.93800354    0.86000001    2.66000009
   15.71944427  122.03399658    0.86000001    2.66000009
   15.72277737  122.23699951    0.79000002    2.66000009
   15.72583294  124.09300232    0.75000000    2.66000009
   15.72916603  123.04499817    0.76999998    2.66000009
   15.73222160  122.31199646    0.76999998    2.66000009
   15.73555565  122.70400238    0.79000002    2.66000009
   15.73888874  123.01699829    0.73000002    2.66000009
   15.74194431  122.82900238    0.70999998    2.67000008
   15.74277782  126.67800140    0.70999998    2.67000008
   15.74833393  126.67800140    0.70999998    2.66000009
   15.75249958  121.76899719    0.69000000    2.66000009
   15.75583363  123.65599823    0.67000002    2.67000008
   15.75916672  124.24299622    0.67000002    2.67000008
   15.76222229  126.43199921    0.67000002    2.67000008
   15.76555538  123.43000031    0.67000002    2.67000008
   15.76861095  126.17500305    0.64999998    2.66000009
   15.77194405  120.77100372    0.63000000    2.66000009
   15.77527714  122.75599670    0.63000000    2.66000009
   15.77611065  122.22000122    0.63000000    2.66000009
   15.77861118  124.11299896    0.61000001    2.66000009
   15.78194427  121.08599854    0.58999997    2.66000009
   15.78527832  122.97899628    0.56999999    2.66000009
   15.79138947  122.97899628    0.56999999    2.66000009
   15.79555607  122.51699829    0.52999997    2.66000009
   15.79861164  120.93599701    0.52999997    2.66000009
   15.80194473  123.12400055    0.52999997    2.66000009
   15.80500031  120.35800171    0.52999997    2.66000009
   15.80833340  117.25599670    0.51999998    2.66000009
   15.80944443  119.41799927    0.51999998    2.66000009
   15.81166649  120.24500275    0.51999998    2.66000009
   15.81500053  121.69400024    0.51999998    2.66000009
   15.81833363  118.42099762    0.51999998    2.66000009
   15.82138920  119.28700256    0.51999998    2.66000009
   15.82472229  123.06099701    0.50000000    2.67000008
   15.82805538  124.25599670    0.50000000    2.66000009
   15.83416653  124.25599670    0.50000000    2.66000009
   15.83833313  124.34400177    0.50000000    2.66000009
   15.84138870  124.52999878    0.50000000    2.66000009
   15.84277725  120.46700287    0.50000000    2.66000009
   15.84527779  119.46399689    0.51999998    2.66000009
   15.84833336  124.29499817    0.47999999    2.67000008
   15.85166740  124.83499908    0.47999999    2.66000009
   15.85472298  124.24199677    0.47999999    2.66000009
   15.85805607  122.48500061    0.50000000    2.67000008
   15.86138916  127.75499725    0.50000000    2.67000008
   15.86444473  123.82499695    0.50000000    2.66000009
   15.86777782  120.28299713    0.50000000    2.67000008
   15.87111092  122.88500214    0.50000000    2.66000009
   15.87694454  122.88500214    0.51999998    2.67000008
   15.88111115  116.47399902    0.51999998    2.66000009
   15.88444424  116.51899719    0.51999998    2.66000009
   15.88749981  121.55100250    0.51999998    2.66000009
   15.89083290  121.25700378    0.51999998    2.67000008
   15.89416695  120.04900360    0.50000000    2.67000008
   15.89722252  122.56300354    0.50000000    2.66000009
   15.90055561  118.72399902    0.50000000    2.66000009
   15.90361118  126.29000092    0.50000000    2.66000009
   15.90694427  118.76899719    0.50000000    2.66000009
   15.90944386  117.41899872    0.50000000    2.66000009
   15.91055489  118.65799713    0.50000000    2.66000009
   15.91361046  120.72699738    0.50000000    2.66000009
   15.91972256  120.72699738    0.50000000    2.67000008
   15.92388916  121.78900146    0.50000000    2.67000008
   15.92722225  118.08499908    0.50000000    2.67000008
   15.93055630  124.75599670    0.50000000    2.67000008
   15.93361092  121.09999847    0.50000000    2.67000008
   15.93694496  118.81900024    0.50000000    2.67000008
   15.94000053  119.11699677    0.50000000    2.66000009
   15.94277763  123.69499969    0.50000000    2.66000009
   15.94361115  122.07199860    0.50000000    2.67000008
   15.94694424  126.47100067    0.50000000    2.67000008
   15.95027733  119.22299957    0.50000000    2.67000008
   15.95333290  117.48000336    0.50000000    2.67000008
   15.95666695  125.23100281    0.50000000    2.66000009
   15.96277714  125.23100281    0.50000000    2.66000009
   15.96666622  125.71800232    0.50000000    2.66000009
   15.96999931  119.47899628    0.50000000    2.66000009
   15.97333336  120.50399780    0.50000000    2.66000009
   15.97611046  120.89199829    0.50000000    2.67000008
   15.97694397  124.59899902    0.50000000    2.67000008
   15.97999954  121.16400146    0.50000000    2.66000009
   15.98333359  117.63999939    0.50000000    2.67000008
   15.98638916  120.05300140    0.50000000    2.67000008
   15.98972225  123.37999725    0.50000000    2.67000008
   15.99305534  119.12799835    0.50000000    2.67000008
   15.99611092  119.57299805    0.50000000    2.67000008
   15.99944496  125.00399780    0.47999999    2.67000008
   16.00555611  125.00399780    0.47999999    2.66000009
   16.00972176  121.78299713    0.50000000    2.67000008
   16.01305580  120.27300262    0.50000000    2.67000008
   16.01611137  118.93399811    0.47999999    2.66000009
   16.01944351  120.32199860    0.47999999    2.67000008
   16.02249908  116.32900238    0.47999999    2.66000009
   16.02583313  117.27100372    0.47999999    2.66000009
   16.02916718  118.19799805    0.50000000    2.67000008
   16.03222275  121.21499634    0.50000000    2.66000009
   16.03555489  121.42700195    0.50000000    2.67000008
   16.03888893  122.18699646    0.50000000    2.67000008
   16.04194450  122.66699982    0.50000000    2.67000008
   16.04277802  124.12899780    0.50000000    2.67000008
   16.04833221  124.12899780    0.51999998    2.66000009
   16.05249977  119.21900177    0.50000000    2.67000008
   16.05583191  124.08899689    0.50000000    2.66000009
   16.05888748  122.26200104    0.50000000    2.66000009
   16.06222153  124.38899994    0.47999999    2.66000009
   16.06555557  127.12100220    0.47999999    2.67000008
   16.06861115  119.07199860    0.47999999    2.67000008
   16.07194519  123.26699829    0.47999999    2.66000009
   16.07500076  117.30899811    0.47999999    2.67000008
   16.07611275  117.91699982    0.47999999    2.67000008
   16.07888985  120.27700043    0.47999999    2.67000008
   16.08194542  119.77700043    0.50000000    2.66000009
   16.08527756  122.73999786    0.51999998    2.67000008
   16.09111214  122.73999786    0.76999998    2.66000009
   16.09527779  119.74400330    0.79000002    2.66000009
   16.09861183  119.36499786    0.81999999    2.67000008
   16.10194397  118.78099823    0.92000002    2.67000008
   16.10499954  122.19000244    0.92000002    2.67000008
   16.10833359  122.32800293    0.89999998    2.66000009
   16.10944557  120.68599701    0.89999998    2.67000008
   16.11194420  121.34100342    0.89999998    2.67000008
   16.11499977  134.54800415    0.95999998    2.66000009
   16.11833382  117.46600342    1.05999994    2.66000009
   16.12138939  145.81399536    1.05999994    2.66000009
   16.12472153  130.68800354    1.09000003    2.66000009
   16.12805557  129.39300537    1.13000000    2.67000008
   16.13416672  129.39300537    1.41999996    2.66000009
   16.13833237  122.13400269    1.41999996    2.66000009
   16.14138794  125.89399719    1.41999996    2.66000009
   16.14277840  131.70100403    1.41999996    2.66000009
   16.14527702  126.06500244    1.48000002    2.66000009
   16.14833260  119.07900238    1.50000000    2.66000009
   16.15166664  123.93399811    1.48000002    2.67000008
   16.15472221  124.58799744    1.48000002    2.67000008
   16.15805435  119.67600250    1.34000003    2.67000008
   16.16138840  121.51499939    1.28999996    2.66000009
   16.16444397  119.93299866    1.25000000    2.66000009
   16.16777802  123.46199799    1.09000003    2.66000009
   16.17111015  122.13600159    1.09000003    2.67000008
   16.17694473  122.13600159    0.89999998    2.67000008
   16.18111038  119.26100159    0.64999998    2.66000009
   16.18416595  125.70999908    0.61000001    2.67000008
   16.18750000  122.61900330    0.61000001    2.67000008
   16.19083214  119.83499908    0.58999997    2.67000008
   16.19388771  123.22699738    0.58999997    2.67000008
   16.19722176  122.79399872    0.55000001    2.67000008
   16.20027924  120.77999878    0.61000001    2.67000008
   16.20361137  120.76999664    0.63000000    2.67000008
   16.20694542  121.41999817    0.63000000    2.67000008
   16.20944595  118.50700378    0.61000001    2.67000008
   16.21055603  123.41300201    0.61000001    2.67000008
   16.21361160  120.70700073    0.63000000    2.67000008
   16.21972275  120.70700073    0.83999997    2.67000008
   16.22389030  120.33499908    0.94000000    2.66000009
   16.22722244  117.36000061    1.00000000    2.66000009
   16.23027802  118.93499756    1.03999996    2.66000009
   16.23361206  123.39499664    1.03999996    2.66000009
   16.23666763  120.83100128    1.07000005    2.67000008
   16.23999977  119.13600159    1.05999994    2.66000009
   16.24277878  123.09799957    1.05999994    2.67000008
   16.24361229  124.65799713    1.05999994    2.67000008
   16.24666786  126.68599701    1.07000005    2.67000008
   16.25000000  120.34600067    1.19000006    2.66000009
   16.25305557  121.62699890    1.16999996    2.66000009
   16.25638962  121.26200104    1.14999998    2.66000009
   16.26250076  121.26200104    1.28999996    2.66000009
   16.26666641  125.07099915    1.28999996    2.66000009
   16.27000046  122.76499939    1.05999994    2.67000008
   16.27305603  124.15399933    1.05999994    2.67000008
   16.27611160  122.88800049    1.05999994    2.67000008
   16.27694511  122.45200348    1.05999994    2.67000008
   16.28000069  121.86699677    1.01999998    2.67000008
   16.28333282  124.81199646    1.11000001    2.66000009
   16.28638840  124.39600372    1.39999998    2.66000009
   16.28972244  123.22399902    1.58000004    2.66000009
   16.29305458  126.76399994    3.05999994    2.66000009
   16.29611015  134.56300354    4.90999985    2.64000010
   16.29944420  157.95500183    4.90999985    2.53999996
   16.30555534  157.95500183    4.90999985    2.39000010
   16.30944443   -1.00000000   -1.00000000   -1.00000000
   16.31277657  134.07400513    4.90999985    1.76999998
   16.31611061  238.98800659    4.90999985    2.09999990
   16.31916809  211.96499634    4.90999985    1.91999996
   16.32250023  195.85699463    4.90999985    2.32999992
   16.32583427  176.28700256    4.90999985    2.09999990
   16.32888985  175.02000427    4.90999985    2.17000008
   16.33222389  217.08900452    4.90999985    2.23000002
   16.33527756  190.13900757    4.90999985    2.21000004
   16.33861160  231.28199768    4.90999985    2.05999994
   16.34194565   -1.00000000    4.90999985    1.91999996
   16.34277916   85.37429810    4.90999985    1.71000004
   16.36333466   85.37429810    4.90999985    2.11999989
   16.36750031  168.31300354    4.90999985    2.25000000
   16.37083435  284.68600464    4.90999985    2.28999996
   16.37416649  203.59800720    4.90999985    2.13000011
   16.37611198  193.71899414    4.90999985    2.11999989
   16.37777710  183.90899658    4.90999985    2.13000011
   16.38083267  174.61500549    4.90999985    2.13000011
   16.38416672  175.50300598    4.90999985    2.25000000
   16.38750076  174.31500244    4.90999985    2.30999994
   16.39055634  164.22700500    4.90999985    2.25000000
   16.39388847  162.37899780    4.90999985    2.40000010
   16.39694405  155.73100281    4.90999985    2.36999989
   16.40027809  162.72399902    4.90999985    2.40000010
   16.40611076  162.72399902    4.90999985    2.32999992
   16.41027832  136.63900757    4.90999985    2.36999989
   16.41361046  129.81599426    4.90999985    2.51999998
   16.41666603  128.18200684    4.17999983    2.66000009
   16.42000008  125.66699982    3.01999998    2.66000009
   16.42333221  124.75800323    3.91000009    2.64000010
   16.42638779  124.95800018    3.97000003    2.59999990
   16.42972183  118.98100281    3.32999992    2.64000010
   16.43305397  128.70500183    2.39000010    2.66000009
   16.43610954  126.56300354    1.60000002    2.67000008
   16.43944359  130.54800415    1.13000000    2.66000009
   16.44249916  123.57399750    0.92000002    2.67000008
   16.44305420  123.76499939    0.92000002    2.67000008
   16.44916534  123.76499939    0.95999998    2.67000008
   16.45305634  127.90000153    0.80000001    2.66000009
   16.45639038  121.14399719    0.76999998    2.67000008
   16.45972252  123.25399780    0.67000002    2.67000008
   16.46277809  120.98100281    0.67000002    2.67000008
   16.46611214  117.02100372    0.75000000    2.67000008
   16.46944427  119.82299805    0.76999998    2.67000008
   16.47249985  119.23000336    0.76999998    2.67000008
   16.47583389  125.16500092    0.83999997    2.67000008
   16.47638893  129.97200012    0.83999997    2.67000008
   16.47944450  117.42600250    0.83999997    2.67000008
   16.48250008  119.22399902    0.79000002    2.67000008
   16.48583412  123.84799957    0.88000000    2.67000008
   16.49194527  123.84799957    4.90999985    2.40000010
   16.49611092  127.48300171    4.90999985    2.50000000
   16.49916649  127.14700317    4.90999985    2.59999990
   16.50250053  122.05799866    4.53000021    2.61999989
   16.50583267  119.88200378    2.91000009    2.67000008
   16.50888824  123.19599915    2.00000000    2.67000008
   16.50972176  124.32800293    1.98000002    2.67000008
   16.51250076  120.42099762    2.01999998    2.66000009
   16.51583290  118.93699646    1.71000004    2.67000008
   16.51888847  121.97000122    1.36000001    2.67000008
   16.52222252  120.75900269    0.94000000    2.66000009
   16.52527809  123.84100342    1.00000000    2.66000009
   16.52861023  122.07700348    1.33000004    2.66000009
   16.53472137  122.07700348    2.05999994    2.67000008
   16.53888893  120.49400330    2.42000008    2.67000008
   16.54222107  120.70200348    1.44000006    2.67000008
   16.54305458  119.93199921    1.36000001    2.69000006
   16.54583359  124.40599823    1.05999994    2.66000009
   16.54916573  121.90799713    1.13000000    2.66000009
   16.55222130  120.86000061    0.70999998    2.67000008
   16.55555534  121.74199677    0.61000001    2.67000008
   16.55861092  121.21099854    0.61000001    2.69000006
   16.56194305  124.12300110    0.69000000    2.69000006
   16.56527710  123.10399628    0.69000000    2.69000006
   16.56833458  124.50099945    1.13000000    2.67000008
   16.57166672  122.35099792    1.11000001    2.66000009
   16.57750130  122.35099792    1.03999996    2.67000008
   16.58166695  121.09799957    0.86000001    2.67000008
   16.58500099  123.95200348    0.73000002    2.67000008
   16.58833313  124.31099701    0.64999998    2.67000008
   16.59138870  121.26000214    0.63000000    2.67000008
   16.59472275  128.73300171    0.52999997    2.67000008
   16.59777832  123.77300262    0.52999997    2.67000008
   16.60111237  119.73799896    0.52999997    2.67000008
   16.60444450  120.29100037    0.51999998    2.67000008
   16.60750008  119.21600342    0.51999998    2.67000008
   16.60972214  122.79499817    0.51999998    2.69000006
   16.61111069  123.54599762    0.51999998    2.69000006
   16.61444473  119.90699768    0.51999998    2.69000006
   16.62055588  119.90699768    0.51999998    2.67000008
   16.62472153  121.25000000    0.52999997    2.69000006
   16.62777710  122.47499847    0.51999998    2.67000008
   16.63111115  122.72699738    0.51999998    2.67000008
   16.63416672  120.08300018    0.51999998    2.67000008
   16.63750076  119.83799744    0.52999997    2.67000008
   16.64083290  136.61900330    0.55000001    2.67000008
   16.64305496  131.26699829    0.52999997    2.67000008
   16.64444351  132.55400085    0.52999997    2.67000008
   16.64777756  129.13499451    0.51999998    2.67000008
   16.65083313  119.30000305    0.51999998    2.69000006
   16.65416718  127.01300049    0.51999998    2.69000006
   16.65749931  123.14600372    0.51999998    2.67000008
   16.66333389  123.14600372    0.51999998    2.67000008
   16.66749954  134.44299316    0.51999998    2.67000008
   16.67055511  132.67100525    0.51999998    2.69000006
   16.67388916  126.57900238    0.52999997    2.67000008
   16.67666626  131.05599976    0.51999998    2.69000006
   16.67777634  128.30200195    0.51999998    2.69000006
   16.68083191  126.45500183    0.51999998    2.69000006
   16.68416595  135.14399719    0.52999997    2.69000006
   16.68722153  133.29899597    0.55000001    2.67000008
   16.69055557  117.10800171    0.58999997    2.67000008
   16.69388771  122.96099854    0.55000001    2.69000006
   16.69722176  121.59999847    0.55000001    2.69000006
   16.70027924  123.82099915    0.55000001    2.69000006
   16.70611191  123.82099915    0.52999997    2.67000008
   16.71027946  127.33799744    0.51999998    2.67000008
   16.71361160  126.25599670    0.51999998    2.67000008
   16.71666718  123.23999786    0.50000000    2.69000006
   16.72000122  120.81400299    0.51999998    2.67000008
   16.72333336  123.57099915    0.50000000    2.67000008
   16.72638893  134.15400696    0.50000000    2.69000006
   16.72972298  130.30299377    0.50000000    2.67000008
   16.73277855  117.16999817    0.50000000    2.67000008
   16.73611069  124.25700378    0.50000000    2.67000008
   16.73944473  127.13600159    0.50000000    2.69000006
   16.74250031  129.25000000    0.50000000    2.67000008
   16.74305534  128.25000000    0.50000000    2.67000008
   16.74888992  128.25000000    0.52999997    2.69000006
   16.75305557  122.14499664    0.56999999    2.69000006
   16.75638962  118.21600342    0.51999998    2.69000006
   16.75972176  132.21200562    0.50000000    2.69000006
   16.76277733  118.65899658    0.50000000    2.69000006
   16.76611137  122.16300201    0.50000000    2.69000006
   16.76916695  128.74299622    0.50000000    2.69000006
   16.77249908  124.00700378    0.50000000    2.67000008
   16.77583313  125.19400024    0.50000000    2.67000008
   16.77638817  117.31300354    0.50000000    2.67000008
   16.77944374  129.05200195    0.50000000    2.67000008
   16.78277779  124.11299896    0.51999998    2.67000008
   16.78583336  122.76499939    0.51999998    2.67000008
   16.79194450  122.76499939    0.51999998    2.69000006
   16.79611015  125.77899933    0.51999998    2.69000006
   16.79916573  120.01499939    0.50000000    2.69000006
   16.80249977  125.80300140    0.50000000    2.67000008
   16.80555534  121.66799927    0.51999998    2.67000008
   16.80888748  123.15399933    0.52999997    2.67000008
   16.80972099  120.78099823    0.52999997    2.67000008
   16.81250000  118.47599792    0.51999998    2.67000008
   16.81583214  118.75800323    0.52999997    2.67000008
   16.81888962  119.62899780    0.52999997    2.69000006
   16.82222366  116.92700195    0.52999997    2.69000006
   16.82555580  123.66699982    0.51999998    2.67000008
   16.82861137  123.87699890    0.52999997    2.69000006
   16.83472252  123.87699890    0.52999997    2.69000006
   16.83889008  120.40299988    0.52999997    2.67000008
   16.84194565  121.28500366    0.51999998    2.67000008
   16.84305573  125.86599731    0.51999998    2.67000008
   16.84555626  121.67700195    0.51999998    2.67000008
   16.84889030  120.69100189    0.51999998    2.67000008
   16.85194397  124.12100220    0.51999998    2.67000008
   16.85527802  123.00900269    0.51999998    2.67000008
   16.85861206  120.81099701    0.51999998    2.67000008
   16.86166763  127.74500275    0.51999998    2.67000008
   16.86499977  126.18599701    0.51999998    2.67000008
   16.86833382  121.51899719    0.51999998    2.69000006
   16.87138939  120.53600311    0.51999998    2.67000008
   16.87750053  120.53600311    0.51999998    2.67000008
   16.88166618  123.17700195    0.52999997    2.67000008
   16.88500023  126.44300079    0.52999997    2.67000008
   16.88805580  124.16799927    0.52999997    2.67000008
   16.89138794  120.05899811    0.51999998    2.69000006
   16.89472198  115.88099670    0.51999998    2.67000008
   16.89777756  119.62899780    0.52999997    2.69000006
   16.90111160  120.77600098    0.52999997    2.69000006
   16.90416718  123.22299957    0.51999998    2.67000008
   16.90749931  122.70500183    0.51999998    2.67000008
   16.90972137  121.63400269    0.51999998    2.69000006
   16.91110992  118.58999634    0.51999998    2.69000006
   16.91444397  120.43000031    0.52999997    2.67000008
   16.92027664  120.43000031    0.51999998    2.67000008
   16.92444420  122.77500153    0.51999998    2.69000006
   16.92777634  118.27200317    0.51999998    2.69000006
   16.93111038  121.96399689    0.51999998    2.67000008
   16.93416595  123.53900146    0.51999998    2.67000008
   16.93750000  122.05799866    0.52999997    2.67000008
   16.94055557  123.04699707    0.52999997    2.67000008
   16.94305420  122.28800201    0.52999997    2.67000008
   16.94416618  118.44100189    0.52999997    2.69000006
   16.94749832  122.88800049    0.55000001    2.67000008
   16.95055580  125.58399963    0.55000001    2.69000006
   16.95388985  120.01799774    0.55000001    2.67000008
   16.95722389  122.51399994    0.55000001    2.67000008
   16.96333504  122.51399994    0.56999999    2.67000008
   16.96750069  123.37300110    0.58999997    2.67000008
   16.97055626  125.03700256    0.56999999    2.67000008
   16.97389030  122.37500000    0.56999999    2.67000008
   16.97638893  120.74400330    0.56999999    2.67000008
   16.97750092  118.91999817    0.56999999    2.67000008
   16.98083305  117.70500183    0.55000001    2.67000008
   16.98388863  126.16799927    0.63000000    2.67000008
   16.98722267  119.32199860    0.63000000    2.69000006
   16.99055672  121.27999878    0.63000000    2.67000008
   16.99361229  119.01200104    0.63000000    2.67000008
   16.99694443  122.44999695    0.73000002    2.69000006
   17.00000000  120.59999847    0.79000002    2.67000008
   17.00611115  120.59999847    0.80000001    2.67000008
   17.01027870  121.82900238    0.81999999    2.67000008
   17.01361084  124.71700287    0.83999997    2.67000008
   17.01666641  117.66100311    0.86000001    2.67000008
   17.02000046  122.61599731    0.88000000    2.67000008
   17.02305603  121.28600311    0.88000000    2.67000008
   17.02638817  123.09200287    0.88000000    2.67000008
   17.02972221  119.88200378    0.89999998    2.69000006
   17.03277779  120.76899719    0.94000000    2.67000008
   17.03610992  119.64700317    0.95999998    2.67000008
   17.03944397  125.94999695    0.98000002    2.67000008
   17.04249954  117.77400208    1.01999998    2.67000008
   17.04333305  118.19799805    1.01999998    2.67000008
   17.04888916  118.19799805    1.05999994    2.67000008
   17.05305481  122.85700226    1.38000000    2.67000008
   17.05638885  117.83200073    1.38000000    2.67000008
   17.05944443  127.23500061    1.38000000    2.67000008
   17.06277657  122.70999908    1.38000000    2.67000008
   17.06611061  119.93199921    1.36000001    2.67000008
   17.06916809  125.30300140    1.44000006    2.67000008
   17.07250023  118.93399811    1.58000004    2.67000008
   17.07555580  121.85900116    1.76999998    2.66000009
   17.07638931  121.46600342    1.76999998    2.66000009
   17.07916832  121.22699738    2.17000008    2.66000009
   17.08250046  124.60500336    2.75000000    2.64000010
   17.08555603  119.64600372    3.00000000    2.64000010
   17.09166718  119.64600372    3.70000005    2.64000010
   17.09583473  126.75599670    4.15999985    2.61999989
   17.09916687  122.42099762    4.51000023    2.61999989
   17.10250092  125.31700134    4.69999981    2.57999992
   17.10555649  125.23600006    4.76000023    2.59999990
   17.10888863  119.93499756    4.67999983    2.61999989
   17.10972214  119.90299988    4.63999987    2.61999989
   17.11250114  120.86000061    4.78000021    2.59999990
   17.11583328  125.82399750    4.90999985    2.61999989
   17.11916733  128.22900391    4.90999985    2.57999992
   17.12222290  126.24900055    4.90999985    2.57999992
   17.12555504  126.94300079    4.90999985    2.59999990
   17.12861061  129.47999573    4.90999985    2.57999992
   17.13472176  129.47999573    4.90999985    2.59999990
   17.13888931  126.19699860    4.90999985    2.55999994
   17.14194489  129.23800659    4.90999985    2.50000000
   17.14333344  127.35500336    4.90999985    2.48000002
   17.14555550  129.35000610    4.90999985    2.51999998
   17.14888954  126.27100372    4.90999985    2.50000000
   17.15194321  131.88999939    4.90999985    2.50000000
   17.15527725  128.56399536    4.90999985    2.51999998
   17.15861130  126.86399841    4.90999985    2.55999994
   17.16166687  128.83399963    4.90999985    2.55999994
   17.16499901  125.05200195    4.90999985    2.55999994
   17.16833305  125.18499756    4.90999985    2.55999994
   17.17138863  122.78800201    4.90999985    2.53999996
   17.17749977  122.78800201    4.90999985    2.53999996
   17.18166542  119.91300201    4.90999985    2.55999994
   17.18472099  122.70200348    4.40999985    2.61999989
   17.18805504  128.57299805    3.39000010    2.64000010
   17.19138718  128.93499756    2.75000000    2.66000009
   17.19444275  123.07499695    2.50000000    2.64000010
   17.19777679  120.84600067    2.39000010    2.66000009
   17.20111275  126.16100311    2.15000010    2.66000009
   17.20444489  120.70600128    1.86000001    2.66000009
   17.20750046  126.20999908    1.51999998    2.67000008
   17.21000099  125.83100128    1.44000006    2.66000009
   17.21111107  123.62500000    1.41999996    2.66000009
   17.21444511  128.91200256    1.33000004    2.67000008
   17.22027779  128.91200256    1.03999996    2.67000008
   17.22444534  118.43499756    0.98000002    2.66000009
   17.22777748  123.34500122    0.95999998    2.67000008
   17.23083305  124.19000244    0.95999998    2.67000008
   17.23416710  133.52099609    0.95999998    2.67000008
   17.23750114  124.10299683    1.05999994    2.66000009
   17.24055672  123.92400360    1.05999994    2.67000008
   17.24333382  120.44000244    1.07000005    2.67000008
   17.24416733  124.78099823    1.07000005    2.67000008
   17.24749947  125.07800293    1.05999994    2.67000008
   17.25055504  124.53299713    0.83999997    2.67000008
   17.25388908  124.96399689    0.83999997    2.67000008
   17.25722313  124.16400146    0.70999998    2.67000008
   17.26305580  124.16400146    0.67000002    2.67000008
   17.26722145  123.58399963    0.64999998    2.67000008
   17.27055550  124.70400238    0.63000000    2.67000008
   17.27388954  123.03399658    0.61000001    2.67000008
   17.27666664  121.27100372    0.61000001    2.67000008
   17.27722168  125.48000336    0.61000001    2.67000008
   17.28055573  122.39499664    0.58999997    2.67000008
   17.28388786  122.03700256    0.56999999    2.66000009
   17.28694344  119.94899750    0.56999999    2.67000008
   17.29027748  124.09500122    0.56999999    2.67000008
   17.29333305  129.28100586    0.55000001    2.67000008
   17.29666710  124.82599640    0.55000001    2.67000008
   17.29999924  125.13099670    0.56999999    2.69000006
   17.30611038  125.13099670    0.56999999    2.67000008
   17.31027794  123.47699738    0.55000001    2.67000008
   17.31333351  121.39299774    0.55000001    2.67000008
   17.31666756  123.42400360    0.55000001    2.67000008
   17.31972313  121.98100281    0.55000001    2.67000008
   17.32305717  123.94599915    0.55000001    2.67000008
   17.32638931  127.89499664    0.55000001    2.67000008
   17.32944489  127.17199707    0.52999997    2.67000008
   17.33277893  121.75000000    0.55000001    2.67000008
   17.33611107  125.08599854    0.55000001    2.67000008
   17.33916664  120.93699646    0.55000001    2.67000008
   17.34250069  125.84600067    0.55000001    2.67000008
   17.34333420  125.92299652    0.55000001    2.67000008
   17.34889030  125.92299652    0.52999997    2.67000008
   17.35305595  123.27200317    0.52999997    2.67000008
   17.35611153  125.54499817    0.55000001    2.67000008
   17.35944557  127.85099792    0.55000001    2.67000008
   17.37694550  124.65499878    0.52999997    2.67000008
   17.37944412  121.79900360    0.52999997    2.67000008
   17.38277817  128.43400574    0.52999997    2.67000008
   17.38583374  123.00800323    0.52999997    2.67000008
   17.39194489  123.00800323    0.55000001    2.67000008
   17.39611053  128.03199768    0.55000001    2.67000008
   17.39916611  127.29199982    0.56999999    2.67000008
   17.40250015  125.99500275    0.56999999    2.67000008
   17.40583229  127.10199738    0.56999999    2.67000008
   17.40888786  123.91500092    0.55000001    2.67000008
   17.41027832  124.37400055    0.51999998    2.67000008
   17.41250038  124.74500275    0.51999998    2.67000008
   17.41555595  121.18499756    0.52999997    2.67000008
   17.41888809  122.50700378    0.51999998    2.67000008
   17.42222214  123.32099915    0.51999998    2.67000008
   17.42527771  120.79599762    0.51999998    2.67000008
   17.42860985  122.25900269    0.50000000    2.67000008
   17.43472099  122.25900269    0.50000000    2.67000008
   17.43888855  123.09200287    0.51999998    2.67000008
   17.44194412  122.29900360    0.51999998    2.67000008
   17.44361115  124.65599823    0.51999998    2.67000008
   17.44583321  124.53099823    0.51999998    2.69000006
   17.44888878  124.42700195    0.51999998    2.69000006
   17.45222282  123.38999939    0.51999998    2.67000008
   17.45555687  118.08399963    0.51999998    2.67000008
   17.45861244  122.83300018    0.51999998    2.67000008
   17.46194458  123.94999695    0.51999998    2.67000008
   17.46527863  120.06199646    0.50000000    2.67000008
   17.46833420  122.14299774    0.50000000    2.67000008
   17.47166634  119.48699951    0.50000000    2.67000008
   17.47750092  119.48699951    0.50000000    2.67000008
   17.48166656  120.21600342    0.51999998    2.67000008
   17.48500061  123.51100159    0.52999997    2.67000008
   17.48805618  123.56300354    0.52999997    2.67000008
   17.49138832  120.84500122    0.55000001    2.67000008
   17.49472237  121.65599823    0.55000001    2.67000008
   17.49777794  119.87200165    0.56999999    2.66000009
   17.50111198  121.06900024    0.56999999    2.66000009
   17.50416756  121.88400269    0.56999999    2.66000009
   17.50749969  125.84300232    0.56999999    2.67000008
   17.51027870  125.69400024    0.58999997    2.67000008
   17.51111031  123.44100189    0.58999997    2.67000008
   17.51416588  120.57499695    0.61000001    2.67000008
   17.52027702  120.57499695    0.63000000    2.67000008
   17.52444458  122.47000122    0.63000000    2.67000008
   17.52777672  124.33499908    0.61000001    2.67000008
   17.53111076  122.04599762    0.61000001    2.67000008
   17.53416634  125.38099670    0.56999999    2.67000008
   17.53750038  125.25199890    0.56999999    2.67000008
   17.54055595  122.98300171    0.58999997    2.67000008
   17.54361153  118.07700348    0.61000001    2.67000008
   17.54444313  122.63099670    0.69000000    2.67000008
   17.54777718  124.98400116    0.70999998    2.67000008
   17.55083275  125.73100281    0.73000002    2.67000008
   17.55416679  126.70099640    0.79000002    2.66000009
   17.55722237  120.02100372    0.83999997    2.67000008
   17.56333351  120.02100372    0.94000000    2.67000008
   17.56750107  120.32800293    1.75000000    2.67000008
   17.57055664  123.26200104    4.07999992    2.67000008
   17.57389069  119.81199646    4.90999985    2.67000008
   17.57694626  130.87600708    4.90999985    2.57999992
   17.57750130  131.21699524    4.90999985    2.57999992
   17.58055687  125.80500031    4.90999985    2.59999990
   17.58388901  132.38900757    4.90999985    2.53999996
   17.58722305  131.55999756    4.90999985    2.53999996
   17.59027863  129.78399658    4.90999985    2.66000009
   17.59361267  137.05200195    4.90999985    2.59999990
   17.59666824  139.61399841    4.90999985    2.53999996
   17.60000038  118.16600037    4.90999985    2.25000000
   17.61027908   -1.00000000    4.90999985    0.23000000
   17.61388969   -1.00000000    4.90999985    0.11000000
   17.61694527   -1.00000000    4.90999985    0.03000000
   17.62027740   -1.00000000    4.80999994    0.01000000
   17.62361145   -1.00000000    4.90999985    0.01000000
   17.62666702   -1.00000000    4.90999985    0.01000000
   17.63000107   -1.00000000    4.90999985    0.01000000
   17.63333321   -1.00000000    4.90999985    0.01000000
   17.63638878   -1.00000000    4.90999985    0.01000000
   17.63972282   -1.00000000    4.90999985    0.01000000
   17.64277840   -1.00000000    4.90999985    0.01000000
   17.65305519   -1.00000000    4.90999985    0.01000000
   17.65611076   -1.00000000    4.90999985    0.01000000
   17.65944481   -1.00000000    4.90999985    0.01000000
   17.66277695   -1.00000000    4.90999985    0.01000000
   17.66583252   -1.00000000    4.90999985    0.01000000
   17.66916656   -1.00000000    4.90999985    0.01000000
   17.67249870   -1.00000000    4.90999985    0.01000000
   17.67555428   -1.00000000    4.90999985    0.01000000
   17.67916679   -1.00000000    4.90999985    0.03000000
   17.68222237   -1.00000000    4.90999985    0.03000000
   17.68555450   -1.00000000    4.90999985    0.03000000
   17.69583321   -1.00000000    4.90999985    0.19000000
   17.69916534   -1.00000000    4.90999985    0.34000000
   17.70222282   -1.00000000    4.90999985    0.80000001
   17.70555687   -1.00000000    4.90999985    0.73000002
   17.70888901   -1.00000000    4.90999985    1.05999994
   17.71250153   -1.00000000    4.90999985    1.28999996
   17.71555710  273.08898926    4.90999985    1.63000000
   17.71888924  126.99800110    4.90999985    2.51999998
   17.72222328  121.28600311    4.90999985    2.73000002
   17.72527885  131.13000488    4.90999985    2.67000008
   17.72861099  125.25599670    2.53999996    2.66000009
   17.73472214  125.25599670    4.90999985    2.69000006
   17.73861122   -1.00000000    4.90999985    0.70999998
   17.74194527  162.20899963    4.90999985    1.19000006
   17.74555588   -1.00000000    4.90999985    2.05999994
   17.74861145  185.44799805    4.90999985    0.70999998
   17.75194359  171.49499512    4.90999985    1.09000003
   17.75527763   -1.00000000    4.90999985    0.52999997
   17.75833321  137.67300415    4.90999985    2.55999994
   17.76166725  138.26100159    4.90999985    2.48000002
   17.76499939  171.30999756    4.90999985    2.53999996
   17.76805496   -1.00000000    4.90999985    2.71000004
   17.77138901   -1.00000000    4.90999985    0.61000001
   17.78166580   92.45880127    4.90999985    1.69000006
   17.78472137   -1.00000000    4.90999985    0.73000002
   17.78805542   -1.00000000    4.90999985    0.38000000
   17.79111099   -1.00000000    4.90999985    0.13000000
   17.79444313   -1.00000000    4.90999985    0.11000000
   17.79777718   -1.00000000    4.90999985    0.03000000
   17.80083275   23.57019997    4.90999985    0.28000000
   17.80416679   -1.00000000    4.90999985    1.78999996
   17.80749893   -1.00000000    4.90999985    0.92000002
   17.81055450   -1.00000000    4.90999985    0.40000001
   17.81416512   -1.00000000    4.90999985    0.17000000
   17.82444572   -1.00000000    4.90999985    0.40000001
   17.82750130  202.31900024    4.90999985    1.25000000
   17.83083344   -1.00000000    4.90999985    1.76999998
   17.83416748  143.25300598    4.90999985    1.48000002
   17.83722305   -1.00000000    4.90999985    1.48000002
   17.84055710   -1.00000000    4.90999985    0.25999999
   17.84388924   -1.00000000    4.90999985    0.20999999
   17.84722328   -1.00000000    4.90999985    0.25000000
   17.85055542   -1.00000000    4.90999985    0.36000001
   17.85388947   -1.00000000    4.90999985    0.55000001
   17.85694504   -1.00000000    4.90999985    0.81999999
   17.86722183   -1.00000000    4.90999985    1.46000004
   17.87055588   -1.00000000    4.90999985    0.51999998
   17.87361145  150.21800232    4.90999985    2.51999998
   17.87694550  130.59199524    4.90999985    2.69000006
   17.87777710  131.19000244    4.90999985    2.66000009
   17.88055611  132.30200195    4.90999985    2.69000006
   17.88388824  127.66000366    4.90999985    2.69000006
   17.88694382  124.07499695    1.69000006    2.69000006
   17.89027786  126.13300323    2.26999998    2.67000008
   17.89333344  132.13299561    4.90999985    2.69000006
   17.89666748   -1.00000000    4.90999985    2.13000011
   17.89999962  221.64300537    4.90999985    1.98000002
   17.90611076  221.64300537    4.90999985    0.83999997
   17.90999985  137.08000183    4.90999985    2.75000000
   17.91110992  136.04400635    4.90999985    2.73000002
   17.91388893  125.85299683    4.90999985    2.69000006
   17.91694450  138.78300476    3.23000002    2.69000006
   17.92027664  138.33099365    4.23999977    2.69000006
   17.92361069  140.44000244    4.90999985    2.67000008
   17.92666626  146.19299316    4.90999985    2.57999992
   17.93000031  137.32099915    4.90999985    2.59999990
   17.93305397  138.88900757    4.90999985    2.59999990
   17.93638802  144.06399536    4.90999985    2.64000010
   17.93972206  126.70300293    4.90999985    2.69000006
   17.94277763  168.88299561    4.90999985    2.00000000
   17.94444275  166.01100159    4.90999985    2.26999998
   17.95305634   -1.00000000    4.90999985    1.16999996
   17.95611191   -1.00000000    4.90999985    0.79000002
   17.95944595   -1.00000000    4.90999985    0.79000002
   17.96250153  236.04200745    4.90999985    1.11000001
   17.96583366  137.99699402    4.90999985    1.66999996
   17.96916771  240.86799622    4.90999985    1.69000006
   17.97249985  216.29100037    4.90999985    2.13000011
   17.97555542  176.79200745    4.90999985    2.46000004
   17.97777748  168.45599365    4.90999985    2.75000000
   17.97916794  165.70100403    4.90999985    2.75000000
   17.98222351  161.86500549    4.90999985    2.32999992
   17.98555565  154.95899963    4.90999985    2.64000010
   17.99166679  154.95899963    1.44000006    2.67000008
   17.99583435  155.02299500    1.34000003    2.66000009
   17.99916649  152.69999695    1.34000003    2.66000009
   18.00222206  149.60899353    1.26999998    2.64000010
   18.00555611  152.41400146    1.23000002    2.66000009
   18.00861168  165.42100525    1.16999996    2.66000009
   18.01111031  160.72700500    1.13000000    2.67000008
   18.01250076  161.49099731    1.14999998    2.66000009
   18.01555634  153.59800720    1.23000002    2.67000008
   18.01888847  147.73599243    1.39999998    2.67000008
   18.02222252  142.30599976    2.19000006    2.67000008
   18.02527809  161.12500000    4.90999985    2.69000006
   18.02861023  156.29400635    4.90999985    2.69000006
   18.03444481  156.29400635    4.90999985    1.61000001
   18.03861046  180.44900513    4.90999985    1.75000000
   18.04194450  144.72200012    4.90999985    2.78999996
   18.04444313  200.49299622    4.90999985    2.17000008
   18.04555511  165.73100281    4.90999985    1.86000001
   18.04861069  103.94400024    4.90999985    2.57999992
   18.05194283   -1.00000000    4.90999985    1.48000002
   18.05527687  218.18699646    4.90999985    1.73000002
   18.05833244  392.52700806    4.90999985    2.09999990
   18.06166649  220.24899292    4.90999985    2.00000000
   18.06472206  284.95098877    4.90999985    2.07999992
   18.06805611  189.05499268    4.90999985    2.00000000
   18.07139015  178.22300720    4.90999985    2.03999996
   18.07722282  178.22300720    4.90999985    2.51999998
   18.08139038  164.35699463    4.90999985    2.55999994
   18.08472252  157.80200195    4.90999985    2.71000004
   18.08805656  150.05299377    4.90999985    2.67000008
   18.09111214  164.22300720    0.98000002    2.67000008
   18.09444427  154.19299316    0.63000000    2.66000009
   18.09777832  165.91099548    0.63000000    2.66000009
   18.10083389  155.79800415    0.63000000    2.67000008
   18.10416794  158.26899719    0.63000000    2.66000009
   18.10722351  147.30999756    0.64999998    2.66000009
   18.11055565  160.13299561    0.69000000    2.66000009
   18.11222267  155.23500061    0.67000002    2.66000009
   18.11416626  164.61199951    0.67000002    2.66000009
   18.12027740  164.61199951    0.64999998    2.66000009
   18.12444496  139.29499817    0.64999998    2.66000009
   18.12750053  152.64300537    0.63000000    2.66000009
   18.13083267  163.70100403    0.63000000    2.66000009
   18.13416672  147.67500305    0.63000000    2.66000009
   18.13722229  140.33200073    0.63000000    2.67000008
   18.14055634  173.71400452    0.64999998    2.66000009
   18.14361191  147.46299744    0.64999998    2.66000009
   18.14555550  146.56399536    0.64999998    2.66000009
   18.14722252  158.24299622    0.64999998    2.66000009
   18.15055466  162.97200012    0.63000000    2.67000008
   18.15361023  138.47099304    0.63000000    2.66000009
   18.15694427  153.00300598    0.64999998    2.66000009
   18.16305542  153.00300598    0.63000000    2.66000009
   18.16749954  137.92799377    0.64999998    2.66000009
   18.17055511  145.18800354    0.64999998    2.66000009
   18.17388916  141.08999634    0.64999998    2.66000009
   18.17694473  124.74800110    0.64999998    2.66000009
   18.17916679  130.61599731    0.67000002    2.66000009
   18.18055534  135.31399536    0.67000002    2.66000009
   18.18388748  137.31399536    0.69000000    2.66000009
   18.18694305  133.50000000    0.69000000    2.66000009
   18.19027710  143.12600708    0.73000002    2.66000009
   18.19361115  127.55000305    0.73000002    2.66000009
   18.19666672  130.57099915    0.73000002    2.66000009
   18.20000076  127.07099915    0.75000000    2.66000009
   18.20583344  127.07099915    0.79000002    2.67000008
   18.21000099  116.72599792    0.76999998    2.67000008
   18.21250153  121.03299713    0.76999998    2.66000009
   18.21361160  126.39800262    0.76999998    2.66000009
   18.21694565  133.49899292    0.75000000    2.64000010
   18.22000122  121.76599884    0.75000000    2.66000009
   18.22333336  125.60600281    0.75000000    2.66000009
   18.22666740  134.32000732    0.76999998    2.66000009
   18.22972298  124.35399628    0.76999998    2.66000009
   18.23305511  124.27400208    0.79000002    2.66000009
   18.23611069  137.66799927    0.83999997    2.64000010
   18.23944473  130.83900452    1.34000003    2.66000009
   18.24277878  120.87200165    0.86000001    2.66000009
   18.24888992  120.87200165    0.89999998    2.66000009
   18.25277710  122.34600067    2.53999996    2.59999990
   18.25611115  130.88499451    2.39000010    2.66000009
   18.25944519  133.47799683    2.42000008    2.64000010
   18.26250076  119.34300232    1.78999996    2.66000009
   18.26583290  125.71600342    3.86999989    2.66000009
   18.26916695  118.50499725    3.01999998    2.66000009
   18.27222252  126.71299744    0.70999998    2.64000010
   18.27555466  119.46900177    0.75000000    2.66000009
   18.27861023  125.72200012    0.89999998    2.64000010
   18.27972221  128.34599304    1.94000006    2.66000009
   18.28222275  123.76300049    2.15000010    2.66000009
   18.28555489  138.39799500    3.18000007    2.59999990
   18.29166603  138.39799500    4.90999985    2.40000010
   18.29583359  121.50700378    4.90999985    2.66000009
   18.29916573  125.92099762    4.90999985    2.40000010
   18.30222130  157.09199524    4.90999985    2.21000004
   18.30555534  136.75799561    4.90999985    2.17000008
   18.30888748  155.34399414    4.90999985    2.13000011
   18.31194305  245.84399414    4.90999985    2.15000010
   18.31305504  182.00799561    4.90999985    1.64999998
   18.31555557  121.57299805    4.90999985    2.30999994
   18.31888962  122.12500000    4.90999985    2.69000006
   18.32222366  118.40100098    1.36000001    2.66000009
   18.32527924  118.81199646    0.80000001    2.66000009
   18.32861137  122.66799927    0.79000002    2.64000010
   18.33444595  122.66799927    0.76999998    2.66000009
   18.33861160  116.65899658    0.76999998    2.66000009
   18.34194565  117.12799835    0.76999998    2.66000009
   18.34500122  121.54299927    0.79000002    2.64000010
   18.34638977  119.04299927    0.79000002    2.64000010
   18.34861183  119.98600006    0.76999998    2.66000009
   18.35194397  115.12599945    0.76999998    2.66000009
   18.35499954  120.50499725    0.80000001    2.64000010
   18.35833359  116.61199951    0.80000001    2.66000009
   18.36166763  116.70300293    0.83999997    2.64000010
   18.36472321  115.11900330    0.92000002    2.64000010
   18.36805534  116.78199768    0.92000002    2.64000010
   18.37138939  119.38999939    0.89999998    2.66000009
   18.37722206  119.38999939    0.79000002    2.64000010
   18.39583397  122.44699860    0.81999999    2.66000009
   18.39888954  120.74600220    0.81999999    2.66000009
   18.40222168  116.86599731    0.81999999    2.66000009
   18.40527725  120.45400238    0.81999999    2.66000009
   18.40861130  123.18900299    0.81999999    2.64000010
   18.41194344  120.02300262    0.80000001    2.64000010
   18.41499901  121.27700043    0.81999999    2.64000010
   18.42027664  121.27700043    0.81999999    2.66000009
   18.42444420  118.85800171    0.80000001    2.64000010
   18.42777634  118.59899902    0.80000001    2.64000010
   18.42860985  118.21800232    0.80000001    2.64000010
   18.43138885  123.43499756    0.80000001    2.64000010
   18.43472099  119.36199951    0.80000001    2.66000009
   18.43777657  116.60800171    0.81999999    2.66000009
   18.44111061  119.30699921    0.81999999    2.66000009
   18.44444275  114.93900299    0.83999997    2.64000010
   18.44749832  118.36799622    0.83999997    2.64000010
   18.45083427  119.63800049    0.83999997    2.64000010
   18.45388985  113.90799713    0.92000002    2.66000009
   18.45722389  116.39099884    0.89999998    2.66000009
   18.46333504  116.39099884    0.83999997    2.66000009
   18.46722221  117.03500366    0.83999997    2.66000009
   18.47055626  119.25199890    0.83999997    2.64000010
   18.47389030  120.16000366    0.86000001    2.64000010
   18.47694588  115.62899780    0.86000001    2.64000010
   18.48027802  118.95899963    0.92000002    2.64000010
   18.48333359  118.57399750    1.07000005    2.66000009
   18.48666763  114.42299652    1.41999996    2.64000010
   18.48999977  117.32499695    1.69000006    2.64000010
   18.49305534  119.13999939    1.64999998    2.64000010
   18.49527740  122.17299652    1.66999996    2.64000010
   18.49666786  117.86599731    1.66999996    2.64000010
   18.50000000  120.22100067    1.50000000    2.64000010
   18.50611115  120.22100067    2.19000006    2.61999989
   18.51027870  116.86499786    2.28999996    2.64000010
   18.51333427  116.78500366    2.03999996    2.61999989
   18.51666641  119.50700378    2.05999994    2.61999989
   18.51972198  115.72200012    1.86000001    2.64000010
   18.52305603  115.42199707    1.75000000    2.61999989
   18.52638817  111.95400238    1.78999996    2.64000010
   18.52861023  115.32599640    1.78999996    2.64000010
   18.53000069  116.51300049    1.73000002    2.64000010
   18.53333282  120.09500122    3.95000005    2.64000010
   18.53638840  113.51999664    4.90999985    2.67000008
   18.53972244  364.25698853    4.90999985    2.73000002
   18.54305458  122.27700043    4.90999985    2.13000011
   18.54888916  122.27700043    3.93000007    2.67000008
   18.55305481  118.66100311    2.76999998    2.66000009
   18.55638885  120.11000061    1.33000004    2.64000010
   18.55944443  117.18299866    1.36000001    2.66000009
   18.56194305  122.18900299    1.28999996    2.66000009
   18.56305504  116.69999695    1.28999996    2.66000009
   18.56638718  119.70800018    1.07000005    2.64000010
   18.56972313  115.13800049    1.07000005    2.64000010
   18.57277870  117.59899902    1.09000003    2.64000010
   18.57611275  115.87300110    1.19000006    2.64000010
   18.57916832  121.77700043    4.90999985    2.73000002
   18.58250046   -1.00000000    4.90999985    2.55999994
   18.58583450   -1.00000000    4.90999985    0.81999999
   18.59166718   -1.00000000    4.90999985    1.66999996
   18.59583473  143.01499939    4.90999985    1.88000000
   18.59916687  123.82299805    4.90999985    2.59999990
   18.60222244  123.62899780    4.90999985    2.64000010
   18.60555649  122.57900238    4.90999985    2.61999989
   18.60861206  121.28500366    3.43000007    2.64000010
   18.61194420  124.27700043    4.90999985    2.67000008
   18.61527824  121.12500000    4.90999985    2.66000009
   18.61833382  122.15100098    4.90999985    2.67000008
   18.62166595  119.13200378    4.90999985    2.67000008
   18.62500000  119.73500061    4.90999985    2.67000008
   18.62805557  122.11000061    4.90999985    2.67000008
   18.62861061  121.28299713    4.90999985    2.67000008
   18.63444519  121.28299713    4.42999983    2.61999989
   18.63861084  121.43699646    1.86000001    2.64000010
   18.64194489  117.14900208    1.64999998    2.64000010
   18.64527702  119.03800201    1.11000001    2.64000010
   18.64833260  117.58799744    1.00000000    2.64000010
   18.65166664  115.68900299    1.07000005    2.64000010
   18.65472221  117.33399963    0.95999998    2.64000010
   18.65805435  116.17099762    0.94000000    2.66000009
   18.66138840  120.82700348    1.94000006    2.66000009
   18.66194344  119.64600372    1.98000002    2.64000010
   18.66499901  118.65599823    1.33000004    2.64000010
   18.66833305  121.45700073    1.33000004    2.64000010
   18.67138863  117.55699921    0.94000000    2.66000009
   18.67749977  117.55699921    3.41000009    2.66000009
   18.68138885  142.66400146    4.90999985    2.69000006
   18.68472099  115.83100128    4.90999985    2.53999996
   18.68805504  109.89299774    4.90999985    2.73000002
   18.69111061  111.54900360    4.90999985    2.48000002
   18.69444275  114.88600159    4.90999985    2.75000000
   18.69527626   93.55020142    4.90999985    2.80999994
   18.69805527   -1.00000000    4.90999985    1.96000004
   18.70138931   -1.00000000    4.90999985    1.01999998
   18.70444489   -1.00000000    4.90999985    0.30000001
   18.70777893   -1.00000000    4.90999985    0.15000001
   18.71111107   -1.00000000    4.90999985    0.17000000
   18.71416664   -1.00000000    4.90999985    0.34000000
   18.72444534   -1.00000000    4.90999985    0.13000000
   18.72750092   -1.00000000    4.90999985    0.17000000
   18.73111153   -1.00000000    4.90999985    0.31999999
   18.73416710   -1.00000000    4.90999985    0.23000000
   18.73750114  139.86099243    4.90999985    0.89999998
   18.74083328  123.95899963    4.90999985    2.61999989
   18.74388885  124.99700165    4.90999985    2.69000006
   18.74722290  122.44200134    4.90999985    2.71000004
   18.75055504  155.47399902    4.90999985    0.76999998
   18.75361061  122.50900269    4.90999985    2.67000008
   18.75694466  118.88099670    1.11000001    2.64000010
   18.76305580  118.88099670    3.76999998    2.64000010
   18.76722145  120.67199707    4.90999985    2.67000008
   18.77055550  141.06100464    4.90999985    2.71000004
   18.77361107   -1.00000000    4.90999985    1.76999998
   18.77694511   -1.00000000    4.90999985    0.38000000
   18.78000069  160.60699463    4.90999985    0.47999999
   18.78333282  124.77700043    4.90999985    1.94000006
   18.78666687  123.38700104    4.90999985    2.13000011
   18.78972244  120.39399719    4.90999985    2.66000009
   18.79305458  127.50299835    1.94000006    2.64000010
   18.79527664  119.06600189    3.21000004    2.64000010
   18.79666710  115.56999969    4.90999985    2.64000010
   18.79999924  134.85600281    4.90999985    2.61999989
   18.80583191  134.85600281    4.90999985    2.66000009
   18.80999947  173.03799438    4.90999985    2.39000010
   18.81333351  119.23100281    4.90999985    2.39000010
   18.81638718  122.97399902    4.90999985    2.64000010
   18.81972313  114.62500000    4.26000023    2.59999990
   18.82305717  119.08999634    3.23000002    2.55999994
   18.82611275  114.33300018    2.46000004    2.59999990
   18.82861137  114.60600281    2.55999994    2.61999989
   18.82972336  118.31400299    2.01999998    2.61999989
   18.83305550  118.53399658    1.13000000    2.61999989
   18.83611107  123.03900146    1.23000002    2.61999989
   18.83944511  120.73100281    1.46000004    2.61999989
   18.84277916  118.41799927    1.00000000    2.59999990
   18.84889030  118.41799927    1.05999994    2.59999990
   18.85277748  120.81400299    1.05999994    2.61999989
   18.85611153  119.43299866    1.05999994    2.64000010
   18.85944557  117.02700043    1.01999998    2.61999989
   18.86194420  121.91899872    1.01999998    2.61999989
   18.86305618  118.91100311    1.01999998    2.61999989
   18.86638832  118.42500305    1.03999996    2.61999989
   18.86944389  122.33999634    1.03999996    2.61999989
   18.87277794  124.15200043    1.05999994    2.59999990
   18.87611198  120.03299713    1.05999994    2.61999989
   18.87916756  117.76899719    1.07000005    2.61999989
   18.88249969  118.00299835    1.11000001    2.59999990
   18.88555527  119.57599640    1.19000006    2.61999989
   18.89166641  119.57599640    1.30999994    2.61999989
   18.89583397  116.84400177    1.25000000    2.61999989
   18.89888954  114.48300171    1.25000000    2.61999989
   18.90222168  115.51200104    1.25000000    2.61999989
   18.90555573  118.72699738    1.23000002    2.61999989
   18.90861130  121.61199951    1.23000002    2.61999989
   18.91194344  121.60099792    1.34000003    2.61999989
   18.91527748  123.82499695    1.60000002    2.61999989
   18.91833305  119.26799774    1.60000002    2.61999989
   18.92166519  120.80200195    1.80999994    2.61999989
   18.92472076  123.92700195    1.89999998    2.61999989
   18.92805481  122.29299927    1.80999994    2.61999989
   18.92888832  124.64900208    1.80999994    2.61999989
   18.93444443  124.64900208    1.48000002    2.61999989
   18.93861008  122.41200256    1.44000006    2.59999990
   18.94194412  122.48899841    1.44000006    2.61999989
   18.94499969  118.01599884    1.53999996    2.61999989
   18.94833183  122.65499878    2.21000004    2.61999989
   18.95138931  122.78600311    2.25000000    2.61999989
   18.95472336  123.13899994    2.07999992    2.61999989
   18.95805550  119.32299805    1.69000006    2.61999989
   18.96111107  122.56999969    1.48000002    2.61999989
   18.96222305  120.46900177    1.41999996    2.61999989
   18.96472359  125.69999695    1.39999998    2.61999989
   18.96805573  123.28700256    1.39999998    2.61999989
   18.97111130  122.54699707    1.39999998    2.61999989
   18.97722244  122.54699707    4.05999994    2.61999989
   18.98139000  121.84999847    3.99000001    2.61999989
   18.98472214  119.95600128    4.13999987    2.57999992
   18.98777771  121.74500275    4.11999989    2.59999990
   18.99111176  123.70899963    4.32999992    2.59999990
   18.99444389  120.50900269    3.91000009    2.61999989
   18.99555588  122.30599976    3.28999996    2.61999989
   18.99777794  119.11299896    2.80999994    2.61999989
   19.00111198  125.16300201    2.86999989    2.61999989
   19.00416756  121.07099915    2.21000004    2.59999990
   19.00749969  121.39700317    2.13000011    2.61999989
   19.01083374  128.67599487    2.17000008    2.61999989
   19.01388931  120.33399963    2.07999992    2.59999990
   19.02027702  120.33399963    1.53999996    2.59999990
   19.02416611  119.84600067    1.46000004    2.59999990
   19.02750015  120.81800079    1.21000004    2.59999990
   19.02888870  118.26100159    1.14999998    2.59999990
   19.03111076  121.94300079    1.09000003    2.59999990
   19.03444481  121.04299927    1.03999996    2.59999990
   19.03750038  124.88400269    1.01999998    2.59999990
   19.04083252  118.38300323    1.03999996    2.59999990
   19.04416656  119.07399750    1.13000000    2.59999990
   19.04722214  114.63800049    1.16999996    2.59999990
   19.05055428  118.18800354    1.16999996    2.61999989
   19.05388832  116.80400085    1.14999998    2.61999989
   19.05694389  120.81800079    1.13000000    2.61999989
   19.06305504  120.81800079    1.11000001    2.61999989
   19.06722260  144.90299988    4.90999985    2.69000006
   19.07027817   -1.00000000    4.90999985    2.07999992
   19.07361221   -1.00000000    4.90999985    0.11000000
   19.07694626   -1.00000000    4.90999985    0.09000000
   19.08000183   -1.00000000    4.90999985    0.11000000
   19.08333397   -1.00000000    4.90999985    0.30000001
   19.08638954   -1.00000000    4.90999985    0.23000000
   19.08972359   -1.00000000    4.90999985    0.17000000
   19.09305573   -1.00000000    4.90999985    0.36000001
   19.09638977   -1.00000000    4.90999985    0.34000000
   19.09972191   -1.00000000    4.90999985    0.17000000
   19.11000061   -1.00000000    4.90999985    0.41999999
   19.11305618   -1.00000000    4.90999985    0.73000002
   19.11638832  167.57699585    4.90999985    1.09000003
   19.11972237  110.99500275    4.90999985    2.42000008
   19.12277794  137.23100281    4.90999985    2.00000000
   19.12611198  128.28100586    4.90999985    1.96000004
   19.12888908  133.22599792    4.90999985    2.61999989
   19.12972260  131.56799316    4.90999985    2.61999989
   19.13305473  133.48300171    4.90999985    2.61999989
   19.13611031  121.56400299    4.90999985    2.39000010
   19.13944435  126.17299652    4.90999985    2.40000010
   19.14277840  124.34100342    4.90999985    2.55999994
   19.14861107  124.34100342    1.46000004    2.57999992
   19.15277672  129.04600525    1.28999996    2.59999990
   19.15611076  131.27600098    1.21000004    2.57999992
   19.15916634  125.71800232    1.38000000    2.57999992
   19.16222191  128.86300659    2.32999992    2.57999992
   19.16277695  126.47299957    2.53999996    2.57999992
   19.16611099  124.98100281    3.14000010    2.59999990
   19.16916656  122.24600220    3.14000010    2.59999990
   19.17249870  126.75199890    4.23999977    2.55999994
   19.17583275  126.31800079    3.86999989    2.57999992
   19.17888832  127.30400085    3.86999989    2.57999992
   19.18222237  125.01000214    3.82999992    2.57999992
   19.18555450  122.98999786    3.30999994    2.57999992
   19.19166565  122.98999786    1.89999998    2.59999990
   19.19555473  127.77300262    1.80999994    2.59999990
   19.19888878  126.73999786    2.01999998    2.57999992
   19.20222282  124.55699921    3.01999998    2.57999992
   19.20527840  139.03700256    4.63999987    2.59999990
   19.20861244  140.89399719    4.90999985    2.44000006
   19.21194458  160.80999756    4.90999985    2.39000010
   19.21500015  142.51600647    4.90999985    2.46000004
   19.21833420  138.66700745    4.90999985    2.32999992
   19.22138977  136.53900146    4.90999985    2.50000000
   19.22472191  132.02600098    4.90999985    2.53999996
   19.22805595  139.57200623    4.90999985    2.57999992
   19.22888947  135.62399292    4.90999985    2.50000000
   19.23444557  135.62399292    4.90999985    2.59999990
   19.23861122  129.39700317    4.90999985    2.66000009
   19.24166679  127.26300049    4.90999985    2.64000010
   19.24500084  132.12699890    4.90999985    2.61999989
   19.24833298  130.68699646    4.90999985    2.61999989
   19.25138855  129.58399963    4.90999985    2.61999989
   19.25472260  135.64599609    3.91000009    2.57999992
   19.25777817  128.65499878    4.90999985    2.53999996
   19.26111031  131.90699768    4.90999985    2.51999998
   19.26222229  127.11599731    4.90999985    2.53999996
   19.26472282  127.70999908    4.90999985    2.51999998
   19.26805496  131.44599915    4.90999985    2.53999996
   19.27138901  126.43800354    4.90999985    2.53999996
   19.27722168  126.43800354    4.57999992    2.55999994
   19.28138924  128.93699646    3.91000009    2.53999996
   19.28472137  122.81199646    4.36999989    2.55999994
   19.28777695  123.57199860    4.90999985    2.55999994
   19.29111099  125.05699921    4.90999985    2.55999994
   19.29416656  126.57900238    4.90999985    2.53999996
   19.29555511  123.43399811    4.90999985    2.53999996
   19.29777718  126.05100250    4.90999985    2.51999998
   19.30111122  132.63499451    4.90999985    2.51999998
   19.30444336  128.97200012    4.90999985    2.51999998
   19.30749893  143.24899292    4.90999985    2.48000002
   19.31083298  141.91900635    4.90999985    2.48000002
   19.31388855  128.27000427    4.90999985    2.53999996
   19.32000160  128.27000427    4.90999985    2.51999998
   19.32416725  129.47200012    4.90999985    2.50000000
   19.32750130  122.79599762    4.90999985    2.53999996
   19.32888985  126.84999847    4.90999985    2.53999996
   19.33083344  125.13099670    4.90999985    2.55999994
   19.33416748  122.51000214    4.90999985    2.50000000
   19.33750153  122.38200378    4.90999985    2.51999998
   19.34055710  124.27999878    4.90999985    2.53999996
   19.34388924  124.33699799    4.90999985    2.55999994
   19.34694481  122.32399750    4.57999992    2.55999994
   19.35027885  126.81199646    4.51000023    2.50000000
   19.35361099  127.33100128    4.90999985    2.46000004
   19.35666656  122.31999969    4.90999985    2.53999996
   19.36305618  122.31999969    4.90999985    2.55999994
   19.36694527  127.10600281    4.90999985    2.55999994
   19.37027740  133.46099854    4.90999985    2.53999996
   19.37361145  200.38099670    4.90999985    2.34999990
   19.37666702  281.92199707    4.90999985    1.91999996
   19.38000107  242.35000610    4.90999985    1.75000000
   19.38333321  134.91200256    4.90999985    2.21000004
   19.38638878  138.94400024    4.90999985    2.17000008
   19.38972282   -1.00000000    4.90999985    1.94000006
   19.39277840   -1.00000000    4.90999985    0.89999998
   19.42000008   -1.00000000    4.90999985    0.52999997
   19.42333221   -1.00000000    4.90999985    0.52999997
   19.42666626   -1.00000000    4.90999985    0.38000000
   19.43000031   -1.00000000    4.90999985    0.34000000
   19.43333244   -1.00000000    4.90999985    0.52999997
   19.43638802   -1.00000000    4.90999985    0.70999998
   19.43972206   -1.00000000    4.90999985    1.50000000
   19.44305420  158.02799988    4.90999985    1.60000002
   19.44610977  130.94500732    4.90999985    2.46000004
   19.44944382  131.16700745    4.90999985    2.50000000
   19.45277786  121.82800293    4.90999985    2.42000008
   19.45888901  121.82800293    4.90999985    2.51999998
   19.46277809  127.85099792    4.90999985    2.50000000
   19.46611214  123.38300323    4.90999985    2.50000000
   19.46944427  133.55700684    4.90999985    2.36999989
   19.47249985  134.90499878    4.90999985    2.42000008
   19.47583389  121.50399780    4.90999985    2.51999998
   19.47916794  130.74299622    4.90999985    2.51999998
   19.48222351  130.18400574    4.90999985    2.40000010
   19.48555565  132.27299500    4.90999985    2.39000010
   19.48888969  148.55200195    4.90999985    2.48000002
   19.49194527  185.04299927    4.90999985    2.25000000
   19.49527740  126.83300018    4.90999985    2.30999994
   19.49583435  118.48899841    4.90999985    2.30999994
   19.50166702  118.48899841    4.90999985    2.11999989
   19.50583267  144.07600403    4.90999985    2.25000000
   19.50888824  146.44799805    4.90999985    2.42000008
   19.51222229  124.00000000    4.90999985    2.30999994
   19.51555634  204.77000427    4.90999985    2.34999990
   19.51861000  129.40800476    4.90999985    1.66999996
   19.52194405   98.13069916    4.90999985    2.34999990
   19.52499962  241.39900208    4.90999985    1.46000004
   19.52833366  182.16999817    4.90999985    2.05999994
   19.52916718  149.52699280    4.90999985    2.03999996
   19.53194427  141.47799683    4.90999985    2.25000000
   19.53527641  149.39100647    4.90999985    2.05999994
   19.53861046  173.09700012    4.90999985    2.19000006
   19.54444313  173.09700012    4.90999985    2.32999992
   19.54861069  133.88999939    4.90999985    2.25000000
   19.55194283  136.43099976    4.90999985    2.44000006
   19.55499840  134.43200684    4.90999985    2.44000006
   19.55833244  213.17999268    4.90999985    2.25000000
   19.56138802   -1.00000000    4.90999985    1.07000005
   19.56499863   -1.00000000    4.90999985    0.40000001
   19.56833458   -1.00000000    4.90999985    0.28000000
   19.57139015   -1.00000000    4.90999985    0.15000001
   19.57472229   -1.00000000    4.90999985    0.34000000
   19.57805634  209.32000732    4.90999985    1.09000003
   19.58111191  163.44299316    4.90999985    2.13000011
   19.58722305  163.44299316    4.90999985    2.13000011
   19.59138870  201.23800659    4.90999985    1.66999996
   19.59472275   -1.00000000    4.90999985    1.58000004
   19.59805679   -1.00000000    4.90999985    0.25000000
   19.60138893   -1.00000000    4.90999985    0.38000000
   19.60444450   -1.00000000    4.90999985    0.44000000
   19.60777855   -1.00000000    4.90999985    0.83999997
   19.61111069  108.19699860    4.90999985    1.39999998
   19.61416626   -1.00000000    4.90999985    1.63000000
   19.61750031   -1.00000000    4.90999985    0.73000002
   19.62083435   -1.00000000    4.90999985    1.28999996
   19.62388992   -1.00000000    4.90999985    1.14999998
   19.63027763   -1.00000000    4.90999985    1.55999994
   19.63416672   -1.00000000    4.90999985    1.44000006
   19.63750076   -1.00000000    4.90999985    0.63000000
   19.64083290   -1.00000000    4.90999985    0.34000000
   19.64388847   -1.00000000    4.90999985    0.41999999
   19.64722252   -1.00000000    4.90999985    0.28000000
   19.65055466   -1.00000000    4.90999985    0.34000000
   19.65361023   -1.00000000    4.90999985    0.36000001
   19.65694427   -1.00000000    4.90999985    0.46000001
   19.65999985   -1.00000000    4.90999985    0.64999998
   19.66361046   -1.00000000    4.90999985    0.86000001
   19.66694450   -1.00000000    4.90999985    0.83999997
   19.67722130   -1.00000000    4.90999985    1.23000002
   19.68027687   -1.00000000    4.90999985    0.50000000
   19.68361092   -1.00000000    4.90999985    0.34000000
   19.68666649   -1.00000000    4.90999985    0.31999999
   19.68999863   -1.00000000    4.90999985    0.40000001
   19.69333267   -1.00000000    4.90999985    0.81999999
   19.69666672   -1.00000000    4.90999985    0.52999997
   19.70000076   -1.00000000    4.90999985    0.73000002
   19.70305634   -1.00000000    4.90999985    0.56999999
   19.70639038   -1.00000000    4.90999985    0.58999997
   19.70972252   -1.00000000    4.90999985    0.50000000
   19.72000122   -1.00000000    4.90999985    0.31999999
   19.72305679   -1.00000000    4.90999985    0.25000000
   19.72638893   -1.00000000    4.90999985    0.13000000
   19.73000145   -1.00000000    4.90999985    0.05000000
   19.73333359   -1.00000000    4.90999985    0.01000000
   19.73638916   -1.00000000    4.73999977    0.01000000
   19.73972321   -1.00000000    4.73999977    0.01000000
   19.74305534   -1.00000000    4.73999977    0.01000000
   19.74611092   -1.00000000    4.90999985    0.01000000
   19.74944496   -1.00000000    4.90999985    0.05000000
   19.75277710   -1.00000000    4.90999985    0.17000000
   19.76277733   -1.00000000    4.90999985    0.17000000
   19.76611137   -1.00000000    4.90999985    0.11000000
   19.76916695   -1.00000000    4.90999985    0.09000000
   19.77249908   -1.00000000    4.90999985    0.07000000
   19.77583313   -1.00000000    4.90999985    0.07000000
   19.77888870   -1.00000000    4.90999985    0.05000000
   19.78222275   -1.00000000    4.90999985    0.05000000
   19.78527641   -1.00000000    4.90999985    0.03000000
   19.78861046   -1.00000000    4.90999985    0.01000000
   19.79194450   -1.00000000    4.90999985    0.01000000
   19.79500008   -1.00000000    4.90999985    0.09000000
   19.80555534   -1.00000000    4.90999985    0.05000000
   19.80888748   -1.00000000    4.90999985    0.07000000
   19.81222153   -1.00000000    4.90999985    0.07000000
   19.81527710   -1.00000000    4.90999985    0.07000000
   19.81861115   -1.00000000    4.90999985    0.09000000
   19.82166672   -1.00000000    4.90999985    0.05000000
   19.82500076   -1.00000000    4.90999985    0.03000000
   19.82833481   -1.00000000    4.90999985    0.01000000
   19.83166695   -1.00000000    4.90999985    0.01000000
   19.83500099   -1.00000000    4.90999985    0.01000000
   19.83833313   -1.00000000    4.90999985    0.01000000
   19.84861183   -1.00000000    4.90999985    0.01000000
   19.85166740   -1.00000000    4.90999985    0.01000000
   19.85499954   -1.00000000    4.90999985    0.01000000
   19.85805511   -1.00000000    4.90999985    0.01000000
   19.86138916   -1.00000000    4.90999985    0.01000000
   19.86472321   -1.00000000    4.90999985    0.01000000
   19.86805534   -1.00000000    4.90999985    0.01000000
   19.87138939   -1.00000000    4.90999985    0.01000000
   19.87444496   -1.00000000    4.90999985    0.01000000
   19.87777710   -1.00000000    4.90999985    0.01000000
   19.88083267   -1.00000000    4.90999985    0.01000000
   19.89138794   -1.00000000    4.90999985    0.01000000
   19.89444351   -1.00000000    4.90999985    0.01000000
   19.89805603   -1.00000000    4.90999985    0.01000000
   19.90138817   -1.00000000    4.90999985    0.01000000
   19.90472221   -1.00000000    4.90999985    0.01000000
   19.90777779   -1.00000000    4.90999985    0.01000000
   19.91110992   -1.00000000    4.05999994    0.01000000
   19.91416550   -1.00000000    4.90999985    0.03000000
   19.91749954   -1.00000000    4.90999985    0.03000000
   19.92083359   -1.00000000    4.90999985    0.05000000
   19.92388916   -1.00000000    4.90999985    0.03000000
   19.93416595   -1.00000000    4.90999985    0.01000000
   19.93750000   -1.00000000    4.90999985    0.01000000
   19.94055557   -1.00000000    4.90999985    0.01000000
   19.94388771   -1.00000000    4.90999985    0.01000000
   19.94722176   -1.00000000    4.90999985    0.01000000
   19.95027924   -1.00000000    4.90999985    0.01000000
   19.95361137   -1.00000000    4.90999985    0.01000000
   19.95666695   -1.00000000    4.90999985    0.01000000
   19.96000099   -1.00000000    4.90999985    0.01000000
   19.96333504   -1.00000000    4.90999985    0.01000000
   19.96666718   -1.00000000    4.90999985    0.01000000
   19.97694588   -1.00000000    4.90999985    0.03000000
   19.98027802   -1.00000000    4.90999985    0.05000000
   19.98361206   -1.00000000    4.90999985    0.07000000
   19.98666763   -1.00000000    4.90999985    0.07000000
   19.98999977   -1.00000000    4.90999985    0.11000000
   19.99305534   -1.00000000    4.90999985    0.17000000
   19.99666786   -1.00000000    4.90999985    0.19000000
   20.00000000   -1.00000000    4.90999985    0.20999999
   20.00333405   -1.00000000    4.90999985    0.25999999
   20.00638962   -1.00000000    4.90999985    0.25999999
   20.00972176   -1.00000000    4.90999985    0.23000000
   20.02000046   -1.00000000    4.90999985    0.28000000
   20.02305603   -1.00000000    4.90999985    0.30000001
   20.02638817   -1.00000000    4.90999985    0.38000000
   20.02972221   -1.00000000    4.90999985    0.30000001
   20.03305435   -1.00000000    4.90999985    0.36000001
   20.03638840   -1.00000000    4.90999985    0.31999999
   20.03944397   -1.00000000    4.90999985    0.34000000
   20.04277802   -1.00000000    4.90999985    0.31999999
   20.04583359   -1.00000000    4.90999985    0.23000000
   20.04916573   -1.00000000    4.90999985    0.23000000
   20.05249977   -1.00000000    4.90999985    0.25999999
   20.06277657   -1.00000000    4.90999985    0.38000000
   20.06583214   -1.00000000    4.90999985    0.40000001
   20.06916809   -1.00000000    4.90999985    0.61000001
   20.07250023   -1.00000000    4.90999985    0.44000000
   20.07555580   -1.00000000    4.90999985    0.55000001
   20.07888985   -1.00000000    4.90999985    0.88000000
   20.08222389   -1.00000000    4.90999985    0.95999998
   20.08527756   -1.00000000    4.90999985    0.73000002
   20.08861160   -1.00000000    4.90999985    1.98000002
   20.09166718   -1.00000000    4.90999985    2.09999990
   20.09500122   -1.00000000    4.90999985    2.28999996
   20.10555649   -1.00000000    4.90999985    1.96000004
   20.10888863   -1.00000000    4.90999985    2.03999996
   20.11194420   -1.00000000    4.90999985    1.83000004
   20.11527824   -1.00000000    4.90999985    0.55000001
   20.11861038   -1.00000000    4.90999985    0.44000000
   20.12166595   -1.00000000    4.90999985    0.13000000
   20.12500000   -1.00000000    4.90999985    0.05000000
   20.12805557   -1.00000000    4.90999985    0.03000000
   20.13166618   -1.00000000    4.90999985    0.01000000
   20.13500023   -1.00000000    4.90999985    0.01000000
   20.13833237   -1.00000000    4.84999990    0.01000000
   20.14833260   -1.00000000    4.90999985    0.11000000
   20.15166664   -1.00000000    4.90999985    0.13000000
   20.15499878   -1.00000000    4.90999985    0.63000000
   20.15805435   -1.00000000    4.90999985    0.46000001
   20.16138840   -1.00000000    4.90999985    0.44000000
   20.16472244   -1.00000000    4.90999985    1.01999998
   20.16805458   -1.00000000    4.90999985    0.67000002
   20.17138863   -1.00000000    4.90999985    0.63000000
   20.17444420   -1.00000000    4.90999985    1.55999994
   20.17777634   -1.00000000    4.90999985    0.36000001
   20.18111038   -1.00000000    4.90999985    0.13000000
   20.19138718   -1.00000000    4.90999985    0.11000000
   20.19444275   -1.00000000    4.90999985    0.17000000
   20.19777679   -1.00000000    4.90999985    0.46000001
   20.20111275   -1.00000000    4.90999985    0.30000001
   20.20444489   -1.00000000    4.90999985    0.23000000
   20.20750046   -1.00000000    4.90999985    0.20999999
   20.21083450   -1.00000000    4.90999985    0.50000000
   20.21416664   -1.00000000    4.90999985    0.61000001
   20.21722221   -1.00000000    4.90999985    0.95999998
   20.22055626   -1.00000000    4.90999985    1.07000005
   20.22361183   -1.00000000    4.90999985    1.07000005
   20.23416710   -1.00000000    4.90999985    0.50000000
   20.23722267   -1.00000000    4.90999985    0.17000000
   20.24055672   -1.00000000    4.90999985    0.11000000
   20.24388885   -1.00000000    4.90999985    0.09000000
   20.24694443   -1.00000000    4.90999985    0.07000000
   20.25027847   -1.00000000    4.90999985    0.05000000
   20.25361061   -1.00000000    4.90999985    0.03000000
   20.25666618   -1.00000000    4.90999985    0.03000000
   20.26000023   -1.00000000    4.90999985    0.03000000
   20.26333427   -1.00000000    4.90999985    0.03000000
   20.26666641   -1.00000000    4.90999985    0.05000000
   20.27694511   -1.00000000    4.90999985    0.31999999
   20.28027725   -1.00000000    4.90999985    0.38000000
   20.28333282   -1.00000000    4.90999985    0.61000001
   20.28666687   -1.00000000    4.90999985    0.88000000
   20.28999901   -1.00000000    4.90999985    0.69000000
   20.29305458   -1.00000000    4.90999985    0.70999998
   20.29638863   -1.00000000    4.90999985    0.79000002
   20.29972076   -1.00000000    4.90999985    0.70999998
   20.30305481   -1.00000000    4.90999985    0.88000000
   20.30611038   -1.00000000    4.90999985    0.13000000
   20.30944443   -1.00000000    4.90999985    0.09000000
   20.31972313   -1.00000000    4.90999985    0.44000000
   20.32305717   -1.00000000    4.90999985    0.50000000
   20.32638931   -1.00000000    4.90999985    0.61000001
   20.33000183   -1.00000000    4.90999985    0.63000000
   20.33305550   -1.00000000    4.90999985    0.69000000
   20.33638954   -1.00000000    4.90999985    0.56999999
   20.33944511   -1.00000000    4.90999985    0.46000001
   20.34277916   -1.00000000    4.90999985    0.40000001
   20.34611130   -1.00000000    4.90999985    0.40000001
   20.34916687   -1.00000000    4.90999985    0.61000001
   20.35250092   -1.00000000    4.90999985    0.75000000
   20.36277771   -1.00000000    4.90999985    1.19000006
   20.36583328   -1.00000000    4.90999985    0.88000000
   20.36916733   -1.00000000    4.90999985    1.11000001
   20.37222290   -1.00000000    4.90999985    0.86000001
   20.37555504   -1.00000000    4.90999985    1.30999994
   20.37888908   -1.00000000    4.90999985    1.01999998
   20.38194466   -1.00000000    4.90999985    1.30999994
   20.38527679   -1.00000000    4.90999985    0.79000002
   20.38861084   -1.00000000    4.90999985    0.28000000
   20.39166641   -1.00000000    4.90999985    0.25000000
   20.39500046   -1.00000000    4.90999985    0.11000000
   20.40555573   -1.00000000    4.90999985    0.13000000
   20.40861130   -1.00000000    4.90999985    0.11000000
   20.41194344   -1.00000000    4.90999985    0.11000000
   20.43166542   -1.00000000    4.90999985    0.51999998
   20.43499947   -1.00000000    4.90999985    0.67000002
   20.43833160   -1.00000000    4.90999985    0.76999998
   20.44833183   -1.00000000    4.90999985    1.48000002
   20.45166779   -1.00000000    4.90999985    1.36000001
   20.45499992   -1.00000000    4.90999985    1.14999998
   20.45805550   -1.00000000    4.90999985    0.98000002
   20.46138954   -1.00000000    4.90999985    1.03999996
   20.46500015   -1.00000000    4.90999985    1.38000000
   20.46833420   -1.00000000    4.90999985    1.89999998
   20.47138977   -1.00000000    4.90999985    2.09999990
   20.47472191   -1.00000000    4.90999985    1.19000006
   20.47805595   -1.00000000    4.90999985    0.46000001
   20.48111153   -1.00000000    4.90999985    0.15000001
   20.49138832   -1.00000000    4.90999985    0.20999999
   20.49444389   -1.00000000    4.90999985    0.23000000
   20.49805641   -1.00000000    4.90999985    0.15000001
   20.50138855   -1.00000000    4.90999985    0.13000000
   20.50444412   -1.00000000    4.90999985    0.11000000
   20.50777817   -1.00000000    4.90999985    0.11000000
   20.51111031   -1.00000000    4.90999985    0.20999999
   20.51416588   -1.00000000    4.90999985    0.25000000
   20.51749992   -1.00000000    4.90999985    0.41999999
   20.52083397   -1.00000000    4.90999985    0.25999999
   20.52388954   -1.00000000    4.90999985    0.11000000
   20.53416634   -1.00000000    4.90999985    0.25000000
   20.53750038   -1.00000000    4.90999985    0.40000001
   20.54055595   -1.00000000    4.90999985    0.61000001
   20.54388809   -1.00000000    4.90999985    1.13000000
   20.54694366   -1.00000000    4.90999985    0.86000001
   20.55027771   -1.00000000    4.90999985    1.16999996
   20.55360985   -1.00000000    4.90999985    1.83000004
   20.55666542   -1.00000000    4.90999985    2.21000004
   20.55999947   -1.00000000    4.90999985    2.13000011
   20.56361008   -1.00000000    4.90999985    1.88000000
   20.56694603   -1.00000000    4.90999985    1.86000001
   20.57694626   -1.00000000    4.90999985    1.50000000
   20.58027840   -1.00000000    4.90999985    1.53999996
   20.58333397   -1.00000000    4.90999985    1.39999998
   20.58666801   -1.00000000    4.90999985    0.86000001
   20.59000015   -1.00000000    4.90999985    0.70999998
   20.59305573   -1.00000000    4.90999985    0.17000000
   20.59666824   -1.00000000    4.90999985    0.13000000
   20.60000038   -1.00000000    4.90999985    0.05000000
   20.60305595   -1.00000000    4.90999985    0.03000000
   20.60639000   -1.00000000    4.90999985    0.03000000
   20.60972214   -1.00000000    4.90999985    0.03000000
   20.61972237   -1.00000000    4.90999985    0.03000000
   20.62305641   -1.00000000    4.90999985    0.03000000
   20.62638855   -1.00000000    4.90999985    0.01000000
   20.62972260   -1.00000000    4.90999985    0.17000000
   20.63305473   -1.00000000    4.90999985    0.17000000
   20.63611031   -1.00000000    4.90999985    0.17000000
   20.63944435   -1.00000000    4.90999985    0.23000000
   20.64277840   -1.00000000    4.90999985    0.23000000
   20.64583397   -1.00000000    4.90999985    0.41999999
   20.64916611   -1.00000000    4.90999985    0.38000000
   20.65250015   -1.00000000    4.90999985    0.38000000
   20.66305542   -1.00000000    4.90999985    0.50000000
   20.66638756   -1.00000000    4.90999985    0.50000000
   20.66944313   -1.00000000    4.90999985    0.30000001
   20.67277718   -1.00000000    4.90999985    0.13000000
   20.67611122   -1.00000000    4.90999985    0.13000000
   20.67916679   -1.00000000    4.90999985    1.75000000
   20.68249893   -1.00000000    4.90999985    1.75000000
   20.68583298   -1.00000000    4.90999985    1.75000000
   20.68888855   -1.00000000    4.90999985    1.75000000
   20.69222069   -1.00000000    4.90999985    1.75000000
   20.69527626   -1.00000000    4.90999985    1.91999996
   20.70555687   -1.00000000    4.90999985    2.05999994
   20.70888901   -1.00000000    4.90999985    2.05999994
   20.71194458   -1.00000000    4.90999985    2.15000010
   20.71527863   -1.00000000    4.90999985    2.13000011
   20.71833420   -1.00000000    4.90999985    2.13000011
   20.72166634   -1.00000000    4.90999985    2.13000011
   20.72500038   -1.00000000    4.90999985    2.13000011
   20.72805595   -1.00000000    4.90999985    2.13000011
   20.73166656   -1.00000000    4.90999985    2.03999996
   20.73500061   -1.00000000    4.90999985    2.03999996
   20.73833275   -1.00000000    4.90999985    2.03999996
   20.74833298   -1.00000000    4.90999985    1.51999998
   20.75166702   -1.00000000    4.90999985    1.55999994
   20.75472260   -1.00000000    4.90999985    1.55999994
   20.75805473   -1.00000000    4.90999985    1.55999994
   20.76138878   -1.00000000    4.90999985    2.00000000
   20.76472282   -1.00000000    4.90999985    1.96000004
