    HOUR (UT)   FLARE FACTOR    SKY TESTER    SUN TESTER
   12.21666622   -1.00000000   -1.00000000   -1.00000000
   12.29027843  143.74899292    2.01999998    1.71000004
   12.29361153  148.67100525    2.03999996    1.71000004
   12.29666710  150.46099854    2.03999996    1.73000002
   12.30000019  140.91600037    2.03999996    1.73000002
   12.30305576  138.28700256    2.05999994    1.73000002
   12.30638885  146.74699402    2.05999994    1.73000002
   12.31055546  146.74699402    2.05999994    1.75000000
   12.31472206  137.96699524    2.05999994    1.75000000
   12.31805515  142.54299927    2.05999994    1.76999998
   12.32111073  144.61500549    2.05999994    1.76999998
   12.32361126  140.17700195    2.03999996    1.76999998
   12.32499981  141.94400024    2.03999996    1.76999998
   12.32805538  152.43099976    2.05999994    1.76999998
   12.33138847  150.46499634    2.03999996    1.76999998
   12.33444405  140.78999329    2.03999996    1.76999998
   12.33777714  137.66099548    2.03999996    1.76999998
   12.34111118  142.44799805    2.03999996    1.78999996
   12.34416676  138.42999268    2.03999996    1.78999996
   12.34749985  137.92900085    2.01999998    1.78999996
   12.35333347  137.92900085    2.01999998    1.78999996
   12.35750008  132.88000488    2.00000000    1.78999996
   12.36083412  142.17900085    2.00000000    1.78999996
   12.36416721  139.49400330    2.00000000    1.80999994
   12.36722279  132.78300476    1.98000002    1.78999996
   12.37055588  141.24000549    1.98000002    1.78999996
   12.37388897  137.24400330    1.98000002    1.78999996
   12.37694454  138.13499451    1.96000004    1.78999996
   12.38027763  142.05900574    1.94000006    1.80999994
   12.38361073  138.25300598    1.94000006    1.80999994
   12.38666630  137.18899536    1.94000006    1.80999994
   12.39000034  150.93800354    1.94000006    1.80999994
   12.39055538  131.10499573    1.94000006    1.80999994
   12.39638901  131.10499573    1.91999996    1.83000004
   12.40027714  133.46200562    1.91999996    1.83000004
   12.40361118  127.42099762    1.89999998    1.83000004
   12.40694427  138.42700195    1.89999998    1.83000004
   12.40999985  138.37600708    1.89999998    1.83000004
   12.41333294  130.64100647    1.89999998    1.85000002
   12.41638851  124.82099915    1.89999998    1.85000002
   12.41972256  129.63299561    1.89999998    1.83000004
   12.42305565  121.75199890    1.89999998    1.85000002
   12.42388916  130.58700562    1.89999998    1.85000002
   12.42666721  128.03399658    1.89999998    1.85000002
   12.42972279  126.96499634    1.91999996    1.85000002
   12.43305588  120.80100250    1.91999996    1.85000002
   12.43916702  120.80100250    1.96000004    1.86000001
   12.44333363  128.67100525    2.03999996    1.86000001
   12.44638920  129.02299500    2.07999992    1.86000001
   12.44972229  127.20500183    2.11999989    1.86000001
   12.45305538  137.28199768    2.15000010    1.88000000
   12.45611095  130.02900696    2.26999998    1.88000000
   12.45722198  125.90399933    2.28999996    1.88000000
   12.46000004  126.87400055    2.36999989    1.88000000
   12.46305561  128.63000488    2.55999994    1.88000000
   12.46638870  122.19599915    2.78999996    1.89999998
   12.46944427  131.05999756    3.03999996    1.88000000
   12.47277737  117.62500000    3.36999989    1.89999998
   12.47611046  126.23300171    3.89000010    1.88000000
   12.48194408  126.23300171    4.67999983    1.89999998
   12.48611164  121.83100128    4.90999985    1.89999998
   12.48944473  127.63300323    4.90999985    1.91999996
   12.49055576  124.48500061    4.90999985    1.91999996
   12.49305534  128.97300720    4.90999985    1.91999996
   12.49611092  118.22799683    4.90999985    1.94000006
   12.49944496  116.26100159    4.90999985    1.94000006
   12.50249958  102.26399994    4.90999985    1.94000006
   12.50583363  128.97599792    4.90999985    1.91999996
   12.50916672  119.34999847    4.90999985    1.88000000
   12.51222229  129.44599915    4.90999985    1.85000002
   12.51555538  135.28199768    4.90999985    1.83000004
   12.51888847  135.83099365    4.90999985    1.83000004
   12.52472210  135.83099365    4.90999985    1.86000001
   12.52888870  146.12899780    4.90999985    1.86000001
   12.53222179  135.20599365    4.90999985    1.83000004
   12.53555584  127.10800171    4.90999985    1.83000004
   12.53861141  142.19500732    4.90999985    1.83000004
   12.54194450  141.11900330    4.90999985    1.80999994
   12.54500008  148.12199402    4.90999985    1.78999996
   12.54833412  146.03500366    4.90999985    1.78999996
   12.55166721  140.51600647    4.90999985    1.76999998
   12.55472279  145.21299744    4.90999985    1.76999998
   12.55722237  143.35299683    4.90999985    1.75000000
   12.55861092  152.89399719    4.90999985    1.75000000
   12.56166649  152.92300415    4.90999985    1.73000002
   12.56777763  152.92300415    4.90999985    1.71000004
   12.57166672  141.59899902    4.90999985    1.73000002
   12.57499981  158.82899475    4.90999985    1.73000002
   12.57833290  143.13999939    4.90999985    1.73000002
   12.58138847  131.62800598    4.90999985    1.73000002
   12.58472157  162.30200195    4.90999985    1.71000004
   12.58805561  181.90400696    4.90999985    1.63000000
   12.59055519  290.00799561    4.90999985    1.58000004
   12.59166622  329.92300415    4.90999985    1.55999994
   12.59472179  232.49699402    4.90999985    1.55999994
   12.59805489  212.78799438    4.90999985    1.58000004
   12.60138893  247.12500000    4.90999985    1.60000002
   12.60444450  247.37899780    4.90999985    1.61000001
   12.61055565  247.37899780    4.90999985    1.63000000
   12.61472225  302.16699219    4.90999985    1.61000001
   12.61777782  243.22300720    4.90999985    1.58000004
   12.62111092  251.98199463    4.90999985    1.55999994
   12.62388897  232.79499817    4.90999985    1.53999996
   12.62472248  205.11399841    4.90999985    1.50000000
   12.62777805  231.33599854    4.90999985    1.48000002
   12.63111115  288.81298828    4.90999985    1.50000000
   12.63444424  194.71800232    4.90999985    1.53999996
   12.63749981  230.95899963    4.90999985    1.53999996
   12.64083290  222.87199402    4.90999985    1.53999996
   12.64388847  223.32299805    4.90999985    1.50000000
   12.64722252  117.79100037    4.90999985    1.48000002
   12.65333271  117.79100037    4.90999985    1.53999996
   12.65749931  170.98800659    4.90999985    1.58000004
   12.66055489  238.75300598    4.90999985    1.58000004
   12.66388893  254.54800415    4.90999985    1.55999994
   12.66722298  159.72399902    4.90999985    1.51999998
   12.67027855  180.61599731    4.90999985    1.50000000
   12.67361164  318.68600464    4.90999985    1.50000000
   12.67694473  297.01400757    4.90999985    1.53999996
   12.68000031  234.13200378    4.90999985    1.58000004
   12.68333340  247.77099609    4.90999985    1.61000001
   12.68638897  310.72399902    4.90999985    1.58000004
   12.68972206  273.97399902    4.90999985    1.60000002
   12.69055557  226.52900696    4.90999985    1.60000002
   12.69611073  226.52900696    4.90999985    1.53999996
   12.70027733  149.52600098    4.90999985    1.48000002
   12.70361137  251.64199829    4.90999985    1.46000004
   12.70749950  298.05599976    4.90999985    1.53999996
   12.71083355  232.08599854    4.90999985    1.58000004
   12.71388912  267.80099487    4.90999985    1.61000001
   12.71722221  203.22099304    4.90999985    1.64999998
   12.72027779  214.88800049    4.90999985    1.66999996
   12.72361088  235.90299988    4.90999985    1.66999996
   12.72416592  223.72500610    4.90999985    1.66999996
   12.72749996  160.30900574    4.90999985    1.69000006
   12.73055553  160.47200012    4.90999985    1.71000004
   12.73388958  239.06300354    4.90999985    1.71000004
   12.73888874  239.06300354    4.90999985    1.73000002
   12.74305534  160.52999878    4.90999985    1.73000002
   12.74638939  200.55499268    4.90999985    1.73000002
   12.74972248  214.32600403    4.90999985    1.71000004
   12.75277805  161.44099426    4.90999985    1.73000002
   12.75611115  193.05900574    4.90999985    1.76999998
   12.75749969  181.58599854    4.90999985    1.76999998
   12.75972176  151.03199768    4.90999985    1.76999998
   12.76277733  221.61900330    4.90999985    1.71000004
   12.76611137  256.38500977    4.90999985    1.66999996
   12.76944447  213.30999756    4.90999985    1.63000000
   12.77250004  308.32800293    4.90999985    1.63000000
   12.77583313  223.84100342    4.90999985    1.61000001
   12.78194427  223.84100342    4.90999985    1.69000006
   12.78611183  208.74899292    4.90999985    1.69000006
   12.78916740  184.30599976    4.90999985    1.73000002
   12.79083347  181.42100525    4.90999985    1.75000000
   12.79305553  182.89500427    4.90999985    1.76999998
   12.79611111  139.52499390    4.90999985    1.78999996
   12.79944515  150.59199524    4.90999985    1.78999996
   12.80277824  162.10800171    4.90999985    1.80999994
   12.80583382  194.39599609    4.90999985    1.75000000
   12.80916691  179.77000427    4.90999985    1.73000002
   12.81222248  185.94999695    4.90999985    1.73000002
   12.81555557  229.86999512    4.90999985    1.73000002
   12.81888866  177.34300232    4.90999985    1.73000002
   12.82472229  177.34300232    4.90999985    1.78999996
   12.82888889  167.17100525    4.90999985    1.85000002
   12.83194447  159.14700317    4.90999985    1.86000001
   12.83527756  182.10299683    4.90999985    1.85000002
   12.83861065  179.20300293    4.90999985    1.80999994
   12.84166622  173.83500671    4.90999985    1.76999998
   12.84499931  232.27099609    4.90999985    1.69000006
   12.84833336  146.45700073    4.90999985    1.61000001
   12.85138893   -1.00000000    4.90999985    1.50000000
   12.85472298   -1.00000000    4.90999985    1.39999998
   12.85805607   -1.00000000    4.90999985    1.34000003
   12.86138916   -1.00000000    4.90999985    1.36000001
   12.86750031   -1.00000000    4.90999985    1.41999996
   12.87166691  221.41999817    4.90999985    1.51999998
   12.87500000  192.50999451    4.90999985    1.55999994
   12.87805557  217.74099731    4.90999985    1.60000002
   12.88138866  278.90701294    4.90999985    1.61000001
   12.88472176  317.83300781    4.90999985    1.64999998
   12.88777733  207.75799561    4.90999985    1.66999996
   12.89083290  253.67500305    4.90999985    1.69000006
   12.89166641  301.98199463    4.90999985    1.69000006
   12.89472198  207.22799683    4.90999985    1.69000006
   12.89805508  167.03399658    4.90999985    1.76999998
   12.90138817  137.47900391    4.90999985    1.85000002
   12.90444374  121.19100189    4.90999985    1.91999996
   12.91027737  121.19100189    4.90999985    1.89999998
   12.91444397  135.55999756    4.90999985    1.88000000
   12.91777802  147.85299683    4.90999985    1.91999996
   12.92111111  138.96800232    4.90999985    1.91999996
   12.92416668  150.91999817    4.90999985    1.86000001
   12.92472267  138.12600708    4.90999985    1.86000001
   12.92777824  266.94900513    4.90999985    1.78999996
   12.93111134  228.93699646    4.90999985    1.73000002
   12.93444443  208.33399963    4.90999985    1.75000000
   12.93750000  195.41099548    4.90999985    1.76999998
   12.94083309  153.30000305    4.90999985    1.75000000
   12.94416714  258.23901367    4.90999985    1.64999998
   12.94722271  324.23498535    4.90999985    1.60000002
   12.95333290  324.23498535    4.90999985    1.71000004
   12.95749950  241.88800049    4.90999985    1.69000006
   12.95805550  211.50500488    4.90999985    1.69000006
   12.96111107  162.85499573    4.90999985    1.75000000
   12.96444416  132.56599426    4.90999985    1.88000000
   12.96749973  141.21499634    4.90999985    1.96000004
   12.97083282  139.35800171    4.90999985    1.94000006
   12.97416592  166.68200684    4.90999985    1.89999998
   12.97722149  159.08500671    4.90999985    1.85000002
   12.98055553  167.89199829    4.90999985    1.83000004
   12.98388958  152.00700378    4.90999985    1.83000004
   12.98694515  184.98199463    4.90999985    1.83000004
   12.99027824  146.35800171    4.90999985    1.80999994
   12.99138927  173.54800415    4.90999985    1.78999996
   12.99611092  173.54800415    4.90999985    1.66999996
   13.00027752  224.61599731    4.90999985    1.66999996
   13.00333309  133.44299316    4.90999985    1.78999996
   13.00666714  185.20199585    4.90999985    1.86000001
   13.01000023  125.68399811    4.90999985    1.88000000
   13.01305580  148.73800659    4.90999985    1.91999996
   13.01638889  192.04600525    4.90999985    1.86000001
   13.01972198  132.63600159    4.90999985    1.86000001
   13.02277756  160.33900452    4.90999985    1.94000006
   13.02472210  140.88999939    4.90999985    1.96000004
   13.02638817  118.71199799    4.90999985    1.96000004
   13.02972221  135.25900269    4.90999985    1.98000002
   13.03277779  127.51300049    4.90999985    1.98000002
   13.03888893  127.51300049    4.90999985    2.00000000
   13.04305553  127.61799622    4.90999985    2.03999996
   13.04638958  130.28799438    4.90999985    2.05999994
   13.04944515  112.41899872    4.90999985    2.07999992
   13.05277824  135.67100525    4.90999985    2.03999996
   13.05611134  119.89099884    4.90999985    2.01999998
   13.05805588  130.46200562    4.90999985    2.01999998
   13.05972195  134.98800659    4.90999985    2.01999998
   13.06305599  126.14299774    4.90999985    2.03999996
   13.06611156  122.24800110    4.90999985    2.05999994
   13.06944466  119.06900024    4.90999985    2.05999994
   13.07277775  131.47900391    4.90999985    2.05999994
   13.07583332  120.72499847    4.90999985    2.07999992
   13.08166695  120.72499847    4.90999985    2.09999990
   13.08583260  116.09200287    4.90999985    2.11999989
   13.08916664  118.85299683    4.90999985    2.15000010
   13.09138870  115.17600250    4.90999985    2.15000010
   13.09277725  118.47499847    4.90999985    2.13000011
   13.09611034  129.39799500    4.90999985    2.15000010
   13.09916592  122.16300201    4.90999985    2.15000010
   13.10249996  120.21299744    4.90999985    2.15000010
   13.10583401  113.64099884    4.90999985    2.17000008
   13.10888958  118.16899872    4.90999985    2.21000004
   13.11222267  108.64199829    4.90999985    2.21000004
   13.11555576  115.02100372    4.90999985    2.23000002
   13.11861134  122.62100220    4.90999985    2.21000004
   13.12472248  122.62100220    4.90999985    2.19000006
   13.12888908  112.99400330    4.90999985    2.21000004
   13.13194466  111.85199738    4.90999985    2.21000004
   13.13527775  105.15000153    4.90999985    2.21000004
   13.13833332  116.35199738    4.90999985    2.21000004
   13.14166641  118.11900330    4.82999992    2.21000004
   13.14499950  108.89099884    4.65999985    2.19000006
   13.14833355  108.99600220    4.48999977    2.23000002
   13.15138817  110.33699799    4.34999990    2.23000002
   13.15472221  112.04900360    4.15999985    2.23000002
   13.15805531  111.22799683    3.93000007    2.23000002
   13.15833282  113.04799652    3.93000007    2.23000002
   13.16166592  109.37000275    3.53999996    2.25000000
   13.16750050  109.37000275    3.01999998    2.25000000
   13.17166710  118.67500305    2.64000010    2.23000002
   13.17472267  113.97100067    2.30999994    2.25000000
   13.17805576  111.23200226    2.11999989    2.26999998
   13.18138885  112.38400269    2.11999989    2.26999998
   13.18444443  111.75599670    1.86000001    2.26999998
   13.18777752  114.34999847    1.55999994    2.26999998
   13.19111156  111.33999634    1.44000006    2.26999998
   13.19138908  105.70400238    1.41999996    2.26999998
   13.19472218  110.02600098    1.26999998    2.26999998
   13.19805527  106.61499786    1.23000002    2.25000000
   13.20111084  109.37100220    1.11000001    2.25000000
   13.20444393  108.02500153    1.07000005    2.28999996
   13.21027756  108.02500153    1.00000000    2.25000000
   13.21444416  110.91200256    0.98000002    2.26999998
   13.21777725  113.59500122    0.98000002    2.26999998
   13.22083282  109.75399780    0.98000002    2.26999998
   13.22416592  109.21099854    0.98000002    2.26999998
   13.22499943  106.22599792    0.98000002    2.26999998
   13.22777748  114.25099945    0.95999998    2.26999998
   13.23111057  103.92199707    0.95999998    2.26999998
   13.23416710  108.89700317    0.95999998    2.26999998
   13.23750019  113.18099976    0.95999998    2.28999996
   13.24083328  113.02799988    0.95999998    2.28999996
   13.24388885  103.81400299    0.95999998    2.26999998
   13.24722290  116.23899841    0.95999998    2.26999998
   13.25305557  116.23899841    0.95999998    2.28999996
   13.25722218  117.28299713    0.95999998    2.28999996
   13.25833321  111.05300140    0.95999998    2.28999996
   13.26083374  110.95200348    0.95999998    2.26999998
   13.26416683  105.38400269    0.94000000    2.26999998
   13.26749992  112.59700012    0.94000000    2.28999996
   13.27083302  123.74900055    0.94000000    2.28999996
   13.27388859  115.73400116    0.94000000    2.28999996
   13.27722168  110.06700134    0.94000000    2.28999996
   13.28055573  116.12599945    0.94000000    2.28999996
   13.28361130  109.33300018    0.92000002    2.28999996
   13.28694534  106.32499695    0.92000002    2.28999996
   13.29027843  108.58399963    0.92000002    2.30999994
   13.30749989  128.17399597    0.92000002    2.28999996
   13.31166649  128.17399597    0.92000002    2.30999994
   13.31583309  116.78900146    0.92000002    2.30999994
   13.31916618  116.20500183    0.92000002    2.30999994
   13.32222176  111.55599976    0.92000002    2.30999994
   13.32555580  114.06500244    0.92000002    2.30999994
   13.32888889  113.03500366    0.92000002    2.30999994
   13.33194447  112.38500214    0.92000002    2.30999994
   13.33527756  118.92700195    0.92000002    2.30999994
   13.33861065  110.37799835    0.92000002    2.30999994
   13.34083271  123.80400085    0.92000002    2.30999994
   13.34194374  109.59600067    0.92000002    2.30999994
   13.34527779  125.66999817    0.92000002    2.30999994
   13.34861088  124.06400299    0.92000002    2.30999994
   13.35472298  124.06400299    0.89999998    2.30999994
   13.35888958  126.10099792    0.89999998    2.30999994
   13.36222267  126.74199677    0.88000000    2.30999994
   13.36527824  121.97299957    0.88000000    2.30999994
   13.36861134  118.68099976    0.88000000    2.30999994
   13.37194443  127.00800323    0.88000000    2.30999994
   13.37416649  114.97000122    0.88000000    2.30999994
   13.37527752  123.24199677    0.88000000    2.30999994
   13.37861156  117.79100037    0.88000000    2.30999994
   13.38194466  120.85600281    0.88000000    2.32999992
   13.38500023  124.37799835    0.86000001    2.32999992
   13.38833332  119.57800293    0.86000001    2.32999992
   13.39166641  116.72899628    0.86000001    2.32999992
   13.39750004  116.72899628    0.86000001    2.32999992
   13.40166664  127.20800018    0.86000001    2.32999992
   13.40472221  124.40599823    0.86000001    2.30999994
   13.40749931  121.63400269    0.86000001    2.30999994
   13.40833282  122.80000305    0.86000001    2.32999992
   13.41166592  122.46700287    0.86000001    2.32999992
   13.41499996  107.45899963    0.86000001    2.32999992
   13.41805553  118.20999908    0.86000001    2.32999992
   13.42138958  112.83699799    0.86000001    2.32999992
   13.42472267  111.49600220    0.86000001    2.32999992
   13.42777824  110.82099915    0.86000001    2.32999992
   13.43111134  112.10900116    0.86000001    2.32999992
   13.43416691  113.63099670    0.86000001    2.32999992
   13.44055557  113.63099670    0.86000001    2.32999992
   13.44472218  109.23200226    0.86000001    2.32999992
   13.44777775  113.25399780    0.86000001    2.32999992
   13.45111084  108.02300262    0.86000001    2.32999992
   13.45416641  108.27799988    0.86000001    2.32999992
   13.45749950  111.92500305    0.86000001    2.34999990
   13.46083355  111.45200348    0.86000001    2.32999992
   13.46388912  117.23600006    0.86000001    2.32999992
   13.46722221  115.61299896    0.88000000    2.32999992
   13.47055531  109.28299713    0.88000000    2.32999992
   13.47361088  125.56999969    0.88000000    2.32999992
   13.47555542  114.99199677    0.88000000    2.32999992
   13.47749996  118.16000366    0.88000000    2.32999992
   13.48305511  118.16000366    0.88000000    2.34999990
   13.48722267  113.29000092    0.88000000    2.34999990
   13.49055576  126.75599670    0.88000000    2.34999990
   13.49361134  107.27100372    0.88000000    2.34999990
   13.49694443  114.40299988    0.86000001    2.34999990
   13.50027752  121.12899780    0.86000001    2.32999992
   13.50333309  116.87899780    0.86000001    2.32999992
   13.50666714  116.21800232    0.86000001    2.34999990
   13.50888920  111.80200195    0.86000001    2.34999990
   13.51027775  113.36000061    0.86000001    2.34999990
   13.51333332  107.77799988    0.86000001    2.32999992
   13.51666641  119.45600128    0.83999997    2.34999990
   13.51999950  109.27200317    0.83999997    2.34999990
   13.52611065  109.27200317    0.83999997    2.34999990
   13.52999973  114.24299622    0.83999997    2.34999990
   13.53333378  112.54100037    0.81999999    2.36999989
   13.53666687  109.00099945    0.81999999    2.34999990
   13.53972244  113.25099945    0.80000001    2.34999990
   13.54222298  110.24700165    0.80000001    2.34999990
   13.54361153  112.91699982    0.80000001    2.36999989
   13.54666710  118.61799622    0.79000002    2.36999989
   13.55000019  115.17299652    0.79000002    2.36999989
   13.55333328  112.61799622    0.76999998    2.34999990
   13.55638885  113.37200165    0.79000002    2.36999989
   13.55972195  113.91400146    0.76999998    2.34999990
   13.56305599  112.65399933    0.79000002    2.36999989
   13.56888866  112.65399933    0.76999998    2.36999989
   13.57305527  110.56900024    0.76999998    2.36999989
   13.57555580  118.88700104    0.76999998    2.36999989
   13.57666683  118.57199860    0.76999998    2.36999989
   13.57999992  119.69000244    0.76999998    2.36999989
   13.58305550  114.73899841    0.79000002    2.36999989
   13.58638859  121.19799805    0.79000002    2.36999989
   13.58944416  119.55200195    0.79000002    2.36999989
   13.59277725  113.65399933    0.76999998    2.36999989
   13.59611034  116.24500275    0.79000002    2.36999989
   13.59916592  108.05899811    0.80000001    2.36999989
   13.60249996  107.61100006    0.80000001    2.39000010
   13.60583401  116.08200073    0.80000001    2.36999989
   13.61166668  116.08200073    0.81999999    2.36999989
   13.61583328  114.13999939    0.81999999    2.36999989
   13.61916637  112.00599670    0.81999999    2.36999989
   13.62222195  111.34999847    0.81999999    2.36999989
   13.62555599  114.00700378    0.83999997    2.36999989
   13.62861156  111.72699738    0.83999997    2.36999989
   13.63194466  112.00399780    0.83999997    2.36999989
   13.63527775  110.72200012    0.83999997    2.39000010
   13.63833332  118.25099945    0.86000001    2.36999989
   13.64166641  112.08200073    0.86000001    2.39000010
   13.64249992  113.59799957    0.86000001    2.39000010
   13.64527798  111.56099701    0.86000001    2.39000010
   13.64861107  108.34600067    0.86000001    2.39000010
   13.65444374  108.34600067    0.86000001    2.36999989
   13.65861034  118.05000305    0.83999997    2.39000010
   13.66194439  111.84700012    0.81999999    2.39000010
   13.66499996  114.00299835    0.81999999    2.39000010
   13.66833401  113.67299652    0.79000002    2.39000010
   13.67166710  116.71700287    0.79000002    2.39000010
   13.67472267  118.71800232    0.79000002    2.39000010
   13.67583370  120.22399902    0.79000002    2.39000010
   13.67861176  115.58200073    0.79000002    2.39000010
   13.68194485  118.65899658    0.79000002    2.39000010
   13.68500042  121.80200195    0.79000002    2.39000010
   13.68833351  117.91699982    0.80000001    2.39000010
   13.69166660  114.16500092    0.80000001    2.39000010
   13.69750023  114.16500092    0.81999999    2.39000010
   13.70138836  111.49700165    0.81999999    2.39000010
   13.70472240  111.92800140    0.81999999    2.39000010
   13.70805550  114.48000336    0.83999997    2.39000010
   13.70944405  116.97599792    0.83999997    2.40000010
   13.71166611  114.88899994    0.83999997    2.40000010
   13.71472168  107.71399689    0.88000000    2.39000010
   13.71805477  111.72799683    0.88000000    2.39000010
   13.72138882  114.34999847    0.88000000    2.39000010
   13.72444439  112.01100159    0.89999998    2.39000010
   13.72777748  114.37200165    0.92000002    2.40000010
   13.73111057  117.81900024    0.94000000    2.39000010
   13.73416710  118.72799683    0.95999998    2.39000010
   13.74027824  118.72799683    0.95999998    2.40000010
   13.74444485  109.97200012    0.95999998    2.39000010
   13.74750042  108.25199890    0.98000002    2.40000010
   13.75083351  115.27100372    0.95999998    2.39000010
   13.75416660  109.27200317    0.95999998    2.40000010
   13.75749969  119.29399872    0.95999998    2.40000010
   13.76055527  114.26399994    0.94000000    2.40000010
   13.76388931  111.31199646    0.94000000    2.40000010
   13.76749992  113.98200226    0.92000002    2.40000010
   13.77055550  112.11900330    0.92000002    2.39000010
   13.77388859  107.78900146    0.92000002    2.40000010
   13.77611065  109.85900116    0.94000000    2.40000010
   13.77750015  117.05500031    0.94000000    2.40000010
   13.78305531  117.05500031    0.94000000    2.39000010
   13.78722286  114.16400146    0.94000000    2.40000010
   13.79055595  114.08599854    0.95999998    2.40000010
   13.79361153  120.98799896    0.95999998    2.40000010
   13.79694462  118.67299652    0.95999998    2.40000010
   13.80000019  112.83300018    0.95999998    2.40000010
   13.80333328  118.18599701    0.95999998    2.40000010
   13.80666733  111.12899780    0.94000000    2.40000010
   13.80944443  115.85099792    0.94000000    2.39000010
   13.81027794  116.08200073    0.94000000    2.39000010
   13.81333351  113.78099823    0.92000002    2.40000010
   13.81666660  114.39099884    0.92000002    2.40000010
   13.81999969  119.52700043    0.89999998    2.39000010
   13.82583332  119.52700043    0.86000001    2.40000010
   13.82999992  121.11499786    0.83999997    2.40000010
   13.83333302  118.70500183    0.83999997    2.40000010
   13.83666611  120.70300293    0.83999997    2.42000008
   13.83972168  116.59799957    0.86000001    2.42000008
   13.84277725  121.30000305    0.86000001    2.42000008
   13.84333324  146.69500732    0.86000001    2.42000008
   13.84638882  119.46399689    0.86000001    2.40000010
   13.84972191  119.87799835    0.86000001    2.42000008
   13.85305595  113.85900116    0.88000000    2.42000008
   13.85611153  118.79399872    0.88000000    2.42000008
   13.85944462  118.77400208    0.88000000    2.40000010
   13.86250019  119.20300293    0.89999998    2.40000010
   13.86888885  119.20300293    0.92000002    2.40000010
   13.87277794  116.57900238    0.94000000    2.42000008
   13.87611103  118.62200165    0.95999998    2.40000010
   13.87666702  119.97899628    0.95999998    2.40000010
   13.88000011  119.38700104    0.98000002    2.40000010
   13.88305569  119.58599854    0.98000002    2.40000010
   13.88638878  118.63600159    1.00000000    2.40000010
   13.88944435  118.32900238    1.00000000    2.42000008
   13.89277744  115.28700256    1.00000000    2.40000010
   13.89611053  123.04499817    1.00000000    2.40000010
   13.89916611  115.01999664    1.00000000    2.42000008
   13.90249920  116.78700256    0.98000002    2.42000008
   13.90583324  118.46600342    0.98000002    2.40000010
   13.91166592  118.46600342    0.94000000    2.40000010
   13.91583252  123.40799713    0.94000000    2.42000008
   13.91888905  115.88500214    0.92000002    2.42000008
   13.92222214  116.96800232    0.92000002    2.42000008
   13.92555618  117.90799713    0.92000002    2.42000008
   13.92861176  129.67900085    0.92000002    2.42000008
   13.93194485  128.96800232    0.95999998    2.42000008
   13.93527794  123.73600006    1.01999998    2.42000008
   13.93833351  135.13999939    1.11000001    2.44000006
   13.94166660  129.23599243    1.11000001    2.44000006
   13.94277763  126.27999878    1.16999996    2.42000008
   13.94527817  137.04299927    1.16999996    2.42000008
   13.94861126  151.55200195    1.30999994    2.42000008
   13.95444393  151.55200195    1.48000002    2.42000008
   13.95861053  138.26300049    1.48000002    2.42000008
   13.96194458  134.34899902    1.50000000    2.42000008
   13.96500015  137.98899841    1.50000000    2.42000008
   13.96833324  133.98399353    1.75000000    2.42000008
   13.97166634  125.68199921    1.98000002    2.40000010
   13.97472191  138.69000244    2.00000000    2.42000008
   13.97611046  129.46400452    2.00000000    2.42000008
   13.97833252  123.19699860    1.98000002    2.42000008
   13.98166656  136.96200562    1.89999998    2.42000008
   13.98472214  114.58799744    1.89999998    2.42000008
   13.98805618  114.63099670    1.76999998    2.44000006
   13.99111176  121.16400146    1.73000002    2.42000008
   13.99722290  121.16400146    1.63000000    2.42000008
   14.00138855  127.09300232    1.41999996    2.42000008
   14.00472260  117.18900299    1.26999998    2.44000006
   14.00777817  116.11799622    1.07000005    2.44000006
   14.00972176  127.41100311    1.07000005    2.44000006
   14.01166630  121.24800110    1.03999996    2.44000006
   14.01500034  122.79699707    0.95999998    2.44000006
   14.01805496  114.25800323    0.94000000    2.44000006
   14.02138901  116.09100342    0.92000002    2.42000008
   14.02472210  116.68299866    0.92000002    2.42000008
   14.02777767  115.54399872    0.92000002    2.46000004
   14.03111076  121.65599823    0.92000002    2.44000006
   14.03444481  118.20200348    0.92000002    2.46000004
   14.04000092  118.20200348    0.92000002    2.44000006
   14.04416752  118.29499817    0.92000002    2.42000008
   14.04750061  113.89399719    0.92000002    2.44000006
   14.05083370  119.37100220    0.88000000    2.44000006
   14.05388927  119.87300110    0.88000000    2.44000006
   14.05722237  123.85500336    0.88000000    2.44000006
   14.06027794  115.11100006    0.83999997    2.44000006
   14.06361103  109.92400360    0.83999997    2.44000006
   14.06694412  119.02999878    0.83999997    2.44000006
   14.06999969  121.58599854    0.83999997    2.44000006
   14.07333374  116.28900146    0.81999999    2.46000004
   14.07666683  122.68599701    0.80000001    2.46000004
   14.07722187  119.36199951    0.80000001    2.46000004
   14.08305550  119.36199951    0.80000001    2.44000006
   14.08722210  121.29399872    0.80000001    2.46000004
   14.09027767  109.12999725    0.79000002    2.44000006
   14.09361076  116.04399872    0.79000002    2.46000004
   14.09666634  117.64600372    0.80000001    2.46000004
   14.10000038  116.64199829    0.80000001    2.46000004
   14.10333347  116.72399902    0.80000001    2.44000006
   14.10638905  118.54100037    0.80000001    2.46000004
   14.10972214  117.69200134    0.81999999    2.44000006
   14.11027813  116.54699707    0.81999999    2.44000006
   14.11333370  126.02400208    0.81999999    2.46000004
   14.11666679  116.60500336    0.83999997    2.46000004
   14.11999989  109.76599884    0.83999997    2.46000004
   14.12583351  109.76599884    0.81999999    2.46000004
   14.13000011  115.67700195    0.81999999    2.46000004
   14.13305569  119.22799683    0.81999999    2.46000004
   14.13638878  116.01599884    0.80000001    2.48000002
   14.13972187  117.75299835    0.80000001    2.46000004
   14.14277744  117.05799866    0.80000001    2.46000004
   14.14333344  121.28299713    0.80000001    2.46000004
   14.14666653  118.12999725    0.80000001    2.46000004
   14.14999962  114.77799988    0.80000001    2.44000006
   14.15305519  118.62300110    0.79000002    2.46000004
   14.15638828  120.32099915    0.79000002    2.46000004
   14.15972137  120.02600098    0.76999998    2.46000004
   14.16277695  132.58799744    0.76999998    2.46000004
   14.16861153  132.58799744    0.75000000    2.44000006
   14.17277813  119.66100311    0.73000002    2.46000004
   14.17611122  117.89800262    0.73000002    2.48000002
   14.17666721  122.44799805    0.73000002    2.48000002
   14.17972279  124.15399933    0.73000002    2.48000002
   14.18305588  122.05799866    0.73000002    2.46000004
   14.18611145  123.11299896    0.73000002    2.46000004
   14.18944454  123.81099701    0.75000000    2.46000004
   14.19277763  125.52700043    0.75000000    2.46000004
   14.19583321  118.90000153    0.76999998    2.46000004
   14.19916630  124.08999634    0.79000002    2.46000004
   14.20222187  123.75599670    0.79000002    2.48000002
   14.20555496  114.71600342    0.79000002    2.48000002
   14.21138859  114.71600342    0.76999998    2.46000004
   14.21555519  119.07800293    0.76999998    2.46000004
   14.21888828  121.55699921    0.76999998    2.46000004
   14.22194386  124.63300323    0.76999998    2.46000004
   14.22527695  122.15299988    0.75000000    2.46000004
   14.22861099  125.69300079    0.75000000    2.46000004
   14.23194408  116.42099762    0.75000000    2.48000002
   14.23500061  123.74299622    0.76999998    2.46000004
   14.23833370  123.26000214    0.76999998    2.46000004
   14.24138927  122.26399994    0.76999998    2.48000002
   14.24333382  118.81300354    0.79000002    2.48000002
   14.24499989  121.47200012    0.79000002    2.48000002
   14.24833393  118.75599670    0.81999999    2.46000004
   14.25444412  118.75599670    0.95999998    2.46000004
   14.25833321  117.94999695    1.00000000    2.46000004
   14.26166630  116.63200378    0.95999998    2.46000004
   14.26500034  120.90000153    0.92000002    2.48000002
   14.26805496  120.89700317    0.92000002    2.46000004
   14.27138901  121.83499908    0.83999997    2.48000002
   14.27472210  121.86599731    0.83999997    2.48000002
   14.27666664  121.61399841    0.83999997    2.46000004
   14.27833271  117.73300171    0.83999997    2.46000004
   14.28166676  121.68099976    0.86000001    2.48000002
   14.28472233  117.25900269    0.88000000    2.48000002
   14.28805637  123.06400299    0.89999998    2.46000004
   14.29138947  124.08300018    0.88000000    2.46000004
   14.29722309  124.08300018    0.83999997    2.46000004
   14.30138874  132.22599792    0.81999999    2.46000004
   14.30444431  126.92600250    0.81999999    2.46000004
   14.30777836  129.79899597    0.81999999    2.48000002
   14.32499981  124.09400177    0.83999997    2.48000002
   14.32777786  122.30200195    0.83999997    2.48000002
   14.33111095  120.48799896    0.83999997    2.46000004
   14.33416653  121.68900299    0.81999999    2.48000002
   14.34027767  121.68900299    0.81999999    2.46000004
   14.34444427  128.46899414    0.81999999    2.48000002
   14.34749985  126.17099762    0.80000001    2.46000004
   14.35083389  126.96199799    0.80000001    2.48000002
   14.35416698  118.92400360    0.80000001    2.48000002
   14.35722256  116.45200348    0.80000001    2.48000002
   14.35805607  131.42900085    0.80000001    2.48000002
   14.36111164  119.49299622    0.79000002    2.48000002
   14.36416721  128.32099915    0.79000002    2.48000002
   14.36750031  130.16400146    0.79000002    2.48000002
   14.37083340  130.75599670    0.79000002    2.48000002
   14.37388897  126.64499664    0.79000002    2.48000002
   14.37722206  126.19000244    0.79000002    2.46000004
   14.38305569  126.19000244    0.79000002    2.48000002
   14.38722229  126.86599731    0.76999998    2.48000002
   14.39055538  127.05100250    0.76999998    2.48000002
   14.39138889  128.43800354    0.76999998    2.48000002
   14.39416695  130.27299500    0.76999998    2.48000002
   14.39750004  124.99400330    0.75000000    2.46000004
   14.40055561  126.78800201    0.75000000    2.48000002
   14.40388870  129.05499268    0.75000000    2.50000000
   14.40722179  133.13200378    0.73000002    2.50000000
   14.41027737  125.03299713    0.73000002    2.48000002
   14.41361046  125.02400208    0.73000002    2.48000002
   14.41694450  117.92199707    0.70999998    2.48000002
   14.42000008  141.59100342    0.70999998    2.48000002
   14.42611122  141.59100342    0.69000000    2.48000002
   14.43000031  119.58399963    0.69000000    2.50000000
   14.43333340  119.87999725    0.69000000    2.48000002
   14.43666649  128.85800171    0.69000000    2.48000002
   14.43972206  129.82699585    0.69000000    2.48000002
   14.44305515  117.50199890    0.69000000    2.50000000
   14.44638920  122.61399841    0.69000000    2.48000002
   14.44944477  113.59400177    0.69000000    2.48000002
   14.45277786  126.50700378    0.69000000    2.48000002
   14.45583344  118.49800110    0.70999998    2.48000002
   14.45805550  129.50100708    0.70999998    2.48000002
   14.45972157  128.06300354    0.70999998    2.50000000
   14.46305561  134.24800110    0.70999998    2.48000002
   14.46888828  134.24800110    0.73000002    2.50000000
   14.47305489  125.87500000    0.73000002    2.48000002
   14.47611046  142.65199280    0.73000002    2.48000002
   14.47944355  130.72900391    0.73000002    2.50000000
   14.48277760  128.61000061    0.73000002    2.48000002
   14.48583317  133.95199585    0.73000002    2.48000002
   14.48916721  121.37300110    0.73000002    2.48000002
   14.49138927  140.92100525    0.73000002    2.48000002
   14.49277782  131.38600159    0.73000002    2.50000000
   14.49611092  137.01300049    0.73000002    2.50000000
   14.49916649  116.58899689    0.73000002    2.50000000
   14.50249958  121.51200104    0.73000002    2.50000000
   14.50583363  116.25800323    0.73000002    2.50000000
   14.51166630  116.25800323    0.75000000    2.51999998
   14.51583290  122.14299774    0.75000000    2.50000000
   14.51916599  124.67299652    0.75000000    2.50000000
   14.52222157  128.06799316    0.76999998    2.50000000
   14.52472210  126.31900024    0.76999998    2.50000000
   14.52583313  127.44999695    0.75000000    2.50000000
   14.52916622  122.12200165    0.75000000    2.50000000
   14.53222179  122.74099731    0.76999998    2.50000000
   14.53555584  124.30799866    0.76999998    2.50000000
   14.53861141  117.30500031    0.79000002    2.50000000
   14.54222298  131.29200745    0.79000002    2.50000000
   14.54527855  117.99700165    0.79000002    2.50000000
   14.54861164  133.30000305    0.79000002    2.50000000
   14.55444431  133.30000305    0.76999998    2.50000000
   14.55861092  124.88800049    0.76999998    2.51999998
   14.56194496  125.49199677    0.76999998    2.50000000
   14.56500053  126.49500275    0.75000000    2.51999998
   14.56833363  118.73999786    0.75000000    2.50000000
   14.57166672  114.87799835    0.76999998    2.50000000
   14.57472229  114.68000031    0.76999998    2.50000000
   14.57805538  119.50900269    0.76999998    2.50000000
   14.58138847  145.30900574    0.79000002    2.50000000
   14.58444405  181.52299500    0.79000002    2.50000000
   14.58777714  227.52099609    0.76999998    2.50000000
   14.59083271  180.21499634    0.79000002    2.50000000
   14.59138870  235.00199890    0.79000002    2.50000000
   14.59722233  235.00199890    0.81999999    2.51999998
   14.60138893  185.38400269    0.86000001    2.50000000
   14.60472298  206.99699402    1.01999998    2.50000000
   14.60805607  189.94599915    1.05999994    2.50000000
   14.61111164  191.33700562    1.05999994    2.51999998
   14.61444473  196.49299622    1.05999994    2.51999998
   14.61750031  181.81300354    1.03999996    2.50000000
   14.62083340  175.36799622    0.92000002    2.51999998
   14.62416649  193.79100037    0.92000002    2.51999998
   14.62500000  163.85899353    0.92000002    2.51999998
   14.62777805  140.53300476    0.92000002    2.51999998
   14.63111115  183.22700500    0.92000002    2.50000000
   14.63416672  122.76300049    0.95999998    2.50000000
   14.64027786  122.76300049    1.05999994    2.51999998
   14.64444447  172.73899841    1.19000006    2.53999996
   14.64750004  136.58599854    1.14999998    2.51999998
   14.65083313  158.43899536    1.09000003    2.50000000
   14.65416622  165.34599304    1.03999996    2.53999996
   14.65722179  136.52600098    1.03999996    2.51999998
   14.65805531  167.88800049    0.92000002    2.51999998
   14.66083336  134.88999939    0.89999998    2.51999998
   14.66416645  148.38499451    0.89999998    2.51999998
   14.66722298  132.66499329    0.89999998    2.51999998
   14.67055607  136.23699951    0.88000000    2.51999998
   14.67388916  128.49899292    0.86000001    2.51999998
   14.67694473  159.91900635    1.05999994    2.51999998
   14.68305588  159.91900635    1.14999998    2.51999998
   14.68722248  146.02699280    1.14999998    2.51999998
   14.69027805  150.03900146    1.13000000    2.50000000
   14.69138908  130.75599670    1.13000000    2.50000000
   14.69388866  138.37199402    1.13000000    2.50000000
   14.69722271  126.27799988    0.92000002    2.51999998
   14.70027733  133.99200439    0.92000002    2.50000000
   14.70361137  139.04200745    0.81999999    2.51999998
   14.70694447  128.00900269    0.80000001    2.51999998
   14.71000004  138.83099365    0.80000001    2.51999998
   14.71333313  124.78700256    0.80000001    2.51999998
   14.71638870  123.45099640    0.79000002    2.51999998
   14.71972179  122.79100037    0.73000002    2.51999998
   14.72583294  122.79100037    0.70999998    2.51999998
   14.72999954  120.56400299    0.70999998    2.51999998
   14.73333359  121.66400146    0.70999998    2.51999998
   14.73638916  122.77899933    0.70999998    2.51999998
   14.73972225  114.59600067    0.70999998    2.51999998
   14.74305534  113.59899902    0.70999998    2.50000000
   14.74611092  124.72200012    0.69000000    2.53999996
   14.74944496  137.20599365    0.69000000    2.51999998
   14.75277805  124.75700378    0.69000000    2.53999996
   14.75583363  123.92500305    0.70999998    2.51999998
   14.75833321  126.56500244    0.70999998    2.51999998
   14.75944424  122.07399750    0.70999998    2.51999998
   14.76277733  122.39199829    0.70999998    2.51999998
   14.76861095  122.39199829    0.69000000    2.51999998
   14.77277756  119.95800018    0.70999998    2.53999996
   14.77611065  133.23699951    0.70999998    2.51999998
   14.77944374  122.52700043    0.70999998    2.53999996
   14.78249931  129.99499512    0.70999998    2.53999996
   14.78583336  133.36700439    0.69000000    2.53999996
   14.78888893  131.82099915    0.67000002    2.51999998
   14.79166698  129.03300476    0.64999998    2.53999996
   14.79250050  124.62799835    0.64999998    2.53999996
   14.79583359  120.31199646    0.64999998    2.53999996
   14.79888916  127.78900146    0.63000000    2.53999996
   14.80222225  121.41999817    0.63000000    2.53999996
   14.80555534  111.54799652    0.63000000    2.53999996
   14.81166649  111.54799652    0.63000000    2.51999998
   14.81555557  117.97299957    0.63000000    2.51999998
   14.81888866  116.69599915    0.64999998    2.53999996
   14.82222176  118.85600281    0.64999998    2.53999996
   14.82499981  128.06900024    0.64999998    2.53999996
   14.82611084  116.01399994    0.64999998    2.53999996
   14.82944393  116.03199768    0.64999998    2.53999996
   14.83249950  119.19999695    0.67000002    2.51999998
   14.83583260  113.98899841    0.67000002    2.51999998
   14.83916664  116.21600342    0.67000002    2.53999996
   14.84222221  124.64399719    0.69000000    2.51999998
   14.84555531  124.39800262    0.69000000    2.53999996
   14.84888840  123.76100159    0.69000000    2.51999998
   14.85444450  123.76100159    0.69000000    2.53999996
   14.85861111  115.05699921    0.69000000    2.53999996
   14.86166668  121.43099976    0.73000002    2.53999996
   14.86500072  119.50900269    0.73000002    2.53999996
   14.86833382  114.26000214    0.75000000    2.53999996
   14.87138939  112.04900360    0.75000000    2.53999996
   14.87472248  116.89800262    0.76999998    2.53999996
   14.87777805  117.03800201    0.76999998    2.53999996
   14.88111115  121.86100006    0.76999998    2.53999996
   14.88444424  114.38700104    0.76999998    2.53999996
   14.88749981  109.28800201    0.79000002    2.53999996
   14.89083290  121.66799927    0.79000002    2.53999996
   14.89166641  110.08799744    0.79000002    2.53999996
   14.89722252  110.08799744    0.76999998    2.51999998
   14.90138817  121.25700378    0.75000000    2.53999996
   14.90472221  124.38300323    0.75000000    2.53999996
   14.90777779  113.21600342    0.75000000    2.53999996
   14.91111088  121.19400024    0.75000000    2.53999996
   14.91444397  125.05699921    0.73000002    2.53999996
   14.91750050  123.08599854    0.70999998    2.53999996
   14.92083359  125.81600189    0.67000002    2.53999996
   14.92416668  124.12200165    0.67000002    2.53999996
   14.92500019  123.14499664    0.64999998    2.55999994
   14.92777824  124.21199799    0.64999998    2.53999996
   14.93111134  119.50399780    0.64999998    2.53999996
   14.93444443  118.92600250    0.63000000    2.53999996
   14.94000053  118.92600250    0.63000000    2.53999996
   14.94416714  117.47200012    0.63000000    2.53999996
   14.94750023  124.02700043    0.63000000    2.53999996
   14.95083332  114.25800323    0.63000000    2.53999996
   14.95388889  126.10600281    0.64999998    2.53999996
   14.95722198  121.95200348    0.64999998    2.53999996
   14.95833302  126.87699890    0.64999998    2.55999994
   14.96083355  120.46199799    0.64999998    2.53999996
   14.96416664  122.04100037    0.64999998    2.53999996
   14.96749973  114.98500061    0.63000000    2.53999996
   14.97055531  111.25599670    0.63000000    2.53999996
   14.97388840  120.00499725    0.63000000    2.53999996
   14.97694397  121.62300110    0.63000000    2.55999994
   14.98305511  121.62300110    0.67000002    2.53999996
   14.98694515  119.23400116    0.67000002    2.55999994
   14.99027824  112.91400146    0.67000002    2.53999996
   14.99166679  122.19699860    0.67000002    2.53999996
   14.99388885  120.20999908    0.67000002    2.55999994
   14.99722290  128.99600220    0.67000002    2.53999996
   15.00055599  122.06600189    0.67000002    2.53999996
   15.00361156  122.91899872    0.69000000    2.55999994
   15.00694466  118.07199860    0.67000002    2.53999996
   15.01027775  122.93499756    0.67000002    2.55999994
   15.01333332  113.76399994    0.67000002    2.55999994
   15.01666641  121.46199799    0.67000002    2.55999994
   15.01999950  126.89199829    0.67000002    2.53999996
   15.02583313  126.89199829    0.67000002    2.53999996
   15.02999973  126.58599854    0.69000000    2.55999994
   15.03305531  115.08200073    0.69000000    2.55999994
   15.03638935  117.14700317    0.70999998    2.53999996
   15.03972244  118.64399719    0.69000000    2.57999992
   15.04277802  117.95300293    0.67000002    2.55999994
   15.04611111  124.80999756    0.69000000    2.55999994
   15.04916668  108.66400146    0.69000000    2.55999994
   15.05249977  125.05100250    0.70999998    2.53999996
   15.05583382  115.55500031    0.69000000    2.55999994
   15.05833340  114.85900116    0.70999998    2.53999996
   15.05944443  115.53299713    0.70999998    2.53999996
   15.06277752  114.88800049    0.70999998    2.53999996
   15.06861115  114.88800049    0.70999998    2.53999996
   15.07277775  121.69799805    0.70999998    2.53999996
   15.07611084  121.71700287    0.70999998    2.53999996
   15.07916641  113.38899994    0.70999998    2.55999994
   15.08249950  118.97200012    0.73000002    2.53999996
   15.08583260  117.26200104    0.70999998    2.57999992
   15.08888817  116.48600006    0.69000000    2.55999994
   15.09166622  115.76899719    0.69000000    2.55999994
   15.09249973  119.59500122    0.69000000    2.55999994
   15.09583282  129.21099854    0.69000000    2.53999996
   15.09916592  124.91100311    0.69000000    2.53999996
   15.10222244  126.05799866    0.69000000    2.55999994
   15.10555553  116.66100311    0.69000000    2.53999996
   15.11138916  116.66100311    0.67000002    2.55999994
   15.11555576  135.54600525    0.67000002    2.55999994
   15.11888885  131.33999634    0.67000002    2.55999994
   15.12222195  122.00099945    0.64999998    2.55999994
   15.12500000  121.82900238    0.64999998    2.55999994
   15.12555599  129.62800598    0.64999998    2.55999994
   15.12888908  120.84899902    0.64999998    2.55999994
   15.13222218  116.84700012    0.64999998    2.55999994
   15.13527775  120.20200348    0.67000002    2.55999994
   15.13861084  116.12000275    0.64999998    2.55999994
   15.14194393  125.33499908    0.64999998    2.55999994
   15.14499950  114.20700073    0.67000002    2.55999994
   15.14833355  123.29900360    0.69000000    2.55999994
   15.15444374  123.29900360    0.70999998    2.55999994
   15.15833282  128.32099915    0.75000000    2.53999996
   15.16166592  116.52999878    0.76999998    2.55999994
   15.16499996  113.35199738    0.76999998    2.55999994
   15.16805553  118.53900146    0.79000002    2.55999994
   15.17138958  120.28399658    0.80000001    2.55999994
   15.17472267  124.23600006    0.81999999    2.55999994
   15.17777824  120.05699921    0.83999997    2.53999996
   15.18111134  117.85199738    0.83999997    2.53999996
   15.18444443  121.60800171    0.83999997    2.55999994
   15.18750000  116.08399963    0.86000001    2.55999994
   15.19083309  116.89299774    0.83999997    2.55999994
   15.19166660  125.92700195    0.83999997    2.55999994
   15.19722271  125.92700195    0.83999997    2.55999994
   15.20138836  121.59200287    0.83999997    2.55999994
   15.20444393  125.86900330    0.83999997    2.55999994
   15.20777798  124.64700317    0.81999999    2.55999994
   15.21111107  127.58000183    0.80000001    2.55999994
   15.21416664  112.26599884    0.80000001    2.55999994
   15.21749973  123.76799774    0.79000002    2.55999994
   15.22083282  120.05699921    0.79000002    2.55999994
   15.22388840  122.68699646    0.79000002    2.55999994
   15.22499943  132.84500122    0.76999998    2.57999992
   15.22749996  122.25599670    0.76999998    2.57999992
   15.23083305  119.67500305    0.76999998    2.55999994
   15.23416710  116.61100006    0.75000000    2.55999994
   15.24000072  116.61100006    0.75000000    2.55999994
   15.24416733  124.29299927    0.73000002    2.55999994
   15.24750042  128.04699707    0.73000002    2.55999994
   15.25055599  127.19000244    0.73000002    2.55999994
   15.25388908  115.97899628    0.70999998    2.55999994
   15.25722218  118.17800140    0.70999998    2.55999994
   15.25833321  113.38600159    0.70999998    2.55999994
   15.26083374  132.87899780    0.70999998    2.55999994
   15.26388931  120.17800140    0.70999998    2.55999994
   15.26722240  111.94599915    0.70999998    2.55999994
   15.27027798  122.88099670    0.69000000    2.55999994
   15.27361107  114.07800293    0.70999998    2.55999994
   15.27694416  129.54200745    0.70999998    2.55999994
   15.28277779  129.54200745    0.73000002    2.55999994
   15.28694534  126.19799805    0.73000002    2.55999994
   15.29027843  144.06100464    0.75000000    2.55999994
   15.29166698  129.09500122    0.75000000    2.55999994
   15.29416752  120.46499634    0.75000000    2.55999994
   15.29722309  121.42900085    0.76999998    2.55999994
   15.30055618  110.94699860    0.76999998    2.55999994
   15.30361176  122.91600037    0.79000002    2.55999994
   15.30694485  115.24900055    0.80000001    2.55999994
   15.31027794  115.26799774    0.80000001    2.55999994
   15.31333351  119.94400024    0.81999999    2.55999994
   15.31666660  114.65100098    0.81999999    2.55999994
   15.31999969  112.65399933    0.81999999    2.55999994
   15.34194374  109.56199646    0.76999998    2.55999994
   15.34249973  112.22100067    0.76999998    2.55999994
   15.34583282  115.00499725    0.76999998    2.55999994
   15.34888840  121.11699677    0.75000000    2.55999994
   15.35222244  119.74400330    0.75000000    2.55999994
   15.35527802  119.65799713    0.73000002    2.53999996
   15.35833359  110.07099915    0.73000002    2.53999996
   15.35888958  117.50199890    0.70999998    2.55999994
   15.36222267  110.85099792    0.70999998    2.55999994
   15.36861134  110.85099792    0.69000000    2.55999994
   15.37277794  121.29599762    0.67000002    2.55999994
   15.37583351  125.63500214    0.67000002    2.55999994
   15.37916660  120.16100311    0.64999998    2.55999994
   15.38249969  101.75499725    0.63000000    2.55999994
   15.38555527  111.90299988    0.63000000    2.57999992
   15.38888836  120.61100006    0.63000000    2.55999994
   15.39166641  127.90399933    0.64999998    2.55999994
   15.39249992  126.88500214    0.69000000    2.57999992
   15.39583302  122.85600281    0.69000000    2.55999994
   15.39916611  120.45300293    0.69000000    2.57999992
   15.40222168   -1.00000000    0.73000002    2.55999994
   15.40555477   -1.00000000    0.75000000    2.55999994
   15.49250031   -1.00000000   -1.00000000   -1.00000000
   15.69638920   -1.00000000   -1.00000000   -1.00000000
   15.80472279   -1.00000000   -1.00000000   -1.00000000
   15.91166592   77.69950104    0.55000001    2.57999992
   15.91499996  116.84400177    0.55000001    2.57999992
   15.91833401  119.00900269    0.55000001    2.57999992
   15.92138958  121.67500305    0.56999999    2.57999992
   15.92472267  123.41100311    0.56999999    2.59999990
   15.92805576  129.40800476    0.56999999    2.59999990
   15.93222237  129.40800476    0.56999999    2.59999990
   15.93611145  120.05100250    0.56999999    2.59999990
   15.93944454  128.42700195    0.58999997    2.57999992
   15.94277763  121.91699982    0.61000001    2.57999992
   15.94499969  129.11900330    0.61000001    2.57999992
   15.94638920  131.00199890    0.58999997    2.57999992
   15.94944477  120.92800140    0.58999997    2.57999992
   15.95277786  127.51000214    0.56999999    2.61999989
   15.95611095  120.33499908    0.56999999    2.59999990
   15.95916653  128.54699707    0.56999999    2.59999990
   15.96249962  123.56700134    0.58999997    2.59999990
   15.96583271  110.49299622    0.58999997    2.57999992
   15.96888828  124.15399933    0.61000001    2.57999992
   15.97499943  124.15399933    0.61000001    2.59999990
   15.97916603  118.78299713    0.61000001    2.57999992
   15.98222160  119.14299774    0.61000001    2.59999990
   15.98555565  121.72899628    0.61000001    2.59999990
   15.98888874  120.99400330    0.61000001    2.57999992
   15.99194431  122.20400238    0.61000001    2.57999992
   15.99527836  108.87000275    0.61000001    2.59999990
   15.99833393  114.08000183    0.61000001    2.59999990
   16.00166702  109.00099945    0.61000001    2.59999990
   16.00499916  106.75099945    0.64999998    2.59999990
   16.00805473  112.24299622    0.63000000    2.59999990
   16.01138878  111.78299713    0.64999998    2.59999990
   16.01222229  107.65200043    0.64999998    2.59999990
   16.01777840  107.65200043    0.67000002    2.57999992
   16.02194405  111.72899628    0.73000002    2.59999990
   16.02527809  119.47699738    0.73000002    2.57999992
   16.02833366  109.72899628    0.73000002    2.57999992
   16.03166580  115.72100067    0.75000000    2.57999992
   16.03472137  116.48500061    0.75000000    2.57999992
   16.03805542  116.24400330    0.76999998    2.59999990
   16.04138756  110.17199707    0.76999998    2.59999990
   16.04444313  107.34799957    0.79000002    2.57999992
   16.04527664  100.99500275    0.80000001    2.59999990
   16.04833221  112.27400208    0.80000001    2.59999990
   16.05138779  113.02999878    0.80000001    2.59999990
   16.05472183  109.18699646    0.80000001    2.55999994
   16.06055450  109.18699646    0.81999999    2.59999990
   16.06472206  108.51699829    0.83999997    2.57999992
   16.06805611  114.82700348    0.83999997    2.57999992
   16.07139015  118.19899750    0.83999997    2.59999990
   16.07444572  112.76499939    0.83999997    2.57999992
   16.07777786  114.99099731    0.83999997    2.57999992
   16.07861137  114.63099670    0.83999997    2.57999992
   16.08139038  113.58599854    0.83999997    2.57999992
   16.08444595  113.30500031    0.83999997    2.59999990
   16.08833313  117.23100281    0.86000001    2.59999990
   16.09166718  114.51300049    0.86000001    2.57999992
   16.09500122  113.62200165    0.88000000    2.57999992
   16.09805679  120.19400024    0.88000000    2.57999992
   16.10361099  120.19400024    0.88000000    2.59999990
   16.10750008  117.48000336    0.88000000    2.57999992
   16.11083412  121.72499847    0.86000001    2.57999992
   16.11194420  113.25499725    0.86000001    2.57999992
   16.11472321  107.07399750    0.86000001    2.59999990
   16.11777878  115.65699768    0.86000001    2.57999992
   16.12111092  115.27700043    0.86000001    2.57999992
   16.12416649  112.83499908    0.86000001    2.57999992
   16.12750053  115.53399658    0.86000001    2.59999990
   16.13083267  107.71700287    0.86000001    2.57999992
   16.13388824  110.82199860    0.86000001    2.59999990
   16.13722229  113.37899780    0.88000000    2.57999992
   16.14055634  110.12300110    0.86000001    2.59999990
   16.14638901  110.12300110    0.83999997    2.57999992
   16.15055466  118.88200378    0.83999997    2.59999990
   16.15361023  118.56400299    0.83999997    2.59999990
   16.15694427  114.17099762    0.83999997    2.59999990
   16.16027832  111.72399902    0.83999997    2.59999990
   16.16333389  110.89099884    0.83999997    2.59999990
   16.16666603  109.53600311    0.83999997    2.59999990
   16.17000008  116.47499847    0.83999997    2.59999990
   16.17305565  107.77899933    0.83999997    2.59999990
   16.17638779  116.65599823    0.83999997    2.59999990
   16.17860985  114.98500061    0.83999997    2.59999990
   16.18000031  116.01599884    0.83999997    2.59999990
   16.18305397  109.49600220    0.83999997    2.59999990
   16.18916512  109.49600220    0.81999999    2.57999992
   16.19361115  115.09500122    0.80000001    2.59999990
   16.19666672  109.79000092    0.79000002    2.57999992
   16.20000076  112.74700165    0.79000002    2.57999992
   16.20305634  109.62699890    0.76999998    2.57999992
   16.20639038  109.19799805    0.76999998    2.59999990
   16.20972252  111.36299896    0.75000000    2.59999990
   16.21194458  110.81099701    0.75000000    2.57999992
   16.21333504  103.58100128    0.75000000    2.57999992
   16.21638870  112.91000366    0.75000000    2.57999992
   16.21972275  105.36499786    0.75000000    2.57999992
   16.22305679  107.71499634    0.75000000    2.59999990
   16.22611237  106.10900116    0.75000000    2.57999992
   16.23194504  106.10900116    0.76999998    2.57999992
   16.23611069  114.43699646    0.76999998    2.59999990
   16.23944473  107.49500275    0.75000000    2.57999992
   16.24250031  112.29100037    0.76999998    2.59999990
   16.24527740  114.95800018    0.76999998    2.59999990
   16.24638939  113.20800018    0.76999998    2.59999990
   16.24944496  105.65499878    0.76999998    2.57999992
   16.25277710  113.59700012    0.76999998    2.59999990
   16.25611115  115.25599670    0.76999998    2.59999990
   16.25916672  112.51799774    0.75000000    2.59999990
   16.26250076  114.84600067    0.76999998    2.57999992
   16.26555634  110.78299713    0.76999998    2.59999990
   16.26888847  107.96600342    0.75000000    2.59999990
   16.27499962  107.96600342    0.76999998    2.59999990
   16.27888870  104.48699951    0.76999998    2.59999990
   16.28222275  118.19100189    0.76999998    2.59999990
   16.28555489  105.35600281    0.75000000    2.59999990
   16.28861046  112.17099762    0.75000000    2.59999990
   16.29194450  105.18199921    0.75000000    2.59999990
   16.29527664  104.30000305    0.75000000    2.57999992
   16.29833221  106.79100037    0.73000002    2.59999990
   16.30166626  106.76999664    0.73000002    2.59999990
   16.30472183  108.04799652    0.70999998    2.59999990
   16.30805397  114.53299713    0.70999998    2.59999990
   16.31138802  114.82399750    0.70999998    2.59999990
   16.31194305  108.64700317    0.70999998    2.59999990
   16.31777954  108.64700317    0.70999998    2.59999990
   16.32194519  104.77899933    0.70999998    2.57999992
   16.32500076  108.54499817    0.70999998    2.59999990
   16.32833481  105.64099884    0.70999998    2.59999990
   16.33166695  108.62799835    0.70999998    2.57999992
   16.33500099  103.81700134    0.70999998    2.57999992
   16.33805656  110.59400177    0.69000000    2.59999990
   16.34138870  105.81900024    0.70999998    2.59999990
   16.34444427  105.45400238    0.69000000    2.59999990
   16.34527779  114.73999786    0.69000000    2.59999990
   16.34833336  115.46399689    0.69000000    2.59999990
   16.35138893  109.60299683    0.70999998    2.59999990
   16.35472298  114.91699982    0.70999998    2.57999992
   16.36055565  114.91699982    0.70999998    2.59999990
   16.36472321  104.31600189    0.70999998    2.61999989
   16.36805534  109.56999969    0.70999998    2.57999992
   16.37111092  115.54699707    0.69000000    2.59999990
   16.37444496  107.82599640    0.69000000    2.61999989
   16.37750053  112.88200378    0.69000000    2.59999990
   16.37861061  110.68499756    0.69000000    2.59999990
   16.38138962  117.71299744    0.70999998    2.59999990
   16.38444519  112.03800201    0.70999998    2.59999990
   16.38777733  105.31099701    0.70999998    2.59999990
   16.39111137  111.67099762    0.70999998    2.59999990
   16.39416695  103.47399902    0.70999998    2.59999990
   16.39749908  107.47699738    0.70999998    2.59999990
   16.40333366  107.47699738    0.73000002    2.59999990
   16.40749931  118.56999969    0.69000000    2.59999990
   16.41083336  110.99900055    0.69000000    2.59999990
   16.41194344  118.75900269    0.67000002    2.59999990
   16.41444397  115.59600067    0.67000002    2.59999990
   16.41777802  106.81800079    0.70999998    2.59999990
   16.42083359  114.37000275    0.81999999    2.59999990
   16.42416573  103.39199829    0.81999999    2.59999990
   16.42722130  103.74600220    0.75000000    2.59999990
   16.43055534  109.38999939    0.75000000    2.59999990
   16.43388748  101.57700348    0.75000000    2.59999990
   16.43694305  121.68599701    0.75000000    2.59999990
   16.44027710  120.80200195    0.75000000    2.59999990
   16.44610977  120.80200195    0.75000000    2.59999990
   16.45027924  103.31999969    0.75000000    2.57999992
   16.45361137  120.88999939    0.75000000    2.59999990
   16.45694542  108.48200226    0.76999998    2.59999990
   16.46000099  111.82700348    0.76999998    2.59999990
   16.46333504  108.32700348    0.76999998    2.59999990
   16.46638870  106.00199890    0.76999998    2.59999990
   16.46972275  112.03399658    0.76999998    2.59999990
   16.47305679  114.80799866    0.76999998    2.59999990
   16.47611237  121.68199921    0.76999998    2.59999990
   16.47861099  107.16000366    0.79000002    2.59999990
   16.48000145  105.74700165    0.79000002    2.59999990
   16.48305511  113.97399902    0.79000002    2.59999990
   16.48916626  113.97399902    0.80000001    2.59999990
   16.49333382  109.76300049    0.80000001    2.59999990
   16.49638939  109.36799622    0.79000002    2.61999989
   16.49972153  109.90399933    0.79000002    2.61999989
   16.50305557  109.35099792    0.79000002    2.59999990
   16.50611115  118.81999969    0.76999998    2.59999990
   16.50944519  107.34999847    0.79000002    2.59999990
   16.51194382  111.05200195    0.80000001    2.59999990
   16.51305580  113.67700195    0.80000001    2.59999990
   16.51638794  104.78800201    0.80000001    2.57999992
   16.51944351  103.01399994    0.80000001    2.57999992
   16.52277756  115.71800232    0.80000001    2.59999990
   16.52583313  112.57499695    0.80000001    2.59999990
   16.53194427  112.57499695    0.80000001    2.59999990
   16.53610992  106.42900085    0.80000001    2.61999989
   16.53916550  106.19000244    0.80000001    2.59999990
   16.54249954  108.05799866    0.80000001    2.59999990
   16.54527664  113.16600037    0.79000002    2.59999990
   16.54611015  116.23200226    0.79000002    2.59999990
   16.54916573  110.75599670    0.79000002    2.59999990
   16.55249977  115.02999878    0.79000002    2.59999990
   16.55583191  114.72599792    0.79000002    2.59999990
   16.55888748  110.81199646    0.76999998    2.61999989
   16.56222153  110.95999908    0.76999998    2.59999990
   16.56555557  117.45700073    0.76999998    2.59999990
   16.56861115  113.11799622    0.76999998    2.59999990
   16.57472229  113.11799622    0.76999998    2.59999990
   16.57888985  106.33599854    0.76999998    2.59999990
   16.58222389  102.57499695    0.76999998    2.61999989
   16.58527756  119.97499847    0.75000000    2.59999990
   16.58861160  117.62699890    0.75000000    2.59999990
   16.59194565  104.22100067    0.73000002    2.59999990
   16.59500122  117.54799652    0.70999998    2.59999990
   16.59833336  110.58899689    0.70999998    2.59999990
   16.60166740  115.52400208    0.69000000    2.59999990
   16.60472298  110.32099915    0.69000000    2.59999990
   16.60805511  110.09700012    0.69000000    2.61999989
   16.61138916  116.61299896    0.69000000    2.57999992
   16.61194420  118.98799896    0.69000000    2.57999992
   16.61750031  118.98799896    0.69000000    2.61999989
   16.62166595  109.92400360    0.69000000    2.59999990
   16.62500000  108.99700165    0.69000000    2.59999990
   16.62833405  112.31199646    0.70999998    2.59999990
   16.63138962  106.77999878    0.70999998    2.59999990
   16.63472176  114.92900085    0.70999998    2.61999989
   16.63777733  108.80999756    0.70999998    2.59999990
   16.64111137  111.54799652    0.73000002    2.59999990
   16.64444351  110.31099701    0.73000002    2.59999990
   16.64527702  111.70300293    0.73000002    2.59999990
   16.64805603  105.53399658    0.73000002    2.59999990
   16.65111160  117.70200348    0.73000002    2.59999990
   16.65444374  114.70800018    0.75000000    2.61999989
   16.66055489  114.70800018    0.75000000    2.61999989
   16.66472244  112.96499634    0.75000000    2.61999989
   16.66777802  116.19200134    0.75000000    2.61999989
   16.67111015  120.48600006    0.76999998    2.59999990
   16.67444420  120.04699707    0.79000002    2.59999990
   16.67749977  119.06900024    0.79000002    2.61999989
   16.67860985  119.88899994    0.79000002    2.61999989
   16.68111038  117.18299866    0.81999999    2.59999990
   16.68444443  116.16799927    0.83999997    2.59999990
   16.68750000  110.17199707    0.81999999    2.59999990
   16.69083214  111.91400146    0.81999999    2.59999990
   16.69388771  119.94200134    0.81999999    2.59999990
   16.69722176  115.92400360    0.81999999    2.59999990
   16.70333481  115.92400360    0.81999999    2.59999990
   16.70750046  104.95500183    0.83999997    2.61999989
   16.71055603  100.04000092    0.83999997    2.61999989
   16.71194458   96.16840363    0.83999997    2.59999990
   16.71444511  106.85500336    0.83999997    2.59999990
   16.71777916   96.60109711    0.83999997    2.59999990
   16.72083473  111.15799713    0.83999997    2.59999990
   16.72416687  105.35099792    0.83999997    2.59999990
   16.72722244  104.95700073    0.83999997    2.59999990
   16.73055649  111.36199951    0.83999997    2.59999990
   16.73388863  117.58300018    0.83999997    2.57999992
   16.73694420  108.09100342    0.83999997    2.57999992
   16.74027824   99.83429718    0.83999997    2.57999992
   16.74611092   99.83429718    0.86000001    2.59999990
   16.75027847  110.90000153    0.86000001    2.59999990
   16.75361061  105.15100098    0.86000001    2.59999990
   16.75666618  101.96199799    0.86000001    2.59999990
   16.76000023  112.51100159    0.86000001    2.59999990
   16.76333427  109.65000153    0.88000000    2.59999990
   16.76638794  110.81300354    0.86000001    2.59999990
   16.76972198   99.41840363    0.86000001    2.59999990
   16.77277756  111.21099854    0.86000001    2.59999990
   16.77611160  108.52700043    0.86000001    2.59999990
   16.77861023  104.11199951    0.86000001    2.59999990
   16.77972221  102.15200043    0.83999997    2.59999990
   16.78305435  101.23799896    0.83999997    2.59999990
   16.78888893  101.23799896    0.83999997    2.59999990
   16.79305458   99.97830200    0.81999999    2.57999992
   16.79638863   98.55519867    0.81999999    2.59999990
   16.79972076  106.19200134    0.83999997    2.59999990
   16.80277634   97.58619690    0.83999997    2.59999990
   16.80611038  104.98699951    0.83999997    2.59999990
   16.80916595  110.16300201    0.83999997    2.59999990
   16.81194305  102.75499725    0.83999997    2.59999990
   16.81305504  109.41999817    0.83999997    2.59999990
   16.81638718  107.68800354    0.83999997    2.59999990
   16.81944466  102.53600311    0.83999997    2.59999990
   16.82277870  112.48999786    0.83999997    2.59999990
   16.82583427  104.49299622    0.83999997    2.59999990
   16.83194542  104.49299622    0.83999997    2.59999990
   16.83611107  105.74700165    0.86000001    2.59999990
   16.83944511  101.14600372    0.86000001    2.59999990
   16.84277916  104.20099640    0.86000001    2.59999990
   16.84527779  100.76000214    0.86000001    2.59999990
   16.84638977  104.88700104    0.88000000    2.59999990
   16.84972191  110.31800079    0.88000000    2.59999990
   16.85277748  102.69300079    0.88000000    2.59999990
   16.85611153  111.00599670    0.88000000    2.59999990
   16.85944557  106.32099915    0.86000001    2.59999990
   16.86250114  113.96299744    0.86000001    2.61999989
   16.86583328  106.18699646    0.86000001    2.59999990
   16.86888885  115.20800018    0.86000001    2.59999990
   16.87472153  115.20800018    0.86000001    2.59999990
   16.87888908  106.63800049    0.86000001    2.59999990
   16.88194466  102.67400360    0.86000001    2.59999990
   16.88527679  105.31600189    0.86000001    2.59999990
   16.88861084  103.65899658    0.86000001    2.59999990
   16.89166641  109.18599701    0.83999997    2.61999989
   16.89500046   98.06500244    0.83999997    2.59999990
   16.89833260  109.23100281    0.83999997    2.61999989
   16.90138817  110.60299683    0.81999999    2.61999989
   16.90472221  110.62599945    0.81999999    2.61999989
   16.90777779  107.14199829    0.81999999    2.59999990
   16.91110992  103.28199768    0.80000001    2.59999990
   16.91194344  113.40699768    0.80000001    2.59999990
   16.93277740  113.40699768    0.80000001    2.59999990
   16.93694305  106.65799713    0.79000002    2.59999990
   16.94027710   99.65019989    0.79000002    2.59999990
   16.94333267   96.03230286    0.76999998    2.59999990
   16.94527626  103.72399902    0.76999998    2.59999990
   16.94694328  102.84200287    0.76999998    2.59999990
   16.95027924   98.72779846    0.79000002    2.61999989
   16.95333481   98.88809967    0.76999998    2.59999990
   16.95666695  105.46199799    0.79000002    2.64000010
   16.96000099  102.90100098    0.79000002    2.57999992
   16.96305656  106.03900146    0.80000001    2.59999990
   16.96638870   94.61229706    0.81999999    2.59999990
   16.96972275  103.10299683    0.81999999    2.59999990
   16.97555542  103.10299683    0.83999997    2.59999990
   16.97972298  106.86299896    0.83999997    2.61999989
   16.98277855  105.76399994    0.86000001    2.59999990
   16.98611069  105.59700012    0.86000001    2.57999992
   16.98944473  102.08899689    0.86000001    2.57999992
   16.99250031  110.80000305    0.86000001    2.59999990
   16.99611092  105.29599762    0.83999997    2.59999990
   16.99916649  102.64600372    0.80000001    2.59999990
   17.00250053   98.16699982    0.80000001    2.59999990
   17.00555611  100.16600037    0.80000001    2.57999992
   17.00888824   98.58280182    0.79000002    2.59999990
   17.01194382  102.04699707    0.76999998    2.59999990
   17.01250076  103.23300171    0.76999998    2.59999990
   17.01833344  103.23300171    0.79000002    2.59999990
   17.02249908  108.12899780    0.76999998    2.59999990
   17.02583313  108.11100006    0.76999998    2.59999990
   17.02888870   98.43990326    0.76999998    2.59999990
   17.03222275  106.69100189    0.75000000    2.59999990
   17.03555489  106.75000000    0.75000000    2.59999990
   17.03861046  102.89900208    0.73000002    2.59999990
   17.04194450  104.27200317    0.73000002    2.59999990
   17.04500008  101.05400085    0.75000000    2.61999989
   17.04555511  102.57399750    0.75000000    2.61999989
   17.04888916  112.93800354    0.75000000    2.59999990
   17.05222130  105.69100189    0.76999998    2.61999989
   17.05527687  101.34400177    0.76999998    2.61999989
   17.06110954  101.34400177    0.76999998    2.61999989
   17.06527710   95.97949982    0.76999998    2.59999990
   17.06861115   99.92510223    0.76999998    2.59999990
   17.07194519  100.26000214    0.76999998    2.61999989
   17.07500076   90.01560211    0.76999998    2.59999990
   17.07833481   98.72650146    0.76999998    2.61999989
   17.07888985  100.58100128    0.76999998    2.61999989
   17.08194542  110.85700226    0.76999998    2.59999990
   17.08527756  110.30699921    0.79000002    2.59999990
   17.08861160  117.62899780    0.79000002    2.59999990
   17.09166718  106.86599731    0.76999998    2.59999990
   17.09500122  101.67700195    0.76999998    2.59999990
   17.09833336  105.74500275    0.76999998    2.59999990
   17.10416794  105.74500275    0.75000000    2.59999990
   17.10833359  111.00800323    0.73000002    2.59999990
   17.11166763  101.33499908    0.75000000    2.59999990
   17.11222267  100.52100372    0.75000000    2.59999990
   17.11527824  111.63099670    0.73000002    2.59999990
   17.11861038  109.88200378    0.73000002    2.59999990
   17.12166595   96.16079712    0.73000002    2.59999990
   17.12500000  109.64900208    0.73000002    2.59999990
   17.12833405  105.28299713    0.73000002    2.59999990
   17.13138962  109.88300323    0.75000000    2.59999990
   17.13472176  102.85199738    0.75000000    2.59999990
   17.13777733  102.49199677    0.75000000    2.59999990
   17.14111137   89.91149902    0.75000000    2.59999990
   17.14694405   89.91149902    0.76999998    2.59999990
   17.15111160  110.40799713    0.76999998    2.59999990
   17.15416718  110.34700012    0.76999998    2.61999989
   17.15749931  102.01699829    0.79000002    2.57999992
   17.16083336  111.39600372    0.79000002    2.59999990
   17.16388893   97.96520233    0.79000002    2.59999990
   17.16722107  105.72200012    0.79000002    2.59999990
   17.17055511  105.63400269    0.79000002    2.57999992
   17.17361069  108.21700287    0.79000002    2.61999989
   17.17694473  103.15499878    0.79000002    2.59999990
   17.17888832  101.91500092    0.79000002    2.59999990
   17.18055534  102.31099701    0.79000002    2.59999990
   17.18388748  101.71700287    0.76999998    2.59999990
   17.18972206  101.71700287    0.76999998    2.61999989
   17.19388771  102.03700256    0.75000000    2.59999990
   17.19722176   99.63749695    0.75000000    2.59999990
   17.20027924  101.37400055    0.73000002    2.59999990
   17.20361137  102.96399689    0.73000002    2.57999992
   17.20694542  104.16400146    0.73000002    2.61999989
   17.21000099   99.26429749    0.73000002    2.59999990
   17.21222305  112.21199799    0.73000002    2.59999990
   17.21361160  110.08599854    0.73000002    2.59999990
   17.21694565  102.66899872    0.73000002    2.57999992
   17.22000122  105.75399780    0.73000002    2.57999992
   17.22333336  102.08399963    0.75000000    2.59999990
   17.22666740  107.79399872    0.75000000    2.59999990
   17.23250008  107.79399872    0.75000000    2.61999989
   17.23666763  103.60399628    0.76999998    2.59999990
   17.23999977  110.55300140    0.76999998    2.61999989
   17.24333382  105.86699677    0.76999998    2.61999989
   17.24555588  102.38899994    0.75000000    2.61999989
   17.24694443  103.98799896    0.75000000    2.61999989
   17.25027847  100.56300354    0.75000000    2.59999990
   17.25333405  108.67900085    0.75000000    2.57999992
   17.25666618   98.70169830    0.73000002    2.59999990
   17.26000023   92.35949707    0.73000002    2.59999990
   17.26305580   97.78070068    0.70999998    2.59999990
   17.26638794  104.46399689    0.70999998    2.59999990
   17.26972198  111.64900208    0.70999998    2.59999990
   17.27555466  111.64900208    0.67000002    2.59999990
   17.27972221  102.85800171    0.67000002    2.59999990
   17.28277779  101.08799744    0.64999998    2.59999990
   17.28610992  108.24299622    0.64999998    2.61999989
   17.28944397   95.77330017    0.64999998    2.61999989
   17.29249954   97.36180115    0.64999998    2.59999990
   17.29583359  100.18499756    0.63000000    2.59999990
   17.29888916   97.02140045    0.63000000    2.59999990
   17.30222130  102.77400208    0.63000000    2.59999990
   17.30555534  106.94899750    0.64999998    2.59999990
   17.30861092  100.17400360    0.64999998    2.59999990
   17.31194305  112.64600372    0.64999998    2.59999990
   17.31250000   98.59989929    0.67000002    2.59999990
   17.31833458   98.59989929    0.70999998    2.59999990
   17.32250023   97.44950104    0.75000000    2.59999990
   17.32555580  104.58799744    0.79000002    2.57999992
   17.32888985  104.29900360    0.80000001    2.59999990
   17.33222389  101.99800110    0.81999999    2.59999990
   17.33527756  103.71600342    0.83999997    2.59999990
   17.33861160   97.62210083    0.83999997    2.59999990
   17.34194565   92.19239807    0.88000000    2.59999990
   17.34500122   90.64499664    0.89999998    2.59999990
   17.34583473  104.42800140    0.89999998    2.59999990
   17.34889030  105.93000031    0.94000000    2.57999992
   17.35194397  103.95200348    0.95999998    2.59999990
   17.35527802  110.46499634    0.95999998    2.59999990
   17.36111069  110.46499634    0.95999998    2.57999992
   17.36527824  101.92500305    0.95999998    2.57999992
   17.36861038  109.06700134    0.95999998    2.57999992
   17.37166595  101.15000153    0.88000000    2.59999990
   17.37500000   92.73239899    0.86000001    2.59999990
   17.37833405  102.26899719    0.86000001    2.59999990
   17.37916756   99.22940063    0.86000001    2.59999990
   17.38194466   95.66899872    0.88000000    2.59999990
   17.38500023  106.53900146    0.88000000    2.59999990
   17.38833237  103.14900208    0.88000000    2.59999990
   17.39138794  102.78900146    0.88000000    2.59999990
   17.39472198  101.89600372    0.89999998    2.57999992
   17.39805603  100.54100037    0.89999998    2.57999992
   17.40388870  100.54100037    0.88000000    2.59999990
   17.40805435  103.14600372    0.86000001    2.57999992
   17.41138840  102.66699982    0.86000001    2.59999990
   17.41250038  103.30699921    0.86000001    2.59999990
   17.41499901  103.65100098    0.86000001    2.59999990
   17.41805458  103.98600006    0.83999997    2.59999990
   17.42138863  103.00399780    0.83999997    2.57999992
   17.42444420  102.31500244    0.81999999    2.57999992
   17.42777634  102.44999695    0.80000001    2.61999989
   17.43111038   95.35649872    0.80000001    2.59999990
   17.43416595  106.04399872    0.80000001    2.59999990
   17.43750000  108.10199738    0.79000002    2.59999990
   17.44083214  102.02799988    0.76999998    2.59999990
   17.44694328  102.02799988    0.76999998    2.59999990
   17.45111275  104.57900238    0.76999998    2.59999990
   17.45416832  100.04599762    0.76999998    2.61999989
   17.45750046  109.94400024    0.76999998    2.61999989
   17.46055603   98.70539856    0.79000002    2.59999990
   17.46389008  101.21499634    0.79000002    2.59999990
   17.46722221  101.56900024    0.76999998    2.59999990
   17.47027779  101.30699921    0.75000000    2.57999992
   17.47361183   99.26180267    0.75000000    2.59999990
   17.47694588  103.70999908    0.75000000    2.59999990
   17.47916794  104.64099884    0.75000000    2.59999990
   17.48055649  106.45099640    0.75000000    2.59999990
   17.48361206  102.77100372    0.75000000    2.57999992
   17.48999977  102.77100372    0.75000000    2.59999990
   17.49388885  104.17400360    0.75000000    2.59999990
   17.49722290   98.63870239    0.75000000    2.59999990
   17.50055504  103.73799896    0.75000000    2.59999990
   17.50361061   99.20809937    0.75000000    2.57999992
   17.50694466  101.95800018    0.79000002    2.59999990
   17.51027870  102.95400238    0.79000002    2.59999990
   17.51250076  102.64299774    0.79000002    2.59999990
   17.51388931   97.53700256    0.79000002    2.59999990
   17.51694489  103.07599640    0.79000002    2.59999990
   17.52027702  101.61799622    0.79000002    2.59999990
   17.52361107  102.29900360    0.80000001    2.57999992
   17.52666664  105.23600006    0.80000001    2.59999990
   17.53249931  105.23600006    0.80000001    2.59999990
   17.53666687  101.73200226    0.81999999    2.59999990
   17.53999901  101.40299988    0.80000001    2.59999990
   17.54305458  100.66600037    0.80000001    2.61999989
   17.54583359   97.51560211    0.80000001    2.59999990
   17.54694366  100.25900269    0.80000001    2.59999990
   17.54999924   99.38950348    0.80000001    2.59999990
   17.55333328   99.09079742    0.80000001    2.59999990
   17.55666542  104.48300171    0.80000001    2.59999990
   17.55972099  101.17600250    0.80000001    2.59999990
   17.56305504  101.80500031    0.79000002    2.57999992
   17.56611061  104.14499664    0.76999998    2.59999990
   17.56944466  111.99400330    0.76999998    2.57999992
   17.57527924  111.99400330    0.79000002    2.57999992
   17.57944489  102.21900177    0.80000001    2.57999992
   17.58277893  104.73300171    0.83999997    2.59999990
   17.58611107   98.98000336    0.86000001    2.61999989
   17.58916664   99.35359955    0.86000001    2.61999989
   17.59250069  109.51200104    0.81999999    2.57999992
   17.59555626   96.12909698    0.83999997    2.59999990
   17.59889030  101.92600250    0.79000002    2.59999990
   17.60222244  104.09400177    0.75000000    2.59999990
   17.60555649  102.56400299    0.75000000    2.59999990
   17.60861206  102.06700134    0.75000000    2.59999990
   17.61194420  109.65699768    0.73000002    2.59999990
   17.61250114  104.62100220    0.73000002    2.59999990
   17.61833382  104.62100220    0.73000002    2.59999990
   17.62249947   99.48729706    0.70999998    2.59999990
   17.62583351  100.05100250    0.69000000    2.59999990
   17.62888908  112.44400024    0.67000002    2.59999990
   17.63222313  104.39900208    0.67000002    2.57999992
   17.63527679  103.13800049    0.67000002    2.57999992
   17.63861084  108.14700317    0.64999998    2.59999990
   17.64194489   96.27839661    0.64999998    2.59999990
   17.64500046  101.42199707    0.67000002    2.59999990
   17.64583397  107.07099915    0.67000002    2.59999990
   17.64888954  101.63899994    0.67000002    2.57999992
   17.65194321  104.04799652    0.67000002    2.59999990
   17.65527725   96.68289948    0.67000002    2.57999992
   17.66110992   96.68289948    0.67000002    2.59999990
   17.66527748   93.83689880    0.67000002    2.59999990
   17.66833305   96.10109711    0.64999998    2.59999990
   17.67166519   97.24949646    0.64999998    2.59999990
   17.67499924   97.20200348    0.69000000    2.59999990
   17.67805481   99.33769989    0.70999998    2.57999992
   17.67916679  105.84700012    0.70999998    2.57999992
   17.68194389   99.03220367    0.73000002    2.57999992
   17.68499947   99.35140228    0.75000000    2.59999990
   17.68833160   97.71469879    0.75000000    2.59999990
   17.69166565   96.56079865    0.76999998    2.59999990
   17.69472122   99.92839813    0.79000002    2.59999990
   17.69805527   99.56870270    0.80000001    2.57999992
   17.70388985   99.56870270    0.81999999    2.59999990
   17.70805550  102.78800201    0.83999997    2.59999990
   17.71138954  100.09799957    0.83999997    2.59999990
   17.71250153  105.32299805    0.86000001    2.59999990
   17.71500015   98.98159790    0.86000001    2.59999990
   17.71805573  100.11000061    0.88000000    2.59999990
   17.72138977  103.28199768    0.89999998    2.59999990
   17.72472191  105.38400269    0.89999998    2.59999990
   17.72777748   99.99620056    0.89999998    2.57999992
   17.73111153   98.54010010    0.89999998    2.59999990
   17.73416710  104.97699738    0.89999998    2.59999990
   17.73750114  103.73799896    0.89999998    2.57999992
   17.74083328   96.38490295    0.89999998    2.57999992
   17.74666786   96.38490295    0.89999998    2.57999992
   17.75083351   98.14620209    0.92000002    2.57999992
   17.75416756  104.26799774    0.94000000    2.57999992
   17.75722313  100.10800171    0.94000000    2.55999994
   17.76055527  101.15499878    0.94000000    2.55999994
   17.76388931  102.77899933    0.94000000    2.57999992
   17.76694489  103.25599670    0.95999998    2.57999992
   17.77027702  100.10900116    0.94000000    2.57999992
   17.77361107   98.17320251    0.94000000    2.55999994
   17.77666664  100.96700287    0.92000002    2.57999992
   17.77916718  102.25199890    0.92000002    2.57999992
   17.78055573   98.38710022    0.89999998    2.57999992
   17.78388786   99.82460022    0.88000000    2.57999992
   17.78972244   99.82460022    0.83999997    2.57999992
   17.79388809  101.05400085    0.81999999    2.57999992
   17.79694366  100.30599976    0.80000001    2.57999992
   17.80027771  103.42500305    0.79000002    2.59999990
   17.80333328   97.27549744    0.79000002    2.59999990
   17.80666542   99.53150177    0.80000001    2.57999992
   17.80999947  102.15899658    0.80000001    2.57999992
   17.81250000  101.88600159    0.80000001    2.57999992
   17.81361008   99.98580170    0.80000001    2.57999992
   17.81666756   98.33110046    0.80000001    2.57999992
   17.82000160  117.11799622    0.79000002    2.57999992
   17.82333374  104.28399658    0.79000002    2.57999992
   17.82638931  102.53600311    0.76999998    2.59999990
   17.83250046  102.53600311    0.76999998    2.59999990
   17.83666801   99.72350311    0.75000000    2.57999992
   17.84000015  102.46099854    0.73000002    2.57999992
   17.84333420  102.84799957    0.70999998    2.57999992
   17.84611130  100.56400299    0.70999998    2.57999992
   17.84694481  102.60399628    0.69000000    2.57999992
   17.85027885  100.28600311    0.69000000    2.57999992
   17.85361099  102.80799866    0.69000000    2.59999990
   17.85666656  102.23999786    0.69000000    2.57999992
   17.86000061  103.26999664    0.69000000    2.59999990
   17.86305618  101.91300201    0.70999998    2.57999992
   17.86638832  103.24199677    0.70999998    2.57999992
   17.86972237  100.94599915    0.70999998    2.57999992
   17.87527847  100.94599915    0.73000002    2.59999990
   17.87944412  102.33200073    0.73000002    2.57999992
   17.88277817   93.13310242    0.76999998    2.57999992
   17.88583374   99.63169861    0.76999998    2.57999992
   17.88916588  105.55200195    0.79000002    2.59999990
   17.89222145  103.11900330    0.79000002    2.57999992
   17.89555550  103.97399902    0.81999999    2.55999994
   17.89888954  101.10500336    0.83999997    2.57999992
   17.90222168  102.50399780    0.83999997    2.57999992
   17.90555573   99.64129639    0.83999997    2.57999992
   17.90861130  102.54399872    0.83999997    2.57999992
   17.91194344  100.76899719    0.88000000    2.55999994
   17.91250038   97.66249847    0.88000000    2.55999994
   17.91805458   97.66249847    0.88000000    2.55999994
   17.92222214  101.05799866    0.86000001    2.57999992
   17.92555428   98.84279633    0.86000001    2.57999992
   17.92888832  104.45099640    0.86000001    2.57999992
   17.94638824   98.67859650    0.76999998    2.57999992
   17.94888878   96.93930054    0.75000000    2.57999992
   17.95194435  102.76200104    0.75000000    2.57999992
   17.95527840   99.15579987    0.73000002    2.57999992
   17.96111107   99.15579987    0.73000002    2.57999992
   17.96527863   96.35690308    0.75000000    2.57999992
   17.96861076   99.22280121    0.75000000    2.57999992
   17.97166634  104.55999756    0.73000002    2.57999992
   17.97500038  105.09400177    0.73000002    2.57999992
   17.97833443   95.56999969    0.73000002    2.57999992
   17.97944450   98.38059998    0.73000002    2.57999992
   17.98194504   97.21299744    0.75000000    2.57999992
   17.98527718   95.93949890    0.75000000    2.55999994
   17.98833275   98.94830322    0.75000000    2.57999992
   17.99166679   97.55069733    0.75000000    2.59999990
   17.99500084  100.45300293    0.76999998    2.55999994
   17.99805641  100.23699951    0.79000002    2.57999992
   18.00388908  100.23699951    0.79000002    2.57999992
   18.00805473  102.13300323    0.80000001    2.55999994
   18.01138878   99.40840149    0.81999999    2.57999992
   18.01305580  103.42199707    0.81999999    2.57999992
   18.01499939   98.09120178    0.81999999    2.57999992
   18.01833344  102.51200104    0.81999999    2.55999994
   18.02138901   96.75520325    0.80000001    2.59999990
   18.02472115  100.22100067    0.79000002    2.57999992
   18.02805519  101.11799622    0.76999998    2.57999992
   18.03111076  100.99299622    0.75000000    2.55999994
   18.03444481   97.50659943    0.75000000    2.55999994
   18.03777695  100.30500031    0.75000000    2.55999994
   18.04083252  105.32199860    0.76999998    2.55999994
   18.04694366  105.32199860    0.76999998    2.57999992
   18.05111122  106.36000061    0.76999998    2.57999992
   18.05416679  104.84500122    0.76999998    2.57999992
   18.05749893  104.18800354    0.76999998    2.55999994
   18.06083298  100.03800201    0.76999998    2.55999994
   18.06388855  102.26100159    0.76999998    2.55999994
   18.06722260  102.08999634    0.76999998    2.55999994
   18.07027817   99.37069702    0.75000000    2.55999994
   18.07361221   98.94819641    0.75000000    2.55999994
   18.07694626  105.15899658    0.73000002    2.57999992
   18.07972336  104.92400360    0.75000000    2.57999992
   18.08055687  103.11499786    0.75000000    2.57999992
   18.08388901  104.77200317    0.76999998    2.55999994
   18.08972359  104.77200317    0.79000002    2.57999992
   18.09388924  102.66899872    0.80000001    2.53999996
   18.09722328  103.32199860    0.83999997    2.55999994
   18.10027885  106.19799805    0.81999999    2.55999994
   18.10361099  103.92299652    0.80000001    2.57999992
   18.10666656   97.22149658    0.80000001    2.57999992
   18.11000061   99.69750214    0.75000000    2.57999992
   18.11305618   90.73400116    0.75000000    2.55999994
   18.11361122  100.32099915    0.75000000    2.55999994
   18.11694527   99.03949738    0.75000000    2.57999992
   18.12027740  104.78700256    0.73000002    2.55999994
   18.12361145  101.33999634    0.73000002    2.55999994
   18.12666702  111.27799988    0.73000002    2.55999994
   18.13249969  111.27799988    0.70999998    2.55999994
   18.13666725  106.16400146    0.70999998    2.57999992
   18.13999939  100.17500305    0.70999998    2.57999992
   18.14305496  102.40799713    0.73000002    2.55999994
   18.14638901  103.80899811    0.70999998    2.53999996
   18.14666748  103.97399902    0.70999998    2.53999996
   18.14999962   98.26280212    0.69000000    2.55999994
   18.15333366  101.21499634    0.69000000    2.55999994
   18.15638924   99.28489685    0.69000000    2.55999994
   18.15972137  101.15599823    0.69000000    2.57999992
   18.16277695   97.42130280    0.69000000    2.55999994
   18.16611099   97.67510223    0.69000000    2.55999994
   18.16944313  107.47599792    0.69000000    2.57999992
   18.17527771  107.47599792    0.70999998    2.57999992
   18.17972183  101.57900238    0.73000002    2.57999992
   18.18000031   99.31050110    0.73000002    2.57999992
   18.18333244  100.09400177    0.73000002    2.55999994
   18.18666649  103.06999969    0.73000002    2.57999992
   18.18972206  102.48500061    0.73000002    2.57999992
   18.19305420  107.74600220    0.73000002    2.55999994
   18.19638824  101.68699646    0.73000002    2.55999994
   18.19944382  112.10800171    0.73000002    2.55999994
   18.20277786  106.41500092    0.75000000    2.57999992
   18.20611191  103.57900238    0.75000000    2.55999994
   18.20916748  106.43299866    0.76999998    2.55999994
   18.21250153  103.86799622    0.79000002    2.55999994
   18.21305656  110.32599640    0.80000001    2.55999994
   18.21833420  110.32599640    0.79000002    2.55999994
   18.22249985  111.15899658    0.79000002    2.55999994
   18.22555542  103.63800049    0.79000002    2.55999994
   18.22888947  103.89600372    0.79000002    2.55999994
   18.23194504  104.43800354    0.80000001    2.55999994
   18.23555565  102.58100128    0.80000001    2.55999994
   18.23861122  103.11299896    0.80000001    2.57999992
   18.24194527   98.52239990    0.81999999    2.55999994
   18.24527740  106.61799622    0.81999999    2.55999994
   18.24638939  107.36499786    0.81999999    2.55999994
   18.24888992  107.33999634    0.81999999    2.55999994
   18.25222206  111.57800293    0.81999999    2.55999994
   18.25527763  105.63600159    0.81999999    2.55999994
   18.26111031  105.63600159    0.79000002    2.57999992
   18.26527786  107.79599762    0.79000002    2.55999994
   18.26861000  112.12300110    0.79000002    2.55999994
   18.27166557  100.81600189    0.80000001    2.55999994
   18.27499962  112.74900055    0.89999998    2.55999994
   18.27805519  112.61399841    0.98000002    2.55999994
   18.27972221  104.67800140    0.98000002    2.55999994
   18.28194427  103.75099945    1.01999998    2.55999994
   18.28499985  106.04199982    1.05999994    2.55999994
   18.28833199  113.19400024    1.05999994    2.55999994
   18.29166603  121.48600006    1.01999998    2.55999994
   18.29472160   99.54440308    0.98000002    2.55999994
   18.29805565  102.01499939    0.95999998    2.55999994
   18.30388832  102.01499939    0.95999998    2.55999994
   18.30805397  104.18099976    1.05999994    2.55999994
   18.31138802   97.55829620    1.05999994    2.55999994
   18.31305504  108.09700012    1.05999994    2.55999994
   18.31472206   96.65509796    1.01999998    2.55999994
   18.31805611   91.30979919    1.07000005    2.53999996
   18.32139015  103.31700134    1.07000005    2.53999996
   18.32444572  101.61499786    1.16999996    2.53999996
   18.32777786  105.93800354    1.16999996    2.53999996
   18.33111191   97.57209778    1.13000000    2.55999994
   18.33416748   96.25630188    1.07000005    2.55999994
   18.33750153  104.29199982    1.07000005    2.55999994
   18.34083366  111.43199921    1.11000001    2.53999996
   18.34666824  111.43199921    1.11000001    2.55999994
   18.35083389  108.62400055    1.11000001    2.55999994
   18.35416794   98.97599792    1.11000001    2.55999994
   18.35750008  104.46299744    1.13000000    2.55999994
   18.36055565  100.85399628    1.11000001    2.55999994
   18.36388969  105.64399719    1.11000001    2.53999996
   18.36722183   97.86309814    1.11000001    2.53999996
   18.37027740  102.63300323    1.11000001    2.53999996
   18.37361145  101.24099731    1.05999994    2.55999994
   18.37694550   90.50140381    1.05999994    2.55999994
   18.37972260  102.48699951    1.00000000    2.55999994
   18.38027763  103.36000061    1.00000000    2.55999994
   18.38361168   97.73519897    0.95999998    2.53999996
   18.38972282   97.73519897    1.03999996    2.55999994
   18.39388847   97.60320282    1.03999996    2.55999994
   18.39722252   96.20290375    1.01999998    2.55999994
   18.40027809   95.95079803    1.07000005    2.53999996
   18.40361023   99.01979828    1.07000005    2.53999996
   18.40694427   94.16660309    1.13000000    2.53999996
   18.40999985   97.37979889    1.23000002    2.55999994
   18.41305542   96.40419769    1.26999998    2.55999994
   18.41361046  101.73300171    1.26999998    2.55999994
   18.41694450   87.08519745    1.26999998    2.55999994
   18.42027664  102.29299927    1.33000004    2.55999994
   18.42333221   96.62999725    1.34000003    2.55999994
   18.42666626  104.24500275    1.34000003    2.55999994
   18.43249893  104.24500275    1.36000001    2.55999994
   18.43666649   92.21759796    1.36000001    2.55999994
   18.43972206  100.34300232    1.38000000    2.55999994
   18.44305420   98.31400299    1.41999996    2.53999996
   18.44638824   98.13089752    1.46000004    2.53999996
   18.44666672   91.79170227    1.46000004    2.53999996
   18.45000076   98.99510193    1.46000004    2.53999996
   18.45333481  107.02100372    1.46000004    2.53999996
   18.45639038  100.00499725    1.33000004    2.53999996
   18.45972252   98.08580017    1.30999994    2.53999996
   18.46305656   98.16210175    1.30999994    2.53999996
   18.46611214   91.79959869    1.30999994    2.53999996
   18.46944427   98.88890076    1.26999998    2.53999996
   18.47527885   98.88890076    1.25000000    2.53999996
   18.47944450   95.95639801    1.25000000    2.53999996
   18.48000145   96.55169678    1.25000000    2.53999996
   18.48333359   98.27829742    1.23000002    2.53999996
   18.48638916   99.04270172    1.23000002    2.53999996
   18.48972321   94.11100006    1.23000002    2.53999996
   18.49277878   97.41860199    1.23000002    2.53999996
   18.49611092   98.15779877    1.23000002    2.55999994
   18.49944496   97.80020142    1.23000002    2.55999994
   18.50250053  102.63899994    1.23000002    2.53999996
   18.50583267   93.87789917    1.21000004    2.53999996
   18.50916672   95.92839813    1.21000004    2.53999996
   18.51222229   98.45539856    1.21000004    2.53999996
   18.51333427  103.66000366    1.21000004    2.53999996
   18.51833344  103.66000366    1.14999998    2.53999996
   18.52249908   93.69940186    1.14999998    2.53999996
   18.52555466   92.92340088    1.11000001    2.55999994
   18.52888870   95.41950226    1.07000005    2.53999996
   18.53222275  100.25399780    1.07000005    2.53999996
   18.53555489   94.69450378    1.07000005    2.53999996
   18.53861046   96.19920349    1.05999994    2.53999996
   18.54194450   98.65760040    1.05999994    2.53999996
   18.54527664   94.69640350    1.09000003    2.53999996
   18.54666710  100.09300232    1.09000003    2.53999996
   18.54888916   95.90679932    1.09000003    2.53999996
   18.55194283  100.90899658    1.11000001    2.53999996
   18.55527687   98.41690063    1.13000000    2.51999998
   18.56110954   98.41690063    1.13000000    2.51999998
   18.56527710  101.01200104    1.09000003    2.53999996
   18.56833458   96.42050171    1.09000003    2.53999996
   18.57166672   98.50710297    1.05999994    2.55999994
   18.57472229   93.85469818    1.01999998    2.53999996
   18.57805634   93.20120239    1.01999998    2.55999994
   18.58000183   94.26660156    1.01999998    2.55999994
   18.58166695   95.03579712    1.00000000    2.53999996
   18.58472252   96.91929626    0.98000002    2.53999996
   18.58805656  102.76399994    0.98000002    2.53999996
   18.59138870   92.72979736    0.95999998    2.55999994
   18.59444427   92.83750153    0.94000000    2.53999996
   18.59777832   92.45459747    0.94000000    2.53999996
   18.60388947   92.45459747    0.88000000    2.53999996
   18.60805511   97.67420197    0.86000001    2.53999996
   18.61138916   95.68240356    0.86000001    2.53999996
   18.61333466   99.11820221    0.86000001    2.53999996
   18.61499977   97.44000244    0.86000001    2.53999996
   18.61805534   96.91329956    0.88000000    2.53999996
   18.62138939   89.64890289    0.88000000    2.55999994
   18.62472153   94.22630310    0.88000000    2.53999996
   18.62777710   93.67970276    0.92000002    2.53999996
   18.63111115   91.30529785    0.94000000    2.53999996
   18.63416672   93.38189697    0.94000000    2.53999996
   18.63750076   96.79650116    0.98000002    2.53999996
   18.64083290   95.76309967    0.98000002    2.53999996
   18.64666748   95.76309967    0.98000002    2.53999996
   18.65083313   97.75430298    1.01999998    2.50000000
   18.65416718   95.79209900    1.01999998    2.50000000
   18.65722275   92.96600342    1.03999996    2.51999998
   18.66055489   92.79769897    1.03999996    2.53999996
   18.66388893   92.59839630    1.03999996    2.53999996
   18.66694450  100.43000031    1.03999996    2.53999996
   18.67027664   88.94650269    1.05999994    2.53999996
   18.67333221   90.99490356    1.09000003    2.53999996
   18.67666626   99.42739868    1.09000003    2.53999996
   18.68000031  104.24199677    1.05999994    2.53999996
   18.68194389   97.77850342    1.05999994    2.53999996
   18.68361092   95.48169708    1.05999994    2.53999996
   18.68944359   95.48169708    1.07000005    2.53999996
   18.69361115   92.32599640    1.09000003    2.53999996
   18.69694328  108.62200165    1.14999998    2.51999998
   18.70027924  129.44099426    1.19000006    2.53999996
   18.70333481  118.47799683    1.19000006    2.53999996
   18.70666695  136.24699402    1.19000006    2.51999998
   18.70972252  171.82699585    1.14999998    2.53999996
   18.71305656  181.17399597    1.11000001    2.53999996
   18.71500015  186.33200073    1.11000001    2.53999996
   18.71666718  220.90499878    1.09000003    2.53999996
   18.72000122  209.82899475    1.05999994    2.53999996
   18.72305679  188.17199707    1.05999994    2.53999996
   18.72638893  166.17700195    1.01999998    2.53999996
   18.73250008  166.17700195    1.01999998    2.53999996
   18.73666763  200.88000488    1.00000000    2.53999996
   18.73972321  196.97500610    1.00000000    2.53999996
   18.74305534  152.38200378    1.00000000    2.53999996
   18.74638939  147.43699646    1.00000000    2.53999996
   18.74861145  116.96600342    1.03999996    2.53999996
   18.75000000  112.15200043    1.03999996    2.53999996
   18.75333405  124.71099854    1.00000000    2.53999996
   18.75638962   88.77700043    0.98000002    2.53999996
   18.75972176  124.01100159    0.98000002    2.53999996
   18.76277733  129.55299377    0.98000002    2.51999998
   18.76611137   97.34889984    0.98000002    2.53999996
   18.76944351  113.56500244    0.98000002    2.53999996
   18.77527809  113.56500244    1.01999998    2.53999996
   18.77944374   98.89579773    1.01999998    2.51999998
   18.78194427  114.26699829    1.01999998    2.51999998
   18.78305435  100.79599762    1.05999994    2.53999996
   18.78638840  100.41699982    1.05999994    2.53999996
   18.78944397  133.97000122    1.03999996    2.53999996
   18.79277802   94.52510071    1.05999994    2.53999996
   18.79583359   97.52390289    1.05999994    2.51999998
   18.79916573  118.33699799    1.07000005    2.53999996
   18.80249977  100.84899902    1.09000003    2.51999998
   18.80583191   97.05609894    1.14999998    2.51999998
   18.80888748   95.55740356    1.14999998    2.51999998
   18.81222153   95.55449677    1.19000006    2.51999998
   18.81805611   95.55449677    1.16999996    2.50000000
   18.82222366  101.82599640    1.13000000    2.51999998
   18.82555580   93.32099915    1.13000000    2.51999998
   18.82888985   94.23509979    1.14999998    2.51999998
   18.83222389  100.63800049    1.14999998    2.51999998
   18.83527756   96.58580017    1.14999998    2.51999998
   18.83861160   98.67089844    1.13000000    2.51999998
   18.84166718   98.53569794    1.13000000    2.51999998
   18.84500122   94.99060059    1.16999996    2.51999998
   18.84833336  101.44300079    1.19000006    2.51999998
   18.84889030  104.53700256    1.19000006    2.51999998
   18.85194397   99.75420380    1.19000006    2.51999998
   18.85527802   98.11129761    1.13000000    2.51999998
   18.86083412   98.11129761    1.13000000    2.51999998
   18.86499977   95.45050049    1.07000005    2.51999998
   18.86833382   97.13870239    1.07000005    2.51999998
   18.87166595   96.90190125    1.09000003    2.51999998
   18.87472153   95.98619843    1.11000001    2.51999998
   18.87805557   97.15390015    1.13000000    2.51999998
   18.88138962   98.73090363    1.11000001    2.51999998
   18.88222313  101.05599976    1.11000001    2.51999998
   18.88500023   95.41560364    1.09000003    2.50000000
   18.88833237   94.04160309    1.11000001    2.51999998
   18.89138794   94.67410278    1.11000001    2.51999998
   18.89472198   88.40049744    1.11000001    2.51999998
   18.89805603   95.85099792    1.11000001    2.50000000
   18.90388870   95.85099792    1.01999998    2.51999998
   18.90805435   97.98600006    1.00000000    2.51999998
   18.91110992  105.74400330    1.00000000    2.51999998
   18.91444397   97.25900269    0.98000002    2.51999998
   18.91666603  100.06400299    0.98000002    2.51999998
   18.91860962   95.46690369    0.98000002    2.51999998
   18.92194366   99.57379913    1.01999998    2.51999998
   18.92499924  104.82099915    1.07000005    2.50000000
   18.92833328  100.44200134    1.09000003    2.51999998
   18.93166542   98.19750214    1.11000001    2.50000000
   18.93472099   96.05319977    1.11000001    2.50000000
   18.93805504   97.00890350    1.09000003    2.51999998
   18.94138718   98.31199646    1.11000001    2.51999998
   18.94666672   98.31199646    1.11000001    2.51999998
   18.96500015   93.37439728    1.11000001    2.51999998
   18.96833420  100.37400055    1.09000003    2.50000000
   18.97138977   96.33699799    1.07000005    2.51999998
   18.97472191   93.79709625    1.05999994    2.51999998
   18.97805595   96.15589905    1.05999994    2.50000000
   18.98111153   94.53800201    1.05999994    2.50000000
   18.98444557   96.47509766    1.00000000    2.51999998
   18.98972321   96.47509766    1.01999998    2.50000000
   18.99388885   92.46630096    1.01999998    2.50000000
   18.99722290   96.24600220    1.03999996    2.51999998
   18.99805641   90.45189667    1.03999996    2.51999998
   19.00083351   96.87200165    1.03999996    2.51999998
   19.00416756   95.90329742    1.03999996    2.50000000
   19.00749969   95.17630005    1.03999996    2.50000000
   19.01055527   93.36129761    1.01999998    2.50000000
   19.01388931  107.08300018    1.01999998    2.50000000
   19.01722145   92.67759705    0.98000002    2.50000000
   19.02027702   99.48750305    0.98000002    2.50000000
   19.02361107   93.38210297    0.94000000    2.51999998
   19.02694511   94.36109924    0.92000002    2.51999998
   19.03249931   94.36109924    0.92000002    2.50000000
   19.03666687   96.67160034    0.89999998    2.50000000
   19.03999901   96.25740051    0.89999998    2.50000000
   19.04305458   94.64340210    0.92000002    2.50000000
   19.04638863   96.85359955    0.92000002    2.50000000
   19.04972076  101.45500183    1.00000000    2.50000000
   19.05277634   98.27010345    1.00000000    2.50000000
   19.05611038   96.94120026    1.00000000    2.50000000
   19.05944443   95.55380249    1.00000000    2.48000002
   19.06250000   97.98549652    1.11000001    2.48000002
   19.06472206   92.17849731    1.11000001    2.50000000
   19.06638718   97.43060303    1.13000000    2.50000000
   19.06944466  106.10600281    1.13000000    2.50000000
   19.07555580  106.10600281    1.13000000    2.50000000
   19.07944489   94.26360321    1.19000006    2.48000002
   19.08277893   91.27010345    1.19000006    2.48000002
   19.08611107  104.51699829    1.23000002    2.50000000
   19.08916664   95.05989838    1.34000003    2.50000000
   19.09250069   97.42209625    1.33000004    2.48000002
   19.09583473   89.22830200    1.30999994    2.50000000
   19.09805679   97.19979858    1.33000004    2.48000002
   19.09944534   95.30400085    1.33000004    2.48000002
   19.10250092   91.12640381    1.38000000    2.48000002
   19.10583305   87.01650238    1.38000000    2.50000000
   19.10916710   94.42680359    1.38000000    2.50000000
   19.11222267   94.44200134    1.34000003    2.48000002
   19.11833382   94.44200134    1.21000004    2.50000000
   19.12249947   95.37020111    1.21000004    2.50000000
   19.12555504   92.93139648    1.19000006    2.48000002
   19.12888908  101.98899841    1.16999996    2.50000000
   19.13138962   99.60449982    1.09000003    2.50000000
   19.13249969  111.13700104    1.09000003    2.50000000
   19.13583374   96.13120270    1.03999996    2.48000002
   19.13916588   96.96569824    1.00000000    2.48000002
   19.14222145   93.84010315    1.00000000    2.48000002
   19.14555550   94.56890106    1.00000000    2.48000002
   19.14888954   90.30429840    1.03999996    2.48000002
   19.15194321  104.19000244    1.05999994    2.50000000
   19.15527725   95.41840363    1.07000005    2.50000000
   19.16110992   95.41840363    1.13000000    2.48000002
   19.16527748   95.96369934    1.14999998    2.50000000
   19.16860962   92.37950134    1.11000001    2.48000002
   19.17166519   99.77510071    1.11000001    2.48000002
   19.17499924   99.80709839    1.07000005    2.48000002
   19.17833328   88.61190033    1.07000005    2.48000002
   19.18138885   99.24859619    1.05999994    2.50000000
   19.18472099   90.23169708    1.01999998    2.48000002
   19.18805504   98.88829803    1.03999996    2.48000002
   19.19111061   92.78659821    1.03999996    2.48000002
   19.19444275   93.76270294    1.05999994    2.50000000
   19.19749832   94.33519745    1.03999996    2.48000002
   19.19805527   99.37000275    1.03999996    2.48000002
   19.20388985   99.37000275    1.16999996    2.50000000
   19.20805550   92.26119995    1.26999998    2.48000002
   19.21138954   93.49340057    1.39999998    2.48000002
   19.21444511  100.85500336    1.44000006    2.48000002
   19.21777916   94.66089630    1.41999996    2.48000002
   19.22111130   94.74810028    1.26999998    2.48000002
   19.22444534  100.69200134    1.26999998    2.46000004
   19.22750092   91.58699799    1.26999998    2.46000004
   19.23083305   92.24859619    1.28999996    2.48000002
   19.23139000   91.24960327    1.28999996    2.48000002
   19.23444557  106.59700012    1.26999998    2.48000002
   19.23777771   99.03800201    1.28999996    2.48000002
   19.24083328   94.99710083    1.30999994    2.48000002
   19.24694443   94.99710083    1.23000002    2.48000002
   19.25083351   97.14550018    1.23000002    2.48000002
   19.25416756  110.57199860    1.23000002    2.48000002
   19.25749969   91.14170074    1.23000002    2.48000002
   19.26055527   96.41030121    1.23000002    2.48000002
   19.26388931   89.54900360    1.25000000    2.46000004
   19.26472282   89.59329987    1.25000000    2.46000004
   19.26749992  105.61599731    1.25000000    2.48000002
   19.27083397  121.50199890    1.26999998    2.48000002
   19.27388954   95.83750153    1.38000000    2.48000002
   19.27722168   90.01360321    1.38000000    2.48000002
   19.28027725   94.12290192    1.46000004    2.46000004
   19.28361130   99.73210144    1.48000002    2.48000002
   19.28972244   99.73210144    1.44000006    2.46000004
   19.29388809  109.45899963    1.39999998    2.46000004
   19.29694366   99.55999756    1.46000004    2.46000004
   19.29805565  103.25800323    1.46000004    2.46000004
   19.30083275  113.60199738    1.61000001    2.46000004
   19.30416679   93.22209930    1.76999998    2.48000002
   19.30722237   99.28939819    1.76999998    2.48000002
   19.31055450   99.00789642    1.96000004    2.46000004
   19.31388855  103.50399780    2.00000000    2.46000004
   19.31694603  101.16899872    1.98000002    2.46000004
   19.32027817   93.62249756    1.96000004    2.48000002
   19.32361221   93.95590210    1.86000001    2.46000004
   19.32666779   90.85250092    1.73000002    2.46000004
   19.33250046   90.85250092    1.66999996    2.46000004
   19.33666801   99.23349762    1.41999996    2.46000004
   19.33972359   97.21569824    1.41999996    2.46000004
   19.34305573  101.59899902    1.39999998    2.46000004
   19.34638977  104.46099854    1.39999998    2.46000004
   19.34944534   93.12220001    1.09000003    2.46000004
   19.35277748   91.14700317    1.13000000    2.46000004
   19.35611153  100.56300354    1.16999996    2.46000004
   19.35916710   97.94409943    1.16999996    2.46000004
   19.36250114   97.07350159    1.11000001    2.48000002
   19.36472321   90.09500122    1.09000003    2.46000004
   19.36611176  104.37100220    1.09000003    2.46000004
   19.36944389   98.99559784    1.09000003    2.46000004
   19.37527847   98.99559784    1.09000003    2.46000004
   19.37944412   89.38529968    1.16999996    2.48000002
   19.38277817   89.87899780    1.61000001    2.46000004
   19.38583374   89.95870209    1.71000004    2.46000004
   19.38916588   98.13510132    1.80999994    2.46000004
   19.39249992   93.10209656    1.73000002    2.46000004
   19.39555550   89.96199799    1.85000002    2.46000004
   19.39805603   95.79589844    1.61000001    2.46000004
   19.39916611   99.62090302    1.61000001    2.46000004
   19.40250015   94.85729980    1.51999998    2.46000004
   19.40555573   99.46199799    1.51999998    2.46000004
   19.40888786   90.65760040    1.60000002    2.46000004
   19.41222191   96.89299774    1.60000002    2.46000004
   19.41833305   96.89299774    1.75000000    2.46000004
   19.42222214   90.40319824    1.88000000    2.44000006
   19.42555428   96.73639679    1.64999998    2.46000004
   19.42888832   95.23429871    1.64999998    2.44000006
   19.43138885   92.56400299    1.64999998    2.44000006
   19.43249893   89.02140045    1.64999998    2.44000006
   19.43583298   94.02290344    1.61000001    2.46000004
   19.43888855   99.57499695    1.66999996    2.44000006
   19.44222069   88.16339874    1.89999998    2.44000006
   19.44555473   89.72329712    1.88000000    2.44000006
   19.44861031   98.03900146    1.88000000    2.44000006
   19.45194435   90.89830017    1.89999998    2.44000006
   19.45499992   88.37719727    1.91999996    2.44000006
   19.46111107   88.37719727    1.94000006    2.44000006
   19.46527863   88.34809875    1.91999996    2.44000006
   19.46833420   92.49510193    1.94000006    2.44000006
   19.47166634   90.18139648    1.98000002    2.44000006
   19.47500038   91.09359741    1.89999998    2.46000004
   19.47805595   90.51450348    1.89999998    2.46000004
   19.48139000   87.63690186    1.80999994    2.44000006
   19.48444557   88.83730316    1.80999994    2.44000006
   19.48777771   87.57530212    1.85000002    2.44000006
   19.49111176   91.52429962    1.78999996    2.44000006
   19.49416733   92.51679993    1.85000002    2.42000008
   19.49749947   87.83509827    1.88000000    2.44000006
   19.49833298   91.12850189    1.88000000    2.44000006
   19.50388908   91.12850189    1.91999996    2.44000006
   19.50805473   90.17070007    1.88000000    2.44000006
   19.51111031   92.02100372    1.83000004    2.44000006
   19.51444435   92.79570007    1.83000004    2.44000006
   19.51777840   90.09619904    1.76999998    2.44000006
   19.52083397   97.31069946    1.69000006    2.44000006
   19.52416611   89.97769928    1.69000006    2.44000006
   19.52750015   89.51589966    1.46000004    2.44000006
   19.53055573   87.45989990    1.46000004    2.44000006
   19.53138924   94.81520081    1.46000004    2.44000006
   19.53416634   92.00370026    1.46000004    2.42000008
   19.53750038   89.62660217    1.41999996    2.44000006
   19.54055595   95.63169861    1.41999996    2.44000006
   19.54666710   95.63169861    1.44000006    2.44000006
   19.55083275   83.32440186    1.53999996    2.44000006
   19.55416679   88.69799805    1.60000002    2.44000006
   19.55722237   89.62840271    1.64999998    2.42000008
   19.56055450   89.79170227    1.66999996    2.42000008
   19.56388855   87.64160156    1.66999996    2.42000008
   19.56472206   88.80529785    1.63000000    2.42000008
   19.56750107   91.35019684    1.63000000    2.42000008
   19.57083511   88.70120239    1.69000006    2.42000008
   19.57389069   89.87750244    1.73000002    2.42000008
   19.57722282   90.69699860    1.80999994    2.42000008
   19.58055687   87.39810181    1.80999994    2.42000008
   19.58361244   89.65550232    1.80999994    2.42000008
   19.58944511   89.65550232    1.98000002    2.42000008
   19.59361267   88.41380310    1.88000000    2.42000008
   19.59694481   94.79969788    1.85000002    2.44000006
   19.59805679   93.20989990    1.85000002    2.44000006
   19.60055542   91.82379913    1.78999996    2.42000008
   19.60388947   88.67389679    1.73000002    2.42000008
   19.60694504   88.12139893    1.69000006    2.44000006
   19.61027908   87.77780151    1.71000004    2.42000008
   19.61361122   89.29799652    1.71000004    2.42000008
   19.61666679   87.64109802    1.69000006    2.40000010
   19.62000084  103.07399750    1.66999996    2.42000008
   19.62333298   87.45539856    1.66999996    2.40000010
   19.62638855   91.35729980    1.66999996    2.42000008
   19.63249969   91.35729980    1.66999996    2.40000010
   19.63666725   86.37599945    1.71000004    2.42000008
   19.63972282   99.37519836    1.71000004    2.40000010
   19.64305496   89.92790222    1.71000004    2.40000010
   19.64611053   92.63970184    1.69000006    2.42000008
   19.64944458   90.70120239    1.69000006    2.40000010
   19.65277672   89.86979675    1.66999996    2.42000008
   19.65583229   92.71540070    1.66999996    2.42000008
   19.65916634   86.25579834    1.66999996    2.40000010
   19.66250038   90.21630096    1.64999998    2.40000010
   19.66499901   92.20449829    1.61000001    2.40000010
   19.66611099   90.44090271    1.61000001    2.40000010
   19.66944313   91.54940033    1.60000002    2.40000010
   19.67527771   91.54940033    1.58000004    2.42000008
   19.67944336   95.11409760    1.48000002    2.40000010
   19.68277740   98.20349884    1.48000002    2.40000010
   19.68583298  104.91200256    1.48000002    2.40000010
   19.68944359   96.84449768    1.50000000    2.42000008
   19.69277763   96.31390381    1.53999996    2.40000010
   19.69583321  103.37999725    1.64999998    2.40000010
   19.69833183  112.64099884    1.64999998    2.40000010
   19.69944382  101.52600098    1.73000002    2.40000010
   19.70277786   95.14520264    1.75000000    2.40000010
   19.70583344  100.21099854    1.76999998    2.40000010
   19.70916748   93.43640137    1.76999998    2.40000010
   19.71250153   90.43250275    1.75000000    2.40000010
   19.71805573   90.43250275    1.71000004    2.40000010
   19.72222328   99.54149628    1.66999996    2.40000010
   19.72555542   93.27480316    1.64999998    2.40000010
   19.72861099  102.21600342    1.61000001    2.40000010
   19.73222351   85.27989960    1.61000001    2.40000010
   19.73305511   92.40249634    1.58000004    2.40000010
   19.73611069   86.12339783    1.58000004    2.40000010
   19.73944473   95.75659943    1.55999994    2.40000010
   19.74250031  127.61599731    1.53999996    2.40000010
   19.74583435  114.95899963    1.51999998    2.40000010
   19.74916649   88.16860199    1.50000000    2.40000010
   19.75222206   77.97720337    1.50000000    2.40000010
   19.75555611   88.68759918    1.50000000    2.40000010
   19.76083374   88.68759918    1.46000004    2.40000010
   19.76499939  108.49500275    1.46000004    2.40000010
   19.76833344  119.61599731    1.48000002    2.39000010
   19.77166557  120.09200287    1.51999998    2.39000010
   19.77472115  134.65299988    1.51999998    2.39000010
   19.77805519  146.81199646    1.58000004    2.39000010
   19.78111076  151.14500427    1.61000001    2.39000010
   19.78444481   -1.00000000    1.61000001    2.39000010
   19.78777695   -1.00000000    1.71000004    2.39000010
   19.79083252   -1.00000000    1.89999998    2.39000010
   19.79416656   -1.00000000    1.89999998    2.39000010
   19.79749870   -1.00000000    1.91999996    2.39000010
   19.80777740   -1.00000000    2.03999996    2.36999989
   19.81110954   -1.00000000    2.09999990    2.39000010
   19.81444359   -1.00000000    2.03999996    2.39000010
   19.81750107   -1.00000000    1.98000002    2.36999989
   19.82083511   -1.00000000    1.94000006    2.39000010
   19.82416725   -1.00000000    1.86000001    2.39000010
   19.82722282   -1.00000000    1.83000004    2.36999989
   19.83055687   -1.00000000    1.76999998    2.39000010
   19.83416748   -1.00000000    1.76999998    2.39000010
   19.83750153   -1.00000000    1.73000002    2.39000010
   19.84055710   -1.00000000    1.71000004    2.39000010
   19.85083389   -1.00000000    1.66999996    2.39000010
   19.85416794   -1.00000000    1.66999996    2.39000010
   19.85722351   -1.00000000    1.69000006    2.36999989
   19.86055565   -1.00000000    1.69000006    2.36999989
   19.86388969   -1.00000000    1.66999996    2.36999989
   19.86722183   -1.00000000    1.64999998    2.36999989
   19.87055588   -1.00000000    1.64999998    2.36999989
   19.87361145   -1.00000000    1.64999998    2.39000010
   19.87694550   -1.00000000    1.66999996    2.36999989
   19.88027763   -1.00000000    1.66999996    2.36999989
