    HOUR (UT)   FLARE FACTOR    SKY TESTER    SUN TESTER
   10.80166721   -1.00000000   -1.00000000   -1.00000000
   10.91722298  130.42999268    0.51999998    2.23000002
   10.91833401  131.16000366    0.51999998    2.23000002
   10.92166710  129.21800232    0.51999998    2.23000002
   10.92472267  131.53399658    0.51999998    2.23000002
   10.92805576  134.48699951    0.51999998    2.25000000
   10.93138885  142.36099243    0.51999998    2.25000000
   10.93444443  146.20799255    0.51999998    2.25000000
   10.93861103  146.20799255    0.50000000    2.25000000
   10.94277763  132.79899597    0.51999998    2.25000000
   10.94611073  138.52000427    0.50000000    2.25000000
   10.94916630  135.31399536    0.50000000    2.25000000
   10.95166683  137.17900085    0.50000000    2.25000000
   10.95277786  140.85099792    0.50000000    2.25000000
   10.95583344  140.66099548    0.50000000    2.25000000
   10.95916653  141.51499939    0.50000000    2.25000000
   10.96249962  140.44200134    0.50000000    2.25000000
   10.96555519  134.55900574    0.50000000    2.26999998
   10.96888828  161.25300598    0.50000000    2.26999998
   10.97222137  149.79600525    0.50000000    2.26999998
   10.97555542  143.46600342    0.50000000    2.26999998
   10.98138809  143.46600342    0.47999999    2.26999998
   10.98555565  141.52699280    0.50000000    2.26999998
   10.98888874  136.24899292    0.47999999    2.26999998
   10.99194431  137.05999756    0.47999999    2.28999996
   10.99527836  143.32699585    0.47999999    2.28999996
   10.99861145  145.45799255    0.47999999    2.26999998
   11.00166702  144.46200562    0.47999999    2.26999998
   11.00500011  140.21600342    0.47999999    2.28999996
   11.00833321  150.76800537    0.47999999    2.28999996
   11.01138878  162.27000427    0.47999999    2.28999996
   11.01472187  160.04299927    0.46000001    2.28999996
   11.01777744  158.27999878    0.46000001    2.28999996
   11.01833344  149.99400330    0.46000001    2.28999996
   11.02444458  149.99400330    0.46000001    2.28999996
   11.02833271  174.44200134    0.46000001    2.30999994
   11.03166676  178.73500061    0.47999999    2.30999994
   11.03500080  160.56900024    0.47999999    2.30999994
   11.03805637  157.19400024    0.47999999    2.30999994
   11.04138947  175.25100708    0.47999999    2.30999994
   11.04472256  170.42799377    0.46000001    2.30999994
   11.04777813  149.66700745    0.46000001    2.30999994
   11.05111122  161.06500244    0.46000001    2.30999994
   11.05166721  162.04499817    0.46000001    2.30999994
   11.05472279  172.81199646    0.46000001    2.30999994
   11.05777836  159.83399963    0.46000001    2.32999992
   11.06111145  166.33399963    0.46000001    2.32999992
   11.06722260  166.33399963    0.46000001    2.32999992
   11.07138920  156.10699463    0.46000001    2.32999992
   11.07444477  168.32400513    0.46000001    2.32999992
   11.07777786  169.36900330    0.46000001    2.32999992
   11.08111095  162.02600098    0.46000001    2.32999992
   11.08444405  151.86300659    0.46000001    2.32999992
   11.08500004  147.59800720    0.46000001    2.32999992
   11.08805561  156.83200073    0.46000001    2.32999992
   11.09138870  156.33299255    0.46000001    2.32999992
   11.09444427  138.52400208    0.46000001    2.32999992
   11.09777737  150.89399719    0.46000001    2.32999992
   11.10111141  142.81599426    0.46000001    2.32999992
   11.10416698  173.91600037    0.46000001    2.32999992
   11.11000061  173.91600037    0.44000000    2.34999990
   11.11416721  138.26699829    0.46000001    2.34999990
   11.11750031  187.12699890    0.46000001    2.34999990
   11.11833382  157.96200562    0.44000000    2.34999990
   11.12111092  170.21200562    0.44000000    2.34999990
   11.12444496  153.84199524    0.44000000    2.34999990
   11.12750053  141.59399414    0.44000000    2.36999989
   11.13083363  154.36700439    0.41999999    2.36999989
   11.13388920  174.93600464    0.44000000    2.34999990
   11.13722229  149.18499756    0.44000000    2.34999990
   11.14055538  141.05900574    0.41999999    2.36999989
   11.14361095  165.18800354    0.41999999    2.34999990
   11.14694405  158.21600342    0.44000000    2.34999990
   11.15277767  158.21600342    0.44000000    2.36999989
   11.15694427  141.67500305    0.44000000    2.36999989
   11.16027737  153.28399658    0.44000000    2.36999989
   11.16361046  149.57499695    0.44000000    2.36999989
   11.16666698  153.44700623    0.44000000    2.39000010
   11.17000008  144.94500732    0.44000000    2.36999989
   11.17333412  151.41099548    0.44000000    2.36999989
   11.17638874  159.55499268    0.41999999    2.36999989
   11.18000031  145.53999329    0.44000000    2.39000010
   11.18333340  148.16499329    0.41999999    2.39000010
   11.18500042  153.90699768    0.41999999    2.39000010
   11.18694496  166.08900452    0.41999999    2.39000010
   11.19027805  138.12199402    0.44000000    2.39000010
   11.19583321  138.12199402    0.41999999    2.39000010
   11.19972229  137.82699585    0.44000000    2.39000010
   11.20305538  152.19900513    0.41999999    2.39000010
   11.20638847  136.04200745    0.41999999    2.39000010
   11.20944405  134.74400330    0.41999999    2.39000010
   11.21277714  131.72399902    0.41999999    2.39000010
   11.21611118  140.02799988    0.41999999    2.39000010
   11.21833324  144.84100342    0.41999999    2.39000010
   11.21972179  154.58799744    0.41999999    2.39000010
   11.22305489  128.54200745    0.41999999    2.39000010
   11.22611046  130.67799377    0.41999999    2.40000010
   11.22944355  130.68600464    0.41999999    2.40000010
   11.23249912  143.47300720    0.41999999    2.40000010
   11.23861122  143.47300720    0.41999999    2.40000010
   11.24277782  160.08200073    0.41999999    2.40000010
   11.24583340  184.05700684    0.41999999    2.40000010
   11.24916649  146.16299438    0.41999999    2.40000010
   11.25166702  133.51499939    0.41999999    2.40000010
   11.25277805  142.81100464    0.41999999    2.40000010
   11.25611115  139.91099548    0.41999999    2.40000010
   11.25916672  145.22000122    0.40000001    2.40000010
   11.26249981  146.08099365    0.40000001    2.40000010
   11.26555538  131.11900330    0.41999999    2.40000010
   11.26888847  128.26199341    0.41999999    2.40000010
   11.27222157  146.81399536    0.40000001    2.42000008
   11.27527714  136.07099915    0.41999999    2.40000010
   11.28138828  136.07099915    0.40000001    2.42000008
   11.28555584  132.20799255    0.40000001    2.42000008
   11.28888893  133.94900513    0.40000001    2.42000008
   11.29194450  136.58900452    0.40000001    2.42000008
   11.29527855  140.21200562    0.40000001    2.42000008
   11.29833412  141.86999512    0.40000001    2.44000006
   11.30166721  133.35299683    0.40000001    2.44000006
   11.30500031  129.71400452    0.40000001    2.44000006
   11.30805588  138.16700745    0.40000001    2.44000006
   11.31138897  151.53799438    0.41999999    2.42000008
   11.31472206  135.08299255    0.40000001    2.42000008
   11.31777763  150.23300171    0.40000001    2.42000008
   11.31833363  149.73800659    0.40000001    2.42000008
   11.32416630  149.73800659    0.40000001    2.44000006
   11.32833290  143.58599854    0.40000001    2.44000006
   11.33166695  134.47000122    0.40000001    2.44000006
   11.33500004  128.63000488    0.40000001    2.44000006
   11.33805561  145.34899902    0.40000001    2.44000006
   11.34138870  130.45799255    0.40000001    2.46000004
   11.34472179  133.12300110    0.40000001    2.44000006
   11.34777737  135.40299988    0.40000001    2.44000006
   11.35111141  135.37800598    0.40000001    2.46000004
   11.35166740  145.09199524    0.40000001    2.46000004
   11.35472298  139.24000549    0.40000001    2.46000004
   11.35805607  142.10000610    0.40000001    2.46000004
   11.36111164  138.79400635    0.40000001    2.46000004
   11.36722279  138.79400635    0.40000001    2.46000004
   11.37111092  131.25000000    0.38000000    2.46000004
   11.37444496  143.79100037    0.40000001    2.46000004
   11.37777805  132.01699829    0.40000001    2.46000004
   11.38083363  146.69900513    0.40000001    2.46000004
   11.38416672  139.34700012    0.38000000    2.46000004
   11.38527775  131.59199524    0.38000000    2.46000004
   11.38777733  132.25599670    0.38000000    2.46000004
   11.39111137  136.55700684    0.38000000    2.46000004
   11.39416695  138.05000305    0.38000000    2.46000004
   11.39750004  128.49899292    0.38000000    2.46000004
   11.40083313  140.89900208    0.38000000    2.46000004
   11.40388870  133.49499512    0.40000001    2.46000004
   11.40999985  133.49499512    0.38000000    2.46000004
   11.41416645  131.65899658    0.38000000    2.46000004
   11.41722298  136.05400085    0.38000000    2.46000004
   11.41861153  132.17599487    0.38000000    2.46000004
   11.42083359  132.58299255    0.38000000    2.46000004
   11.42416668  128.98599243    0.38000000    2.48000002
   11.42722225  132.37199402    0.38000000    2.48000002
   11.43055630  142.81500244    0.38000000    2.48000002
   11.43388939  140.25599670    0.38000000    2.48000002
   11.43694496  135.19500732    0.38000000    2.48000002
   11.44027805  137.21600342    0.38000000    2.48000002
   11.44361115  140.84300232    0.38000000    2.48000002
   11.44666672  138.17100525    0.38000000    2.48000002
   11.45277786  138.17100525    0.38000000    2.48000002
   11.45694447  138.34599304    0.38000000    2.48000002
   11.46027756  136.33999634    0.38000000    2.48000002
   11.46333313  130.85800171    0.38000000    2.48000002
   11.46666622  137.13000488    0.38000000    2.48000002
   11.46999931  142.15800476    0.38000000    2.48000002
   11.47305489  136.94500732    0.36000001    2.50000000
   11.47638798  135.46200562    0.38000000    2.50000000
   11.47944355  129.80299377    0.36000001    2.48000002
   11.48277760  130.90600586    0.36000001    2.48000002
   11.48500061  133.49200439    0.36000001    2.48000002
   11.48638916  133.43499756    0.38000000    2.50000000
   11.48972225  133.95300293    0.38000000    2.50000000
   11.49555588  133.95300293    0.36000001    2.50000000
   11.49972248  137.99600220    0.38000000    2.50000000
   11.50305557  135.10200500    0.36000001    2.50000000
   11.50611115  129.28700256    0.36000001    2.50000000
   11.50944424  128.05000305    0.36000001    2.50000000
   11.51277733  136.59100342    0.36000001    2.50000000
   11.51583290  136.07200623    0.38000000    2.50000000
   11.51833344  136.33799744    0.38000000    2.50000000
   11.51944447  128.44099426    0.36000001    2.50000000
   11.52277756  135.99400330    0.36000001    2.50000000
   11.52583313  134.94900513    0.38000000    2.50000000
   11.52916622  131.61999512    0.38000000    2.50000000
   11.53249931  133.84899902    0.38000000    2.50000000
   11.53861141  133.84899902    0.38000000    2.50000000
   11.54250050  133.67500305    0.36000001    2.51999998
   11.54583359  128.77600098    0.36000001    2.51999998
   11.54916668  129.64799500    0.36000001    2.50000000
   11.55194473  126.76300049    0.36000001    2.51999998
   11.55277824  130.36799622    0.36000001    2.51999998
   11.55611134  128.10499573    0.36000001    2.51999998
   11.55916691  124.01899719    0.36000001    2.51999998
   11.56250000  127.67199707    0.36000001    2.51999998
   11.56583309  131.41600037    0.36000001    2.51999998
   11.56888866  132.02200317    0.36000001    2.51999998
   11.57222176  127.12899780    0.36000001    2.51999998
   11.57555580  128.33500671    0.36000001    2.51999998
   11.58138847  128.33500671    0.36000001    2.51999998
   11.58555508  129.83700562    0.36000001    2.51999998
   11.58861065  135.97300720    0.36000001    2.51999998
   11.59194374  126.42600250    0.36000001    2.51999998
   11.59527779  134.66999817    0.36000001    2.53999996
   11.59833336  133.00000000    0.36000001    2.53999996
   11.60166740  133.31500244    0.36000001    2.51999998
   11.60472298  134.47300720    0.36000001    2.53999996
   11.60805607  125.41000366    0.36000001    2.53999996
   11.61138916  131.67599487    0.36000001    2.53999996
   11.61444473  134.95700073    0.36000001    2.53999996
   11.61777782  126.36100006    0.36000001    2.53999996
   11.61861134  127.36100006    0.36000001    2.53999996
   11.62416649  127.36100006    0.34000000    2.53999996
   11.62833309  128.75700378    0.34000000    2.53999996
   11.63166714  126.77300262    0.34000000    2.53999996
   11.63472176  132.93600464    0.34000000    2.53999996
   11.63805580  131.20399475    0.36000001    2.53999996
   11.64138889  133.18499756    0.36000001    2.53999996
   11.64444447  130.14900208    0.34000000    2.55999994
   11.64777756  128.29400635    0.36000001    2.53999996
   11.65083313  127.17099762    0.36000001    2.53999996
   11.65194416  130.07699585    0.36000001    2.53999996
   11.65444374  131.59700012    0.34000000    2.53999996
   11.65777779  123.90699768    0.34000000    2.53999996
   11.66083336  125.54000092    0.34000000    2.55999994
   11.66694450  125.54000092    0.34000000    2.55999994
   11.67111111  127.71700287    0.36000001    2.55999994
   11.67444515  132.67199707    0.36000001    2.55999994
   11.67777824  133.40499878    0.34000000    2.55999994
   11.68083382  129.95899963    0.36000001    2.55999994
   11.68416691  127.99199677    0.34000000    2.55999994
   11.68527794  131.83099365    0.34000000    2.55999994
   11.68777752  127.37100220    0.34000000    2.55999994
   11.69111156  130.63400269    0.34000000    2.55999994
   11.69416714  129.88499451    0.34000000    2.55999994
   11.69750023  128.25000000    0.34000000    2.55999994
   11.70083332  132.16900635    0.34000000    2.55999994
   11.70388889  123.06500244    0.34000000    2.55999994
   11.71000004  123.06500244    0.34000000    2.55999994
   11.71388912  132.00399780    0.34000000    2.55999994
   11.71722221  129.11199951    0.34000000    2.55999994
   11.71861076  136.16999817    0.34000000    2.55999994
   11.72083282  131.58500671    0.34000000    2.55999994
   11.72416592  127.71600342    0.34000000    2.55999994
   11.72749996  124.31999969    0.34000000    2.55999994
   11.73055553  130.06300354    0.34000000    2.55999994
   11.73388958  125.13300323    0.31999999    2.55999994
   11.73722267  131.59399414    0.31999999    2.55999994
   11.74027824  133.87699890    0.31999999    2.57999992
   11.74361134  141.34500122    0.31999999    2.57999992
   11.74666691  131.66200256    0.34000000    2.57999992
   11.75277805  131.66200256    0.31999999    2.57999992
   11.75694466  131.86000061    0.31999999    2.57999992
   11.76027775  130.48800659    0.31999999    2.57999992
   11.76333332  143.95199585    0.31999999    2.57999992
   11.76666641  135.42700195    0.34000000    2.57999992
   11.76972198  132.44599915    0.34000000    2.57999992
   11.77333355  150.62600708    0.31999999    2.57999992
   11.77666664  140.85000610    0.31999999    2.57999992
   11.77972221  131.91200256    0.31999999    2.57999992
   11.78305531  140.25300598    0.31999999    2.57999992
   11.78527832  146.24200439    0.31999999    2.57999992
   11.78666687  145.83000183    0.31999999    2.57999992
   11.79000092  156.08099365    0.34000000    2.57999992
   11.79555607  156.08099365    0.34000000    2.57999992
   11.79972267  144.11300659    0.31999999    2.57999992
   11.80305576  131.79299927    0.31999999    2.57999992
   11.80611134  135.82600403    0.31999999    2.59999990
   11.80944443  125.11299896    0.31999999    2.59999990
   11.81250000  136.96099854    0.31999999    2.59999990
   11.81583309  136.08500671    0.31999999    2.57999992
   11.81861115  128.05400085    0.31999999    2.59999990
   11.81944466  134.65600586    0.31999999    2.59999990
   11.82277775  125.94499969    0.31999999    2.59999990
   11.82583332  131.35499573    0.31999999    2.59999990
   11.82916641  132.63499451    0.31999999    2.57999992
   11.83249950  130.15400696    0.31999999    2.57999992
   11.83833313  130.15400696    0.34000000    2.57999992
   11.84249973  131.16200256    0.31999999    2.59999990
   11.84583282  129.72700500    0.31999999    2.59999990
   11.84888840  132.34500122    0.31999999    2.59999990
   11.85194492  128.73300171    0.31999999    2.59999990
   11.85249996  127.69100189    0.31999999    2.59999990
   11.85583401  128.30700684    0.31999999    2.59999990
   11.85916710  130.75100708    0.31999999    2.59999990
   11.86222267  127.90599823    0.31999999    2.59999990
   11.86555576  135.45199585    0.31999999    2.59999990
   11.86888885  136.45399475    0.31999999    2.59999990
   11.87194443  133.17999268    0.31999999    2.59999990
   11.87527752  130.53300476    0.31999999    2.59999990
   11.88138866  130.53300476    0.31999999    2.61999989
   11.88555527  130.00500488    0.31999999    2.59999990
   11.88861084  132.58900452    0.31999999    2.59999990
   11.89194393  132.20199585    0.31999999    2.59999990
   11.89499950  134.75700378    0.31999999    2.61999989
   11.89833355  131.97099304    0.31999999    2.59999990
   11.90166664  132.54600525    0.31999999    2.61999989
   11.90472221  119.48100281    0.31999999    2.61999989
   11.90805531  128.38099670    0.31999999    2.61999989
   11.91138840  125.48999786    0.31999999    2.61999989
   11.91444397  128.07400513    0.31999999    2.61999989
   11.91777802  123.59200287    0.31999999    2.59999990
   11.91861153  122.99199677    0.31999999    2.59999990
   11.93916702  122.99199677    0.31999999    2.61999989
   11.94333363  133.92100525    0.31999999    2.61999989
   11.94666672  131.29100037    0.34000000    2.61999989
   11.94972229  131.41200256    0.34000000    2.61999989
   11.95194435  132.88900757    0.34000000    2.61999989
   11.95361137  133.73300171    0.34000000    2.61999989
   11.95666695  129.03700256    0.34000000    2.61999989
   11.96000004  127.55100250    0.34000000    2.61999989
   11.96305561  138.27400208    0.34000000    2.61999989
   11.96638870  123.27500153    0.36000001    2.61999989
   11.96972179  129.12800598    0.36000001    2.61999989
   11.97277737  123.97200012    0.34000000    2.61999989
   11.97611046  125.06999969    0.34000000    2.61999989
   11.98194408  125.06999969    0.34000000    2.61999989
   11.98611164  126.68199921    0.34000000    2.61999989
   11.98916721  124.02899933    0.34000000    2.64000010
   11.99250031  128.38299561    0.34000000    2.61999989
   11.99583340  127.11799622    0.34000000    2.64000010
   11.99888897  135.25000000    0.36000001    2.64000010
   12.00222206  129.00700378    0.34000000    2.64000010
   12.00555515  136.10600281    0.34000000    2.64000010
   12.00861073  136.78999329    0.36000001    2.64000010
   12.01194477  129.62100220    0.36000001    2.61999989
   12.01500034  127.43499756    0.38000000    2.64000010
   12.01833344  127.24600220    0.38000000    2.61999989
   12.01888847  135.47500610    0.38000000    2.61999989
   12.02472210  135.47500610    0.38000000    2.64000010
   12.02888870  127.34400177    0.38000000    2.64000010
   12.03222179  130.13400269    0.34000000    2.64000010
   12.03527832  133.32400513    0.34000000    2.64000010
   12.03861141  131.53100586    0.34000000    2.64000010
   12.04194450  127.13700104    0.34000000    2.64000010
   12.04500008  135.75399780    0.34000000    2.64000010
   12.04833412  123.08399963    0.34000000    2.64000010
   12.05138874  128.96099854    0.34000000    2.64000010
   12.05222225  131.21800232    0.31999999    2.66000009
   12.05527782  123.30200195    0.31999999    2.66000009
   12.05833340  121.65000153    0.31999999    2.64000010
   12.06166649  127.04399872    0.31999999    2.64000010
   12.06750011  127.04399872    0.31999999    2.64000010
   12.07166672  123.52500153    0.31999999    2.64000010
   12.07499981  127.73200226    0.31999999    2.64000010
   12.07833290  132.19200134    0.31999999    2.64000010
   12.08138847  124.95800018    0.31999999    2.64000010
   12.08472157  130.71899414    0.31999999    2.64000010
   12.08555508  129.06599426    0.31999999    2.66000009
   12.08833313  132.91600037    0.31999999    2.66000009
   12.09138870  132.25999451    0.34000000    2.66000009
   12.09472179  127.29799652    0.34000000    2.66000009
   12.09777737  125.52899933    0.34000000    2.66000009
   12.10138893  127.90899658    0.36000001    2.66000009
   12.10444450  136.50000000    0.36000001    2.66000009
   12.11055565  136.50000000    0.34000000    2.66000009
   12.11472225  124.39099884    0.34000000    2.66000009
   12.11777782  123.54199982    0.31999999    2.66000009
   12.11888885  127.10500336    0.34000000    2.64000010
   12.12166691  130.56199646    0.34000000    2.66000009
   12.12472248  125.90000153    0.34000000    2.66000009
   12.12805557  123.77200317    0.34000000    2.66000009
   12.13138866  124.56900024    0.34000000    2.66000009
   12.13444424  125.24800110    0.34000000    2.66000009
   12.13777733  127.90000153    0.34000000    2.66000009
   12.14083290  126.27600098    0.34000000    2.64000010
   12.14416695  123.80400085    0.34000000    2.66000009
   12.14750004  117.30699921    0.34000000    2.66000009
   12.15333271  117.30699921    0.34000000    2.67000008
   12.15749931  135.44000244    0.34000000    2.67000008
   12.16083336  134.98199463    0.34000000    2.66000009
   12.16416645  125.05500031    0.34000000    2.66000009
   12.16722298  129.78300476    0.34000000    2.66000009
   12.17055607  122.76699829    0.34000000    2.66000009
   12.17388916  133.94000244    0.31999999    2.66000009
   12.17694473  127.57700348    0.31999999    2.67000008
   12.18027782  124.25000000    0.31999999    2.66000009
   12.18333340  126.22100067    0.31999999    2.66000009
   12.18555546  126.37000275    0.31999999    2.66000009
   12.18722248  123.18900299    0.31999999    2.67000008
   12.19027805  126.51899719    0.31999999    2.66000009
   12.19611073  126.51899719    0.31999999    2.67000008
   12.20027733  130.58099365    0.31999999    2.66000009
   12.20361137  128.53599548    0.31999999    2.66000009
   12.20666695  123.78099823    0.31999999    2.66000009
   12.21000004  127.41799927    0.31999999    2.67000008
   12.21333313  127.18000031    0.31999999    2.67000008
   12.21638870  121.92900085    0.31999999    2.67000008
   12.21888828  123.99600220    0.31999999    2.67000008
   12.22027779  122.01699829    0.31999999    2.67000008
   12.22333336  129.98399353    0.31999999    2.67000008
   12.22666645  124.39499664    0.31999999    2.67000008
   12.22972202  126.88800049    0.30000001    2.67000008
   12.23305511  133.49000549    0.30000001    2.67000008
   12.23916721  133.49000549    0.30000001    2.67000008
   12.24305534  126.65200043    0.30000001    2.67000008
   12.24638939  124.59500122    0.30000001    2.67000008
   12.24972248  127.15799713    0.30000001    2.67000008
   12.25222206  126.76799774    0.30000001    2.67000008
   12.25333309  124.88600159    0.30000001    2.67000008
   12.25638866  128.55400085    0.31999999    2.67000008
   12.25972176  129.41999817    0.31999999    2.67000008
   12.26305580  125.50399780    0.31999999    2.67000008
   12.26611137  125.98100281    0.30000001    2.67000008
   12.26944447  117.86199951    0.31999999    2.66000009
   12.27250004  121.28800201    0.31999999    2.66000009
   12.27583313  126.87000275    0.31999999    2.67000008
   12.28194427  126.87000275    0.31999999    2.67000008
   12.28611183  127.27600098    0.31999999    2.66000009
   12.28916740  128.67999268    0.31999999    2.66000009
   12.29250050  128.07800293    0.31999999    2.67000008
   12.29555607  132.37199402    0.31999999    2.67000008
   12.29888916  125.73799896    0.31999999    2.69000006
   12.30222225  122.79499817    0.31999999    2.67000008
   12.30527782  130.64599609    0.30000001    2.69000006
   12.30861092  129.45500183    0.30000001    2.69000006
   12.31194496  124.88500214    0.31999999    2.69000006
   12.31500053  128.60299683    0.30000001    2.69000006
   12.31833363  130.93600464    0.31999999    2.69000006
   12.31888866  128.88099670    0.31999999    2.69000006
   12.32472229  128.88099670    0.31999999    2.69000006
   12.32888889  127.86799622    0.31999999    2.69000006
   12.33194447  135.84800720    0.31999999    2.69000006
   12.33527756  128.39999390    0.30000001    2.67000008
   12.33861065  130.82299805    0.30000001    2.69000006
   12.34166622  127.15899658    0.31999999    2.69000006
   12.34499931  125.83100128    0.31999999    2.69000006
   12.34833336  125.11399841    0.31999999    2.69000006
   12.35138893  128.89199829    0.31999999    2.69000006
   12.35222244  130.48300171    0.34000000    2.67000008
   12.35500050  127.15799713    0.34000000    2.67000008
   12.35805607  127.16999817    0.31999999    2.69000006
   12.36138916  129.58299255    0.31999999    2.69000006
   12.36750031  129.58299255    0.31999999    2.69000006
   12.37166691  128.47300720    0.31999999    2.69000006
   12.37500000  126.38500214    0.31999999    2.69000006
   12.37805557  127.67099762    0.30000001    2.69000006
   12.38138866  123.79699707    0.30000001    2.69000006
   12.38472176  122.26100159    0.30000001    2.69000006
   12.38555527  126.49400330    0.30000001    2.69000006
   12.38833332  128.34100342    0.30000001    2.69000006
   12.39166641  127.33200073    0.30000001    2.69000006
   12.39499950  122.93499756    0.31999999    2.69000006
   12.39805508  128.46499634    0.31999999    2.69000006
   12.40138817  126.18399811    0.31999999    2.69000006
   12.40444374  124.73500061    0.31999999    2.69000006
   12.41027737  124.73500061    0.30000001    2.69000006
   12.41444397  122.22899628    0.30000001    2.69000006
   12.41777802  127.59600067    0.31999999    2.69000006
   12.41888905  126.59999847    0.31999999    2.69000006
   12.42138958  125.73999786    0.31999999    2.69000006
   12.42444515  128.08299255    0.31999999    2.69000006
   12.42777824  126.41100311    0.30000001    2.69000006
   12.43111134  137.38099670    0.30000001    2.69000006
   12.43416691  130.97200012    0.30000001    2.69000006
   12.43750000  127.67900085    0.30000001    2.69000006
   12.44083309  128.73699951    0.30000001    2.69000006
   12.44388866  134.35600281    0.28000000    2.71000004
   12.44722271  129.79899597    0.28000000    2.71000004
   12.45333290  129.79899597    0.31999999    2.69000006
   12.45749950  130.97999573    0.30000001    2.71000004
   12.46055508  126.67500305    0.31999999    2.71000004
   12.46388912  125.69200134    0.30000001    2.69000006
   12.46694374  121.00700378    0.30000001    2.69000006
   12.47027779  128.57600403    0.30000001    2.69000006
   12.47361088  125.37400055    0.30000001    2.69000006
   12.47666645  133.62199402    0.28000000    2.71000004
   12.47999954  128.63800049    0.30000001    2.69000006
   12.48333359  131.33500671    0.28000000    2.71000004
   12.48555565  122.73699951    0.28000000    2.71000004
   12.48694515  126.41799927    0.28000000    2.71000004
   12.49000072  128.27799988    0.30000001    2.69000006
   12.49611092  128.27799988    0.30000001    2.69000006
   12.50027752  127.75599670    0.31999999    2.69000006
   12.50333309  125.64499664    0.28000000    2.69000006
   12.50666714  127.72000122    0.30000001    2.71000004
   12.51000023  127.43900299    0.31999999    2.71000004
   12.51305580  125.60500336    0.31999999    2.71000004
   12.51638889  127.50700378    0.30000001    2.71000004
   12.51888847  130.06799316    0.30000001    2.71000004
   12.51999950  125.60900116    0.30000001    2.71000004
   12.52305508  129.60600281    0.30000001    2.71000004
   12.52638817  127.09899902    0.28000000    2.71000004
   12.52972221  128.25399780    0.30000001    2.69000006
   12.53277779  131.64799500    0.28000000    2.71000004
   12.53888893  131.64799500    0.30000001    2.71000004
   12.54305553  127.75000000    0.28000000    2.71000004
   12.54638958  133.12600708    0.28000000    2.71000004
   12.54944515  131.55599976    0.28000000    2.71000004
   12.55222225  127.28199768    0.28000000    2.71000004
   12.55333328  125.17600250    0.28000000    2.71000004
   12.55638885  124.94799805    0.28000000    2.71000004
   12.55972195  129.80900574    0.28000000    2.71000004
   12.56305599  127.62699890    0.28000000    2.71000004
   12.56611156  129.22599792    0.28000000    2.71000004
   12.56944466  132.58200073    0.30000001    2.71000004
   12.57277775  131.20300293    0.30000001    2.71000004
   12.57583332  129.50999451    0.28000000    2.71000004
   12.58166695  129.50999451    0.28000000    2.71000004
   12.58583260  122.67800140    0.28000000    2.71000004
   12.58916664  121.23999786    0.30000001    2.71000004
   12.59249973  125.14199829    0.30000001    2.71000004
   12.59555531  125.54299927    0.31999999    2.71000004
   12.59888840  127.22599792    0.31999999    2.71000004
   12.60194492  128.03900146    0.28000000    2.71000004
   12.60527802  126.84400177    0.30000001    2.71000004
   12.60861111  127.35500336    0.30000001    2.71000004
   12.61166668  125.76599884    0.28000000    2.71000004
   12.61500072  124.70099640    0.30000001    2.71000004
   12.61833382  131.67599487    0.30000001    2.71000004
   12.61916637  128.80799866    0.30000001    2.71000004
   12.62472248  128.80799866    0.30000001    2.71000004
   12.62888908  132.76600647    0.30000001    2.71000004
   12.63222218  136.68299866    0.30000001    2.71000004
   12.63527775  127.59200287    0.30000001    2.71000004
   12.63861084  129.22099304    0.30000001    2.73000002
   12.64194393  127.69499969    0.31999999    2.71000004
   12.64527798  127.30100250    0.31999999    2.71000004
   12.64833355  124.58799744    0.30000001    2.71000004
   12.65166664  132.64999390    0.30000001    2.71000004
   12.65222168  127.55000305    0.30000001    2.71000004
   12.65527725  132.25399780    0.28000000    2.71000004
   12.65833282  125.05500031    0.30000001    2.71000004
   12.66166592  125.28800201    0.28000000    2.71000004
   12.66750050  125.28800201    0.28000000    2.71000004
   12.67166710  127.45400238    0.30000001    2.71000004
   12.67472267  125.56600189    0.28000000    2.71000004
   12.67805576  125.58499908    0.28000000    2.73000002
   12.68138885  126.21900177    0.28000000    2.73000002
   12.68444443  125.82800293    0.28000000    2.73000002
   12.68555546  127.91400146    0.28000000    2.73000002
   12.68805599  125.13700104    0.28000000    2.71000004
   12.69111156  123.42800140    0.28000000    2.71000004
   12.69444466  126.86499786    0.28000000    2.73000002
   12.69777775  126.62200165    0.28000000    2.73000002
   12.70083332  126.43199921    0.28000000    2.73000002
   12.70416641  122.30400085    0.28000000    2.73000002
   12.71027756  122.30400085    0.28000000    2.73000002
   12.71444416  126.12999725    0.28000000    2.73000002
   12.71777725  126.33699799    0.28000000    2.73000002
   12.71888828  126.33200073    0.28000000    2.73000002
   12.72138882  127.29799652    0.28000000    2.73000002
   12.72444439  130.41499329    0.28000000    2.73000002
   12.72777748  125.31999969    0.28000000    2.73000002
   12.73111057  130.39300537    0.25999999    2.73000002
   12.73416710  123.40899658    0.28000000    2.73000002
   12.73750019  122.38300323    0.28000000    2.73000002
   12.74083328  125.51799774    0.28000000    2.73000002
   12.74388885  121.64099884    0.28000000    2.75000000
   12.74722290  122.37999725    0.28000000    2.75000000
   12.75305557  122.37999725    0.28000000    2.73000002
   12.75722218  127.48300171    0.28000000    2.73000002
   12.76055527  123.77999878    0.28000000    2.73000002
   12.76388931  122.87999725    0.28000000    2.75000000
   12.76694393  129.47700500    0.28000000    2.75000000
   12.77027798  128.40800476    0.28000000    2.73000002
   12.77361107  122.19000244    0.28000000    2.73000002
   12.77666664  127.79100037    0.28000000    2.73000002
   12.77999973  126.17900085    0.28000000    2.75000000
   12.78305531  126.72499847    0.28000000    2.73000002
   12.78555584  126.07099915    0.28000000    2.73000002
   12.78694534  127.18399811    0.28000000    2.73000002
   12.79027843  124.66699982    0.28000000    2.73000002
   12.79611111  124.66699982    0.28000000    2.73000002
   12.80000019  123.91799927    0.28000000    2.73000002
   12.80333328  122.07800293    0.28000000    2.73000002
   12.80666733  125.40200043    0.28000000    2.73000002
   12.80972195  125.32700348    0.28000000    2.73000002
   12.81305599  130.54600525    0.28000000    2.73000002
   12.81611156  123.07499695    0.28000000    2.73000002
   12.81888866  120.67600250    0.28000000    2.73000002
   12.81999969  124.09600067    0.28000000    2.75000000
   12.82305527  126.31999969    0.28000000    2.75000000
   12.82638836  122.67900085    0.28000000    2.73000002
   12.82972240  123.73400116    0.28000000    2.73000002
   12.83277798  126.24199677    0.28000000    2.73000002
   12.83888817  126.24199677    0.28000000    2.73000002
   12.84305477  122.81700134    0.28000000    2.73000002
   12.84611034  126.23100281    0.30000001    2.73000002
   12.84944439  127.75800323    0.30000001    2.73000002
   12.85222244  124.89399719    0.30000001    2.73000002
   12.85305595  124.22100067    0.30000001    2.73000002
   12.85611153  125.17299652    0.28000000    2.73000002
   12.85944462  127.48600006    0.28000000    2.73000002
   12.86277771  127.99700165    0.28000000    2.73000002
   12.86583328  128.32200623    0.28000000    2.73000002
   12.86916637  124.62699890    0.25999999    2.75000000
   12.87250042  120.90699768    0.28000000    2.75000000
   12.87555599  124.05899811    0.25999999    2.73000002
   12.88166714  124.05899811    0.28000000    2.73000002
   12.88583279  133.28900146    0.28000000    2.75000000
   12.88916683  122.88099670    0.25999999    2.75000000
   12.89222240  125.78700256    0.25999999    2.73000002
   12.89555550  127.10399628    0.28000000    2.75000000
   12.89888859  127.17800140    0.28000000    2.73000002
   12.90194416  119.79199982    0.28000000    2.73000002
   12.90527725  123.32599640    0.25999999    2.75000000
   12.90833282  121.67600250    0.28000000    2.75000000
   12.91166592  128.46899414    0.25999999    2.75000000
   12.91499996  124.44699860    0.28000000    2.75000000
   12.91833401  122.29299927    0.28000000    2.75000000
   12.91888905  119.85900116    0.28000000    2.75000000
   12.92444515  119.85900116    0.25999999    2.75000000
   12.92861176  122.59700012    0.25999999    2.75000000
   12.93194485  121.76399994    0.25999999    2.75000000
   12.93527794  121.80100250    0.25999999    2.75000000
   12.95277786  124.39099884    0.25999999    2.75000000
   12.95499992  127.50099945    0.25999999    2.75000000
   12.95833302  124.81400299    0.25999999    2.75000000
   12.96138859  127.88099670    0.25999999    2.75000000
   12.96749973  127.88099670    0.25999999    2.75000000
   12.97166634  123.56800079    0.25999999    2.75000000
   12.97499943  126.54399872    0.25999999    2.75000000
   12.97805500  126.63200378    0.28000000    2.75000000
   12.98138809  121.02100372    0.25999999    2.75000000
   12.98472214  124.88800049    0.25999999    2.75000000
   12.98583317  122.29499817    0.25999999    2.75000000
   12.98833370  124.64499664    0.25999999    2.75000000
   12.99166679  123.79499817    0.25999999    2.75000000
   12.99472237  127.18299866    0.25999999    2.75000000
   12.99805546  121.75599670    0.25999999    2.75000000
   13.00111103  123.43800354    0.25999999    2.75000000
   13.00444412  130.48599243    0.25999999    2.75000000
   13.01055527  130.48599243    0.25999999    2.75000000
   13.01472187  128.17700195    0.25999999    2.75000000
   13.01777744  122.75800323    0.25999999    2.75000000
   13.01916599  123.16400146    0.25999999    2.75000000
   13.02138901  126.03099823    0.25999999    2.75000000
   13.02472210  124.43900299    0.25999999    2.75000000
   13.02777767  124.66000366    0.25999999    2.75000000
   13.03111076  127.11499786    0.25999999    2.75000000
   13.03444481  125.08000183    0.25999999    2.75000000
   13.03750038  126.17299652    0.25999999    2.75000000
   13.04083347  127.09100342    0.25999999    2.76999998
   13.04388905  123.94899750    0.25999999    2.75000000
   13.04722309  125.34500122    0.25999999    2.75000000
   13.05333328  125.34500122    0.25999999    2.75000000
   13.05722237  130.10800171    0.25999999    2.75000000
   13.06055546  124.98600006    0.25999999    2.75000000
   13.06388950  123.45600128    0.25999999    2.75000000
   13.06694412  119.28399658    0.25999999    2.76999998
   13.07027817  122.22499847    0.25999999    2.75000000
   13.07333374  121.56900024    0.25999999    2.75000000
   13.07666683  120.78199768    0.25999999    2.75000000
   13.07999992  118.39099884    0.25999999    2.75000000
   13.08305550  123.92099762    0.25999999    2.76999998
   13.08583260  121.31600189    0.25999999    2.76999998
   13.08666611  124.95400238    0.25999999    2.76999998
   13.09000015  124.63700104    0.25999999    2.76999998
   13.09611034  124.63700104    0.25999999    2.75000000
   13.10027790  128.82099915    0.25999999    2.75000000
   13.10333347  125.05599976    0.25999999    2.75000000
   13.10666752  127.27899933    0.25999999    2.75000000
   13.11000061  125.82299805    0.25999999    2.76999998
   13.11305618  126.86900330    0.25999999    2.76999998
   13.11638927  124.80200195    0.28000000    2.75000000
   13.11916637  124.98300171    0.28000000    2.76999998
   13.11999989  128.82099915    0.28000000    2.76999998
   13.12333393  125.25499725    0.25999999    2.76999998
   13.12638855  125.16500092    0.25999999    2.76999998
   13.12972260  129.32499695    0.25999999    2.76999998
   13.13305569  128.65100098    0.25999999    2.76999998
   13.13888836  128.65100098    0.25999999    2.76999998
   13.14305496  124.50399780    0.28000000    2.75000000
   13.14638901  120.59400177    0.25999999    2.78999996
   13.14972210  124.62999725    0.28000000    2.76999998
   13.15249920  120.98999786    0.28000000    2.76999998
   13.15361118  121.76000214    0.25999999    2.76999998
   13.15666676  124.09899902    0.25999999    2.76999998
   13.15999985  123.99099731    0.25999999    2.76999998
   13.16333294  120.81700134    0.25999999    2.76999998
   13.16638851  123.83300018    0.25999999    2.76999998
   13.16972256  121.17700195    0.25999999    2.76999998
   13.17305565  124.90299988    0.25999999    2.76999998
   13.17611122  126.55899811    0.25999999    2.76999998
   13.18166733  126.55899811    0.25999999    2.76999998
   13.18583298  123.18800354    0.25999999    2.76999998
   13.18638897  126.77500153    0.25999999    2.76999998
   13.18972206  124.70500183    0.25999999    2.76999998
   13.19277763  124.10199738    0.25999999    2.76999998
   13.19611073  127.99400330    0.25999999    2.76999998
   13.19944477  124.25199890    0.25999999    2.76999998
   13.20249939  126.00900269    0.25999999    2.76999998
   13.20583344  127.72499847    0.25999999    2.76999998
   13.20888901  121.57099915    0.25999999    2.76999998
   13.21222210  124.77999878    0.25999999    2.78999996
   13.21555519  123.69200134    0.25999999    2.78999996
   13.21861076  126.47499847    0.25999999    2.76999998
   13.21972179  124.69200134    0.25999999    2.76999998
   13.22472191  124.69200134    0.28000000    2.76999998
   13.22861099  124.63400269    0.25999999    2.76999998
   13.23194408  123.69499969    0.25999999    2.76999998
   13.23527813  124.07800293    0.28000000    2.76999998
   13.23833370  124.33799744    0.25999999    2.76999998
   13.24166679  128.47200012    0.28000000    2.76999998
   13.24472237  125.40899658    0.25999999    2.76999998
   13.24805546  124.06900024    0.25999999    2.76999998
   13.25138855  123.67199707    0.25999999    2.76999998
   13.25305557  126.71600342    0.25999999    2.76999998
   13.25500011  122.31400299    0.25999999    2.76999998
   13.25805569  122.69100189    0.25999999    2.76999998
   13.26166630  126.01599884    0.25999999    2.76999998
   13.26749992  126.01599884    0.28000000    2.76999998
   13.27166653  125.04199982    0.25999999    2.76999998
   13.27472210  120.51999664    0.25999999    2.76999998
   13.27805519  123.53500366    0.28000000    2.76999998
   13.28138828  121.37300110    0.28000000    2.76999998
   13.28444481  119.58499908    0.28000000    2.76999998
   13.28638935  124.88800049    0.28000000    2.76999998
   13.28833389  120.66400146    0.25999999    2.78999996
   13.29138947  123.24800110    0.25999999    2.78999996
   13.29472256  121.87699890    0.25999999    2.76999998
   13.29805565  128.80599976    0.28000000    2.78999996
   13.30111122  121.62400055    0.28000000    2.76999998
   13.30444431  125.52799988    0.25999999    2.76999998
   13.31027794  125.52799988    0.25999999    2.78999996
   13.31444454  121.92099762    0.25999999    2.76999998
   13.31750011  127.28600311    0.25999999    2.76999998
   13.31972218  120.93800354    0.28000000    2.76999998
   13.32138920  121.66400146    0.28000000    2.76999998
   13.32444477  124.07800293    0.28000000    2.78999996
   13.32777786  124.05400085    0.25999999    2.78999996
   13.33083344  125.32299805    0.28000000    2.76999998
   13.33416653  124.92199707    0.28000000    2.78999996
   13.33749962  126.69400024    0.28000000    2.78999996
   13.34055519  123.41799927    0.28000000    2.78999996
   13.34388828  122.76100159    0.28000000    2.76999998
   13.34722233  121.93599701    0.28000000    2.78999996
   13.35305595  121.93599701    0.28000000    2.76999998
   13.35722256  124.61599731    0.28000000    2.76999998
   13.36055565  127.93800354    0.25999999    2.76999998
   13.36361122  121.11100006    0.25999999    2.76999998
   13.36694431  125.10299683    0.28000000    2.78999996
   13.37027836  129.10499573    0.25999999    2.76999998
   13.37333393  123.42299652    0.25999999    2.76999998
   13.37666702  122.75199890    0.25999999    2.78999996
   13.37972260  126.32800293    0.25999999    2.78999996
   13.38305569  124.44200134    0.25999999    2.78999996
   13.38638878  124.33200073    0.25999999    2.78999996
   13.38694477  124.04299927    0.25999999    2.78999996
   13.39000034  122.91600037    0.28000000    2.78999996
   13.39583302  122.91600037    0.28000000    2.78999996
   13.39999962  123.81800079    0.28000000    2.78999996
   13.40333271  123.73699951    0.28000000    2.78999996
   13.40666676  120.43199921    0.25999999    2.78999996
   13.40972137  118.93199921    0.28000000    2.78999996
   13.41305542  123.78299713    0.28000000    2.78999996
   13.41638851  123.94100189    0.25999999    2.78999996
   13.41944504  123.08100128    0.25999999    2.78999996
   13.42027855  121.38200378    0.25999999    2.78999996
   13.42305565  124.53500366    0.28000000    2.78999996
   13.42638874  123.09100342    0.25999999    2.78999996
   13.42972279  126.78600311    0.28000000    2.78999996
   13.43277836  124.01799774    0.28000000    2.78999996
   13.43888855  124.01799774    0.28000000    2.78999996
   13.44305515  125.13899994    0.28000000    2.78999996
   13.44611073  128.98500061    0.28000000    2.78999996
   13.44944477  126.98699951    0.28000000    2.78999996
   13.45277786  123.24199677    0.28000000    2.78999996
   13.45361137  121.43599701    0.28000000    2.78999996
   13.45611095  124.24400330    0.28000000    2.78999996
   13.45944405  121.89499664    0.28000000    2.78999996
   13.46277714  121.08399963    0.28000000    2.78999996
   13.46583271  123.72799683    0.28000000    2.78999996
   13.46916580  122.89499664    0.28000000    2.78999996
   13.47222137  120.30300140    0.28000000    2.78999996
   13.47555542  125.01399994    0.28000000    2.78999996
   13.48166656  125.01399994    0.28000000    2.78999996
   13.48583317  126.12500000    0.28000000    2.78999996
   13.48694515  123.76000214    0.28000000    2.78999996
   13.48944473  126.92700195    0.28000000    2.78999996
   13.49277782  126.62599945    0.28000000    2.78999996
   13.49611092  127.33599854    0.28000000    2.78999996
   13.49916649  124.33399963    0.25999999    2.78999996
   13.50249958  126.63400269    0.25999999    2.78999996
   13.50555515  123.53600311    0.25999999    2.78999996
   13.50888920  124.80200195    0.28000000    2.78999996
   13.51222229  125.97799683    0.28000000    2.78999996
   13.51527786  124.63899994    0.25999999    2.78999996
   13.51861095  129.41600037    0.28000000    2.78999996
   13.52027798  126.82399750    0.28000000    2.78999996
   13.52444458  126.82399750    0.25999999    2.78999996
   13.52888870  126.41200256    0.25999999    2.78999996
   13.53194427  125.76699829    0.25999999    2.78999996
   13.53527832  125.99299622    0.25999999    2.78999996
   13.53861141  122.93699646    0.25999999    2.80999994
   13.54166698  126.71800232    0.25999999    2.80999994
   13.54500008  124.66500092    0.28000000    2.78999996
   13.54833412  128.80000305    0.28000000    2.78999996
   13.55138874  129.87800598    0.28000000    2.78999996
   13.55361176  126.46900177    0.28000000    2.78999996
   13.55500031  123.79900360    0.28000000    2.78999996
   13.55833340  132.22500610    0.25999999    2.78999996
   13.56166649  124.09500122    0.25999999    2.78999996
   13.56750011  124.09500122    0.25999999    2.78999996
   13.57138920  126.64499664    0.25999999    2.78999996
   13.57472229  125.88800049    0.25999999    2.80999994
   13.57805538  128.53100586    0.25999999    2.80999994
   13.58111095  132.38999939    0.25999999    2.80999994
   13.58444405  130.55400085    0.25999999    2.80999994
   13.58694458  127.28800201    0.25999999    2.80999994
   13.58805561  123.41799927    0.25999999    2.80999994
   13.59138870  128.40499878    0.28000000    2.80999994
   13.59472179  126.72699738    0.25999999    2.80999994
   13.59777737  124.85500336    0.25999999    2.80999994
   13.60111141  128.44999695    0.25999999    2.80999994
   13.60444450  124.83999634    0.25999999    2.80999994
   13.61027813  124.83999634    0.28000000    2.78999996
   13.61444473  128.95199585    0.25999999    2.78999996
   13.61750031  121.45200348    0.25999999    2.78999996
   13.62027836  125.84100342    0.25999999    2.80999994
   13.62111092  130.99000549    0.25999999    2.80999994
   13.62444496  127.20099640    0.25999999    2.80999994
   13.62777805  128.77000427    0.25999999    2.80999994
   13.63083363  124.42099762    0.28000000    2.80999994
   13.63416672  123.85099792    0.25999999    2.80999994
   13.63722229  129.21299744    0.28000000    2.80999994
   13.64055538  127.26899719    0.28000000    2.80999994
   13.64388847  128.97099304    0.28000000    2.80999994
   13.64722252  127.43900299    0.28000000    2.80999994
   13.65305519  127.43900299    0.25999999    2.80999994
   13.65722179  129.43899536    0.25999999    2.80999994
   13.66055489  125.10299683    0.25999999    2.80999994
   13.66361046  121.27200317    0.25999999    2.80999994
   13.66694450  123.30000305    0.25999999    2.80999994
   13.67000008  122.03099823    0.25999999    2.80999994
   13.67333412  130.30000305    0.25999999    2.80999994
   13.67694473  122.38300323    0.25999999    2.80999994
   13.68000031  122.72000122    0.25999999    2.80999994
   13.68333340  123.22799683    0.25999999    2.80999994
   13.68666649  125.38700104    0.25999999    2.80999994
   13.68805599  120.48999786    0.25999999    2.80999994
   13.69027805  124.45899963    0.25999999    2.80999994
   13.69583321  124.45899963    0.25999999    2.80999994
   13.69999981  123.18599701    0.25999999    2.80999994
   13.70333290  123.72399902    0.25999999    2.80999994
   13.70638847  129.92799377    0.30000001    2.80999994
   13.70972157  126.97799683    0.30000001    2.80999994
   13.71305561  121.31800079    0.28000000    2.80999994
   13.71638870  122.32399750    0.25999999    2.80999994
   13.71972179  120.19300079    0.25999999    2.80999994
   13.72138882  125.13999939    0.28000000    2.80999994
   13.72333336  128.49200439    0.28000000    2.80999994
   13.72638798  126.77100372    0.28000000    2.80999994
   13.72972202  121.99600220    0.30000001    2.80999994
   13.73305511  122.85199738    0.28000000    2.80999994
   13.73861122  122.85199738    0.25999999    2.80999994
   13.74277782  121.61399841    0.28000000    2.80999994
   13.74611092  117.93499756    0.28000000    2.80999994
   13.74944496  122.61599731    0.30000001    2.80999994
   13.75249958  120.59600067    0.30000001    2.80999994
   13.75500011  113.87000275    0.25999999    2.80999994
   13.75611115  119.27500153    0.25999999    2.80999994
   13.75944424  117.75599670    0.25999999    2.80999994
   13.76277733  120.60600281    0.25999999    2.80999994
   13.76583290  122.14099884    0.25999999    2.80999994
   13.76916599  119.96700287    0.25999999    2.80999994
   13.77222157  122.34799957    0.28000000    2.78999996
   13.77555561  119.96499634    0.25999999    2.80999994
   13.78166676  119.96499634    0.28000000    2.80999994
   13.78583336  119.62200165    0.31999999    2.82999992
   13.78833389  120.54399872    0.30000001    2.82999992
   13.78916740  121.02899933    0.28000000    2.82999992
   13.79250050  123.18099976    0.28000000    2.82999992
   13.79583359  124.51100159    0.25999999    2.82999992
   13.79888916  122.92800140    0.25999999    2.80999994
   13.80222225  121.91000366    0.25999999    2.80999994
   13.80527782  119.73699951    0.25999999    2.80999994
   13.80861092  121.77799988    0.28000000    2.80999994
   13.81194496  119.37500000    0.25999999    2.80999994
   13.81500053  117.91799927    0.25999999    2.80999994
   13.81833363  121.03099823    0.25999999    2.80999994
   13.82444477  121.03099823    0.25999999    2.82999992
   13.82861137  118.38600159    0.25999999    2.80999994
   13.83194447  119.36000061    0.25999999    2.82999992
   13.83527756  117.93599701    0.25999999    2.82999992
   13.83833313  118.83999634    0.28000000    2.80999994
   13.84166622  121.58200073    0.25999999    2.80999994
   13.84499931  121.65299988    0.25999999    2.82999992
   13.84805489  121.36799622    0.28000000    2.80999994
   13.85138893  122.52300262    0.25999999    2.82999992
   13.85472298  123.06500244    0.25999999    2.82999992
   13.85527802  121.29900360    0.25999999    2.82999992
   13.85833359  121.87100220    0.28000000    2.80999994
   13.86166668  123.19799805    0.25999999    2.82999992
   13.86722279  123.19799805    0.25999999    2.80999994
   13.87138939  125.52799988    0.25999999    2.80999994
   13.87472248  122.82399750    0.25999999    2.82999992
   13.87777805  117.41000366    0.25999999    2.82999992
   13.88111115  121.03399658    0.25999999    2.80999994
   13.88444424  122.19300079    0.28000000    2.80999994
   13.88749981  122.71199799    0.28000000    2.80999994
   13.88888836  118.05599976    0.25999999    2.82999992
   13.89138889  122.11699677    0.25999999    2.82999992
   13.89444447  123.15799713    0.28000000    2.80999994
   13.89777756  126.11199951    0.25999999    2.80999994
   13.90083313  123.86199951    0.25999999    2.80999994
   13.90416622  122.12300110    0.25999999    2.82999992
   13.91027737  122.12300110    0.25999999    2.82999992
   13.91416645  121.34100342    0.25999999    2.80999994
   13.91750050  123.84500122    0.25999999    2.82999992
   13.92083359  118.98600006    0.25999999    2.82999992
   13.92222214  120.75800323    0.25999999    2.82999992
   13.92444515  120.52200317    0.25999999    2.82999992
   13.92777824  119.73699951    0.25999999    2.80999994
   13.93083382  118.03800201    0.25999999    2.80999994
   13.93416691  121.13800049    0.25999999    2.82999992
   13.93722248  118.25599670    0.25999999    2.82999992
   13.94055557  120.66699982    0.25999999    2.80999994
   13.94388866  125.17299652    0.25999999    2.82999992
   13.94694424  117.84600067    0.25999999    2.82999992
   13.95305538  117.84600067    0.25999999    2.82999992
   13.97138882  118.37599945    0.25999999    2.80999994
   13.97472191  118.83300018    0.25999999    2.80999994
   13.97777748  122.39199829    0.25999999    2.80999994
   13.98111057  122.65499878    0.25999999    2.82999992
   13.98416710  118.14399719    0.25999999    2.82999992
   13.98750019  122.58200073    0.25999999    2.82999992
   13.99083328  121.28800201    0.25999999    2.82999992
   13.99611092  121.28800201    0.25999999    2.82999992
   14.00027752  117.87400055    0.28000000    2.82999992
   14.00333309  118.36699677    0.28000000    2.82999992
   14.00444412  115.65200043    0.28000000    2.82999992
   14.00694466  119.73699951    0.28000000    2.82999992
   14.01027775  116.19999695    0.25999999    2.82999992
   14.01361084  119.20999908    0.28000000    2.82999992
   14.01666641  119.34500122    0.25999999    2.82999992
   14.01999950  121.81800079    0.25999999    2.82999992
   14.02333355  118.26999664    0.25999999    2.82999992
   14.02638817  118.60600281    0.25999999    2.82999992
   14.02972221  116.72799683    0.25999999    2.82999992
   14.03305531  120.01300049    0.25999999    2.82999992
   14.03888893  120.01300049    0.25999999    2.82999992
   14.04305553  122.81500244    0.25999999    2.80999994
   14.04611111  122.83999634    0.25999999    2.80999994
   14.04944515  114.72499847    0.25999999    2.82999992
   14.05277824  117.43000031    0.31999999    2.82999992
   14.05583382  128.54600525    0.30000001    2.84999990
   14.05916691  119.12699890    0.28000000    2.82999992
   14.06250000  120.10399628    0.28000000    2.82999992
   14.06555557  115.61499786    0.25999999    2.82999992
   14.06888866  115.67199707    0.25999999    2.82999992
   14.07111073  118.98100281    0.25999999    2.82999992
   14.07250023  117.45700073    0.25999999    2.82999992
   14.07555580  117.33499908    0.25999999    2.82999992
   14.08166695  117.33499908    0.25999999    2.82999992
   14.08583260  116.40000153    0.25999999    2.82999992
   14.08916664  115.91799927    0.25999999    2.82999992
   14.09222221  111.97499847    0.25999999    2.82999992
   14.09555531  116.76999664    0.25999999    2.82999992
   14.09888840  114.47399902    0.25999999    2.80999994
   14.10194492  114.39600372    0.25999999    2.82999992
   14.10444450  115.24099731    0.25999999    2.82999992
   14.10555553  115.13899994    0.25999999    2.82999992
   14.10888958  114.40599823    0.25999999    2.82999992
   14.11222267  118.05500031    0.25999999    2.82999992
   14.11527824  124.26000214    0.25999999    2.82999992
   14.11861134  120.33399963    0.25999999    2.82999992
   14.12444496  120.33399963    0.25999999    2.82999992
   14.12861156  119.45400238    0.31999999    2.84999990
   14.13194466  119.60600281    0.28000000    2.82999992
   14.13527775  118.92500305    0.28000000    2.82999992
   14.13777733  121.34799957    0.28000000    2.82999992
   14.13861084  119.03399658    0.28000000    2.82999992
   14.14194393  123.14700317    0.25999999    2.82999992
   14.14527798  115.27799988    0.25999999    2.80999994
   14.14833355  119.34100342    0.25999999    2.80999994
   14.15166664  118.54399872    0.25999999    2.82999992
   14.15499973  118.49700165    0.25999999    2.82999992
   14.15805531  121.71199799    0.25999999    2.82999992
   14.16138840  121.93399811    0.25999999    2.82999992
   14.16750050  121.93399811    0.25999999    2.82999992
   14.17166710  117.15899658    0.25999999    2.82999992
   14.17472267  117.87999725    0.25999999    2.82999992
   14.17805576  114.96299744    0.25999999    2.82999992
   14.18138885  113.97699738    0.28000000    2.82999992
   14.18444443  116.42400360    0.25999999    2.84999990
   14.18777752  118.76599884    0.31999999    2.82999992
   14.19083309  115.41799927    0.31999999    2.82999992
   14.19416714  120.91699982    0.30000001    2.82999992
   14.19750023  115.90100098    0.31999999    2.82999992
   14.20055580  118.20700073    0.31999999    2.82999992
   14.20388889  119.10800171    0.25999999    2.82999992
   14.20444393  118.02999878    0.25999999    2.82999992
   14.21027756  118.02999878    0.34000000    2.82999992
   14.21444416  123.06099701    0.31999999    2.82999992
   14.21749973  118.76399994    0.30000001    2.84999990
   14.22083282  119.12300110    0.30000001    2.82999992
   14.22416592  118.05300140    0.30000001    2.82999992
   14.22722149  119.10399628    0.30000001    2.82999992
   14.23055553  116.28700256    0.30000001    2.82999992
   14.23388958  118.72200012    0.28000000    2.82999992
   14.23694515  117.42800140    0.30000001    2.82999992
   14.23777771  119.88500214    0.30000001    2.82999992
   14.24055576  111.99400330    0.28000000    2.82999992
   14.24361134  111.20600128    0.28000000    2.82999992
   14.24694443  113.96800232    0.28000000    2.84999990
   14.25305557  113.96800232    0.30000001    2.82999992
   14.25722218  114.53199768    0.30000001    2.82999992
   14.26055527  111.05599976    0.30000001    2.82999992
   14.26361084  117.54599762    0.30000001    2.84999990
   14.26694393  114.18699646    0.30000001    2.84999990
   14.27027798  119.83100128    0.30000001    2.82999992
   14.27111053  114.65100098    0.30000001    2.82999992
   14.27388859  116.69000244    0.30000001    2.82999992
   14.27694416  117.00900269    0.30000001    2.82999992
   14.28027725  114.55599976    0.31999999    2.82999992
   14.28361130  117.00900269    0.36000001    2.82999992
   14.28666687  117.12400055    0.36000001    2.82999992
   14.29000092  122.54900360    0.36000001    2.82999992
   14.29583359  122.54900360    0.30000001    2.82999992
   14.30000019  116.31099701    0.30000001    2.82999992
   14.30333328  122.81500244    0.30000001    2.82999992
   14.30444431  117.17500305    0.30000001    2.82999992
   14.30694485  124.54000092    0.30000001    2.82999992
   14.31000042  121.83300018    0.30000001    2.82999992
   14.31333351  116.42600250    0.30000001    2.82999992
   14.31666660  118.48200226    0.30000001    2.82999992
   14.31972218  118.33899689    0.28000000    2.82999992
   14.32305527  116.06199646    0.28000000    2.82999992
   14.32611084  115.16400146    0.28000000    2.82999992
   14.32944393  112.59799957    0.30000001    2.82999992
   14.33277798  116.44599915    0.28000000    2.82999992
   14.33888817  116.44599915    0.28000000    2.82999992
   14.34305477  119.96800232    0.30000001    2.82999992
   14.34611034  118.60600281    0.28000000    2.82999992
   14.34944439  120.40299988    0.28000000    2.84999990
   14.35277843  117.43900299    0.25999999    2.84999990
   14.35583401  117.65299988    0.25999999    2.84999990
   14.35916710  120.38200378    0.28000000    2.82999992
   14.36250019  112.63800049    0.25999999    2.84999990
   14.36555576  120.42600250    0.25999999    2.84999990
   14.36888885  122.34300232    0.25999999    2.82999992
   14.37111092  122.24299622    0.25999999    2.82999992
   14.37250042  114.06099701    0.25999999    2.82999992
   14.37555599  115.53600311    0.25999999    2.82999992
   14.38166714  115.53600311    0.25999999    2.84999990
   14.38583279  122.36499786    0.28000000    2.84999990
   14.38888836  115.38400269    0.25999999    2.84999990
   14.39222240  121.98999786    0.25999999    2.84999990
   14.39555550  116.05400085    0.25999999    2.84999990
   14.39861107  118.51899719    0.25999999    2.82999992
   14.40194416  119.77899933    0.25999999    2.84999990
   14.40444374  117.88200378    0.25999999    2.84999990
   14.40555477  115.61900330    0.25999999    2.84999990
   14.40861034  117.21099854    0.25999999    2.84999990
   14.41194439  115.33000183    0.25999999    2.84999990
   14.41527748  117.56999969    0.25999999    2.82999992
   14.41833401  120.30699921    0.28000000    2.82999992
   14.42444515  120.30699921    0.25999999    2.82999992
   14.42861176  118.67900085    0.25999999    2.84999990
   14.43194485  116.65000153    0.25999999    2.84999990
   14.43500042  117.74700165    0.25999999    2.82999992
   14.43777752  119.54299927    0.25999999    2.84999990
   14.43888855  114.09799957    0.25999999    2.84999990
   14.44194412  116.55400085    0.28000000    2.84999990
   14.44527817  118.00800323    0.25999999    2.84999990
   14.44861126  123.95099640    0.25999999    2.84999990
   14.45166683  115.99199677    0.25999999    2.84999990
   14.45499992  119.77600098    0.25999999    2.84999990
   14.45805550  117.31800079    0.25999999    2.84999990
   14.46138859  114.76599884    0.28000000    2.84999990
   14.46749973  114.76599884    0.28000000    2.84999990
   14.47138882  112.60900116    0.28000000    2.82999992
   14.47472191  116.28299713    0.28000000    2.84999990
   14.47805500  118.14800262    0.28000000    2.84999990
   14.48111057  116.04799652    0.28000000    2.82999992
   14.48444462  117.48899841    0.28000000    2.82999992
   14.48777771  115.23100281    0.28000000    2.84999990
   14.49083328  118.41300201    0.28000000    2.84999990
   14.49416733  119.86399841    0.28000000    2.84999990
   14.49722290  117.49299622    0.28000000    2.84999990
   14.50055599  117.53800201    0.28000000    2.84999990
   14.50388908  116.74199677    0.28000000    2.84999990
   14.50444412  116.34400177    0.28000000    2.84999990
   14.51027775  116.34400177    0.28000000    2.84999990
   14.51444435  115.44100189    0.28000000    2.84999990
   14.51749992  111.48899841    0.28000000    2.84999990
   14.52083302  116.69799805    0.30000001    2.84999990
   14.52388859  114.44400024    0.28000000    2.84999990
   14.52722168  117.13200378    0.28000000    2.84999990
   14.53055573  112.47100067    0.28000000    2.84999990
   14.53388977  113.23999786    0.28000000    2.84999990
   14.53694534  115.77100372    0.30000001    2.84999990
   14.53777790  125.62000275    0.30000001    2.84999990
   14.54055595  113.85900116    0.30000001    2.84999990
   14.54361153  115.76200104    0.28000000    2.84999990
   14.54694462  113.08599854    0.28000000    2.84999990
   14.55305576  113.08599854    0.28000000    2.84999990
   14.55722237  115.36499786    0.28000000    2.84999990
   14.56027794  115.85199738    0.28000000    2.84999990
   14.56361103  113.55300140    0.30000001    2.84999990
   14.56694412  114.41699982    0.30000001    2.84999990
   14.56999969  112.23699951    0.30000001    2.84999990
   14.57111073  111.04900360    0.30000001    2.84999990
   14.57361126  114.05500031    0.30000001    2.84999990
   14.57666683  111.68699646    0.30000001    2.84999990
   14.57999992  112.53600311    0.31999999    2.84999990
   14.58333302  115.58499908    0.30000001    2.84999990
   14.58638859  113.62799835    0.30000001    2.82999992
   14.58972168  113.09300232    0.30000001    2.84999990
   14.59583282  113.09300232    0.30000001    2.84999990
   14.60000038  116.32099915    0.28000000    2.84999990
   14.60333347  119.53600311    0.28000000    2.84999990
   14.60444450  115.07800293    0.28000000    2.84999990
   14.60694504  116.69400024    0.30000001    2.84999990
   14.61027813  117.01699829    0.28000000    2.84999990
   14.61333370  114.44300079    0.28000000    2.82999992
   14.61666679  115.65000153    0.28000000    2.82999992
   14.61999989  116.88700104    0.28000000    2.84999990
   14.62305546  121.54900360    0.30000001    2.84999990
   14.62638855  120.54499817    0.30000001    2.84999990
   14.62972260  118.77500153    0.30000001    2.84999990
   14.63277817  116.73899841    0.30000001    2.84999990
   14.63861084  116.73899841    0.30000001    2.84999990
   14.64277744  114.14199829    0.30000001    2.84999990
   14.64611053  110.53399658    0.30000001    2.84999990
   14.64944458  112.51899719    0.30000001    2.84999990
   14.65249920  119.45800018    0.30000001    2.84999990
   14.65583324  112.49600220    0.30000001    2.84999990
   14.65888882  115.68699646    0.30000001    2.84999990
   14.66222191  119.79900360    0.30000001    2.84999990
   14.66555500  119.79199982    0.30000001    2.84999990
   14.66861153  120.73200226    0.30000001    2.84999990
   14.67111111  122.72699738    0.31999999    2.84999990
   14.67222214  124.42800140    0.31999999    2.84999990
   14.67555618  127.23000336    0.31999999    2.84999990
   14.68166733  127.23000336    0.30000001    2.84999990
   14.68583298  130.35699463    0.30000001    2.82999992
   14.68888855  135.05099487    0.30000001    2.84999990
   14.69222260  144.56199646    0.30000001    2.84999990
   14.69555569  150.04200745    0.31999999    2.84999990
   14.69861126  145.31799316    0.30000001    2.86999989
   14.70194435  159.97900391    0.30000001    2.86999989
   14.70444393  162.22000122    0.31999999    2.84999990
   14.70555496  150.08700562    0.31999999    2.84999990
   14.70888901  150.40699768    0.31999999    2.84999990
   14.71194458  154.83099365    0.30000001    2.82999992
   14.71527767  145.45700073    0.30000001    2.84999990
   14.71833324  149.46299744    0.30000001    2.84999990
   14.72444439  149.46299744    0.30000001    2.84999990
   14.72861099  148.25799561    0.30000001    2.86999989
   14.73166656  155.83299255    0.30000001    2.84999990
   14.73500061  164.83200073    0.30000001    2.84999990
   14.73777771  162.26199341    0.30000001    2.84999990
   14.73861122  162.00399780    0.28000000    2.84999990
   14.74194431  171.61700439    0.28000000    2.84999990
   14.74499989  175.64599609    0.28000000    2.84999990
   14.74833393  166.10899353    0.30000001    2.84999990
   14.75138855  161.64300537    0.28000000    2.84999990
   14.75472260  162.04400635    0.30000001    2.84999990
   14.75805569  171.29400635    0.30000001    2.84999990
   14.76111126  156.31700134    0.30000001    2.84999990
   14.76722240  156.31700134    0.30000001    2.84999990
   14.77138901  152.58500671    0.30000001    2.84999990
   14.77472210  152.43800354    0.30000001    2.84999990
   14.77777767  158.01899719    0.30000001    2.84999990
   14.78111076  154.85400391    0.30000001    2.84999990
   14.78444481  151.64599609    0.30000001    2.84999990
   14.78750038  156.48800659    0.30000001    2.84999990
   14.79083347  155.65800476    0.34000000    2.84999990
   14.79388905  167.46299744    0.31999999    2.86999989
   14.79722309  157.96699524    0.30000001    2.84999990
   14.80055618  158.36199951    0.30000001    2.84999990
   14.80361176  164.55299377    0.30000001    2.84999990
   14.80444431  156.66600037    0.30000001    2.84999990
   14.81000042  156.66600037    0.30000001    2.84999990
   14.81416702  152.68699646    0.30000001    2.84999990
   14.81750011  159.21899414    0.30000001    2.84999990
   14.82083321  160.71000671    0.28000000    2.84999990
   14.82388878  167.63800049    0.30000001    2.84999990
   14.82722187  168.19799805    0.30000001    2.84999990
   14.83027744  160.64999390    0.31999999    2.84999990
   14.83361053  175.03799438    0.31999999    2.84999990
   14.83694458  159.56799316    0.30000001    2.84999990
   14.83777714  164.75599670    0.30000001    2.84999990
   14.84055519  166.27600098    0.30000001    2.84999990
   14.84388828  159.32899475    0.30000001    2.84999990
   14.84694386  164.78300476    0.30000001    2.84999990
   14.85305595  164.78300476    0.30000001    2.84999990
   14.85722256  168.00900269    0.30000001    2.84999990
   14.86055565  179.22000122    0.30000001    2.84999990
   14.86361122  172.67999268    0.30000001    2.84999990
   14.86694431  163.45199585    0.30000001    2.84999990
   14.86999989  162.96699524    0.30000001    2.84999990
   14.87111092  168.17999268    0.30000001    2.84999990
   14.87361145  159.25100708    0.30000001    2.84999990
   14.87694454  174.65400696    0.30000001    2.84999990
   14.88000011  167.25999451    0.30000001    2.84999990
   14.88333321  153.08200073    0.30000001    2.84999990
   14.88638878  152.40800476    0.30000001    2.84999990
   14.88972187  163.88299561    0.30000001    2.84999990
   14.89583302  163.88299561    0.30000001    2.84999990
   14.89999962  168.55499268    0.30000001    2.84999990
   14.90305519  165.91600037    0.30000001    2.84999990
   14.90444374  170.95899963    0.30000001    2.84999990
   14.90666676  162.27200317    0.30000001    2.84999990
   14.90999985  156.36700439    0.30000001    2.84999990
   14.91305542  167.20799255    0.30000001    2.84999990
   14.91638851  162.08000183    0.30000001    2.84999990
   14.91972256  170.42900085    0.30000001    2.84999990
   14.92277813  172.77999878    0.30000001    2.84999990
   15.03722286   -1.00000000   -1.00000000   -1.00000000
   15.13444424   -1.00000000   -1.00000000   -1.00000000
   15.39805508   -1.00000000   -1.00000000   -1.00000000
   15.70472240   76.69950104    0.52999997    2.86999989
   15.70805550  122.09300232    0.51999998    2.86999989
   15.71138859  123.97299957    0.51999998    2.86999989
   15.71444416  122.93299866    0.47999999    2.86999989
   15.71777725  121.83100128    0.47999999    2.86999989
   15.72111034  125.41000366    0.47999999    2.86999989
   15.72499943  125.41000366    0.41999999    2.86999989
   15.72916603  117.44200134    0.46000001    2.86999989
   15.73249912  123.62400055    0.46000001    2.86999989
   15.73555565  120.14399719    0.46000001    2.86999989
   15.73805618  124.46099854    0.46000001    2.84999990
   15.73944473  119.38899994    0.46000001    2.84999990
   15.74250031  125.88899994    0.50000000    2.84999990
   15.74583340  114.49700165    0.50000000    2.86999989
   15.74916649  122.00099945    0.50000000    2.86999989
   15.75222206  119.55400085    0.50000000    2.86999989
   15.75555515  119.83100128    0.47999999    2.86999989
   15.75861073  116.98000336    0.50000000    2.86999989
   15.76194477  119.98000336    0.51999998    2.86999989
   15.76805496  119.98000336    0.51999998    2.86999989
   15.77194405  120.01999664    0.50000000    2.86999989
   15.77527714  121.77300262    0.51999998    2.86999989
   15.77861118  118.96900177    0.52999997    2.86999989
   15.78166676  118.83999634    0.51999998    2.86999989
   15.78500080  119.68299866    0.55000001    2.86999989
   15.78833389  116.47599792    0.55000001    2.86999989
   15.79138947  116.36799622    0.52999997    2.86999989
   15.79472256  117.90299988    0.52999997    2.86999989
   15.79777813  117.54199982    0.56999999    2.86999989
   15.80111122  120.12400055    0.56999999    2.86999989
   15.80444431  124.26599884    0.56999999    2.86999989
   15.80500031  116.98999786    0.56999999    2.86999989
   15.81083393  116.98999786    0.56999999    2.86999989
   15.81500053  117.87100220    0.51999998    2.86999989
   15.81805515  116.68299866    0.52999997    2.86999989
   15.82138920  121.22299957    0.51999998    2.86999989
   15.82472229  119.17700195    0.51999998    2.86999989
   15.82777786  118.88500214    0.51999998    2.86999989
   15.83111095  115.02100372    0.58999997    2.86999989
   15.83416653  115.58300018    0.58999997    2.86999989
   15.83749962  116.56400299    0.63000000    2.86999989
   15.83805561  114.53299713    0.63000000    2.86999989
   15.84111118  120.24400330    0.67000002    2.84999990
   15.84444427  117.55000305    0.64999998    2.86999989
   15.84749985  116.10800171    0.64999998    2.86999989
   15.85361195  116.10800171    0.64999998    2.86999989
   15.85777855  115.57399750    0.64999998    2.86999989
   15.86111164  111.24199677    0.64999998    2.86999989
   15.86416721  113.36100006    0.64999998    2.86999989
   15.86750031  112.17500305    0.67000002    2.86999989
   15.87055588  113.81800079    0.73000002    2.86999989
   15.87138939  113.66000366    0.73000002    2.86999989
   15.87416649  113.26300049    0.73000002    2.86999989
   15.87750053  115.16200256    0.69000000    2.86999989
   15.88055611  113.24199677    0.69000000    2.86999989
   15.88388920  115.88500214    0.70999998    2.86999989
   15.88722229  114.97200012    0.61000001    2.86999989
   15.89027786  119.57599640    0.58999997    2.86999989
   15.89638901  119.57599640    0.55000001    2.86999989
   15.90055561  114.13300323    0.52999997    2.86999989
   15.90388870  115.20300293    0.51999998    2.86999989
   15.90472221  116.17900085    0.51999998    2.86999989
   15.90749931  117.38899994    0.52999997    2.86999989
   15.91083336  113.80000305    0.51999998    2.86999989
   15.91388893  116.92600250    0.55000001    2.86999989
   15.91722298  110.91699982    0.55000001    2.86999989
   15.92055607  113.13500214    0.55000001    2.86999989
   15.92361164  115.83200073    0.56999999    2.86999989
   15.92694473  112.97000122    0.56999999    2.86999989
   15.93027782  112.77799988    0.56999999    2.86999989
   15.93333340  110.71700287    0.56999999    2.86999989
   15.93944454  110.71700287    0.56999999    2.86999989
   15.94361115  112.67900085    0.63000000    2.86999989
   15.94666672  115.57199860    0.61000001    2.86999989
   15.94999981  113.76899719    0.61000001    2.86999989
   15.95333290  111.61399841    0.63000000    2.86999989
   15.95638847  112.39399719    0.63000000    2.86999989
   15.95972157  114.93399811    0.58999997    2.86999989
   15.96305561  114.43599701    0.61000001    2.86999989
   15.96611118  112.32900238    0.61000001    2.86999989
   15.96944427  114.82299805    0.63000000    2.86999989
   15.97138882  113.41799927    0.63000000    2.86999989
   15.97305489  110.26399994    0.63000000    2.86999989
   15.97638798  112.17400360    0.63000000    2.86999989
   15.98222160  112.17400360    0.70999998    2.86999989
   15.98638916  108.05000305    0.67000002    2.84999990
   15.98944473  111.17600250    0.67000002    2.84999990
   15.99277782  110.24500275    0.89999998    2.84999990
   15.99611092  117.34899902    1.19000006    2.86999989
   15.99916649  114.46700287    0.80000001    2.86999989
   16.00250053  111.68900299    0.63000000    2.86999989
   16.00472260  111.03800201    0.63000000    2.86999989
   16.00611115  114.16300201    0.63000000    2.86999989
   16.00944519  112.19200134    0.63000000    2.89000010
   16.01250076  111.07099915    0.63000000    2.86999989
   16.01583290  111.37799835    0.63000000    2.86999989
   16.01916695  112.55500031    0.58999997    2.86999989
   16.02499962  112.55500031    0.58999997    2.86999989
   16.02916718  113.15000153    0.56999999    2.86999989
   16.03249931  114.39199829    0.58999997    2.86999989
   16.03555489  113.31199646    0.56999999    2.86999989
   16.03805542  115.14499664    0.56999999    2.86999989
   16.03916550  113.39600372    0.56999999    2.86999989
   16.04249954  111.34100342    0.55000001    2.86999989
   16.04583359  114.86599731    0.55000001    2.86999989
   16.04888916  112.00399780    0.55000001    2.86999989
   16.05222130  112.84500122    0.55000001    2.86999989
   16.05555534  112.21399689    0.55000001    2.84999990
   16.05861092  113.76999664    0.55000001    2.86999989
   16.06194305  112.70800018    0.58999997    2.86999989
   16.06777954  112.70800018    0.63000000    2.86999989
   16.07194519  110.97599792    0.63000000    2.86999989
   16.07527924  109.22499847    0.63000000    2.86999989
   16.07861137  109.34700012    0.64999998    2.86999989
   16.08166695  112.04100037    0.63000000    2.86999989
   16.08500099  110.58300018    0.63000000    2.86999989
   16.08805656  116.59899902    0.63000000    2.86999989
   16.09138870  114.88400269    0.67000002    2.86999989
   16.09472275  113.67800140    0.63000000    2.86999989
   16.09777832  112.96600342    0.58999997    2.86999989
   16.10111237  110.74900055    0.58999997    2.86999989
   16.10444450  114.23600006    0.58999997    2.86999989
   16.10499954  118.27500153    0.58999997    2.86999989
   16.11083412  118.27500153    0.63000000    2.86999989
   16.11499977  113.50000000    0.67000002    2.86999989
   16.11805534  111.98699951    0.75000000    2.86999989
   16.12138939  109.36399841    0.75000000    2.86999989
   16.12444496  114.69699860    0.86000001    2.86999989
   16.12777710  112.23500061    0.94000000    2.86999989
   16.13111115  110.97599792    0.94000000    2.86999989
   16.13444519  108.64499664    0.94000000    2.86999989
   16.13750076  113.58699799    0.95999998    2.86999989
   16.13833237  111.87799835    0.95999998    2.86999989
   16.14111137  112.30999756    0.92000002    2.86999989
   16.14444351  108.33499908    0.81999999    2.86999989
   16.14777756  114.71399689    0.81999999    2.86999989
   16.15361023  114.71399689    0.75000000    2.86999989
   16.15777779  113.89700317    0.83999997    2.86999989
   16.16083336  111.98300171    0.83999997    2.86999989
   16.16416550  110.88700104    0.83999997    2.86999989
   16.16749954  115.35399628    0.83999997    2.86999989
   16.17055511  111.89700317    0.83999997    2.86999989
   16.17166519  110.67199707    0.81999999    2.86999989
   16.17416573  112.82499695    0.80000001    2.86999989
   16.17749977  112.68599701    0.79000002    2.86999989
   16.18083191  113.78800201    0.79000002    2.86999989
   16.18388748  113.24600220    0.80000001    2.86999989
   16.18722153  111.56199646    0.80000001    2.86999989
   16.19027710  114.55799866    0.79000002    2.89000010
   16.19638824  114.55799866    0.73000002    2.86999989
   16.20055580  112.41300201    0.73000002    2.86999989
   16.20388985  111.04699707    0.73000002    2.86999989
   16.20499992  115.08999634    0.73000002    2.86999989
   16.20722389  113.70700073    0.69000000    2.86999989
   16.21055603  111.88400269    0.56999999    2.86999989
   16.21389008  112.52899933    0.58999997    2.86999989
   16.21694565  114.14199829    0.58999997    2.86999989
   16.22027779  111.29000092    0.58999997    2.86999989
   16.22333336  110.12999725    0.64999998    2.86999989
   16.22666740  118.06199646    0.64999998    2.86999989
   16.23000145  113.16000366    0.67000002    2.86999989
   16.23305511  114.88400269    0.70999998    2.86999989
   16.23916626  114.88400269    0.76999998    2.86999989
   16.24333382  106.47100067    0.73000002    2.86999989
   16.24666786  115.96600342    0.75000000    2.86999989
   16.24972153  117.70300293    0.73000002    2.86999989
   16.25305557  120.85600281    0.73000002    2.86999989
   16.25638962  114.17600250    0.73000002    2.86999989
   16.25944519  116.99099731    0.73000002    2.86999989
   16.26277733  118.69200134    0.75000000    2.86999989
   16.26611137  114.22899628    0.75000000    2.86999989
   16.26916695  117.01300049    0.75000000    2.86999989
   16.27166557  119.57900238    0.69000000    2.86999989
   16.27277756  115.51200104    0.69000000    2.86999989
   16.27611160  116.70999908    0.70999998    2.86999989
   16.28222275  116.70999908    0.75000000    2.86999989
   16.28610992  113.01899719    0.76999998    2.86999989
   16.28944397  110.97200012    0.76999998    2.86999989
   16.29277802  109.32499695    0.79000002    2.86999989
   16.29611015  111.28099823    0.76999998    2.86999989
   16.29916573  113.05300140    0.80000001    2.86999989
   16.30249977  108.78500366    0.75000000    2.86999989
   16.30499840  111.69300079    0.75000000    2.86999989
   16.30583191  117.47599792    0.76999998    2.86999989
   16.30916595  109.19400024    0.76999998    2.86999989
   16.31250000  114.84700012    0.75000000    2.86999989
   16.31555557  119.21299744    0.76999998    2.86999989
   16.31888962  113.10099792    0.80000001    2.86999989
   16.32500076  113.10099792    0.80000001    2.86999989
   16.32916832  111.35299683    0.80000001    2.86999989
   16.33222389  111.72399902    0.81999999    2.86999989
   16.33555603  114.29599762    0.86000001    2.86999989
   16.33833313  109.48899841    0.86000001    2.86999989
   16.33916664  116.03900146    0.88000000    2.86999989
   16.34250069  114.95300293    0.88000000    2.86999989
   16.34583473  114.13800049    0.88000000    2.86999989
   16.34889030  108.54799652    0.81999999    2.86999989
   16.35222244  112.98999786    0.80000001    2.86999989
   16.35527802  118.43199921    0.81999999    2.86999989
   16.35861206  106.54599762    0.81999999    2.86999989
   16.36194420  114.12200165    0.86000001    2.86999989
   16.36777878  114.12200165    0.86000001    2.86999989
   16.37194443  114.69699860    1.05999994    2.86999989
   16.37527847  116.31099701    1.21000004    2.86999989
   16.37833405  118.36799622    1.21000004    2.86999989
   16.38166618  119.73200226    1.13000000    2.86999989
   16.38472176  116.76699829    1.11000001    2.86999989
   16.38805580  107.30300140    1.11000001    2.86999989
   16.39138794  114.04399872    1.21000004    2.86999989
   16.39444351  109.33200073    1.41999996    2.84999990
   16.39777756  116.08699799    1.44000006    2.86999989
   16.40083313  113.32599640    1.41999996    2.86999989
   16.40416718  114.79499817    1.41999996    2.86999989
   16.40499878  114.21600342    1.44000006    2.86999989
   16.41055489  114.21600342    1.33000004    2.86999989
   16.41472244  121.71399689    1.28999996    2.86999989
   16.41805458  115.22299957    1.36000001    2.84999990
   16.42111015  117.07599640    1.36000001    2.84999990
   16.42444420  115.88300323    1.34000003    2.86999989
   16.42777634  117.54599762    1.36000001    2.86999989
   16.43083191  116.51300049    1.36000001    2.86999989
   16.43416595  116.50700378    1.33000004    2.84999990
   16.43722153  119.81800079    1.34000003    2.84999990
   16.43833160  117.53600311    1.34000003    2.84999990
   16.44083214  119.43699646    1.30999994    2.86999989
   16.44416618  122.98400116    1.25000000    2.86999989
   16.44749832  118.10299683    1.25000000    2.86999989
   16.45333481  118.10299683    1.25000000    2.86999989
   16.45750046  118.72200012    1.25000000    2.89000010
   16.46083450  115.54100037    1.23000002    2.86999989
   16.46416664  111.41699982    1.25000000    2.86999989
   16.46750069  118.59100342    1.25000000    2.86999989
   16.47055626  110.56999969    1.26999998    2.86999989
   16.47166634  112.28600311    1.30999994    2.86999989
   16.47416687  119.27200317    1.30999994    2.86999989
   16.47750092  115.70899963    1.28999996    2.86999989
   16.48083305  116.46199799    1.28999996    2.86999989
   16.48388863  119.73799896    1.26999998    2.86999989
   16.48722267  118.12500000    1.21000004    2.86999989
   16.49055672  114.76699829    1.11000001    2.86999989
   16.49638939  114.76699829    1.03999996    2.86999989
   16.50055504  119.63200378    1.03999996    2.84999990
   16.50361061  115.36699677    1.05999994    2.86999989
   16.50499916  110.56300354    1.05999994    2.86999989
   16.50722313  115.22299957    1.01999998    2.86999989
   16.51083374  109.47499847    0.95999998    2.86999989
   16.51388931  113.92900085    0.95999998    2.86999989
   16.51722145  116.33100128    0.95999998    2.86999989
   16.52055550  112.30699921    0.98000002    2.86999989
   16.52361107  110.65699768    1.01999998    2.86999989
   16.52694511  111.63400269    1.03999996    2.86999989
   16.53000069  114.43199921    1.00000000    2.86999989
   16.53333282  111.88700104    1.00000000    2.86999989
   16.53916550  111.88700104    1.01999998    2.86999989
   16.54333305  110.11100006    1.00000000    2.86999989
   16.54666710  113.34600067    1.00000000    2.86999989
   16.54972076  109.08599854    1.07000005    2.86999989
   16.55305481  111.56800079    1.13000000    2.84999990
   16.55638885  110.83300018    1.13000000    2.84999990
   16.55944443  104.11399841    1.21000004    2.86999989
   16.56277657  117.12300110    1.21000004    2.86999989
   16.56583214  116.51100159    1.26999998    2.86999989
   16.56916809  119.32199860    1.33000004    2.86999989
   16.57166672  114.43699646    1.33000004    2.86999989
   16.57277870  114.03500366    1.33000004    2.86999989
   16.57611275  119.10700226    1.25000000    2.86999989
   16.58222389  119.10700226    1.14999998    2.86999989
   16.58638954  116.13099670    1.21000004    2.84999990
   16.58944511  107.92299652    1.30999994    2.86999989
   16.59277916  115.54199982    1.30999994    2.86999989
   16.59611130  114.02200317    1.33000004    2.86999989
   16.59916687  111.04199982    1.33000004    2.86999989
   16.60250092  113.39099884    1.36000001    2.84999990
   16.60499954  114.37699890    1.44000006    2.84999990
   16.60583305  113.45899963    1.44000006    2.84999990
   16.60916710  112.11499786    1.50000000    2.86999989
   16.61250114  113.96299744    1.50000000    2.86999989
   16.61555672  119.21700287    1.61000001    2.86999989
   16.61888885  115.70999908    1.66999996    2.86999989
   16.62500000  115.70999908    1.60000002    2.86999989
   16.62888908  115.92500305    1.50000000    2.84999990
   16.63222313  116.75000000    1.50000000    2.84999990
   16.63555527  114.67600250    1.19000006    2.86999989
   16.63833237  110.74700165    1.19000006    2.86999989
   16.63888931  118.92099762    1.19000006    2.86999989
   16.64222145  118.47899628    1.19000006    2.86999989
   16.64555550  121.98999786    1.21000004    2.86999989
   16.64888954  113.41000366    1.21000004    2.86999989
   16.65194321  123.03800201    1.21000004    2.86999989
   16.65527725  116.60500336    1.19000006    2.86999989
   16.65833282  112.61199951    1.21000004    2.86999989
   16.66166687  111.15699768    1.21000004    2.86999989
   16.66777802  111.15699768    1.14999998    2.86999989
   16.67194366  113.17600250    1.13000000    2.86999989
   16.67499924  113.70700073    1.13000000    2.86999989
   16.67833328  114.68599701    1.14999998    2.86999989
   16.68166542  110.39700317    1.16999996    2.86999989
   16.68472099  118.85700226    1.16999996    2.86999989
   16.68805504  110.13999939    1.36000001    2.86999989
   16.69138718  110.70300293    1.39999998    2.86999989
   16.69444275  112.31199646    1.46000004    2.86999989
   16.69777679  109.83399963    1.46000004    2.86999989
   16.70083427  107.34899902    1.36000001    2.86999989
   16.70416832  110.65499878    1.36000001    2.86999989
   16.70499992  106.93099976    1.36000001    2.86999989
   16.72583389  106.93099976    1.33000004    2.84999990
   16.72972298  125.28399658    1.33000004    2.86999989
   16.73305511  117.73899841    1.36000001    2.86999989
   16.73638916  118.33699799    1.36000001    2.86999989
   16.73833275  115.89499664    1.44000006    2.84999990
   16.73999977  120.72899628    1.44000006    2.84999990
   16.74305534  125.38800049    1.51999998    2.84999990
   16.74638939  118.85500336    1.69000006    2.84999990
   16.74972153  117.33000183    1.78999996    2.86999989
   16.75305557  128.58099365    1.80999994    2.84999990
   16.75611115  113.72699738    1.80999994    2.84999990
   16.75944519  110.19599915    1.76999998    2.86999989
   16.76277733  123.54000092    1.75000000    2.84999990
   16.76833344  123.54000092    1.88000000    2.84999990
   16.77249908  130.61900330    1.85000002    2.84999990
   16.77583313  117.29199982    1.96000004    2.84999990
   16.77888870  120.74900055    1.63000000    2.86999989
   16.78222275  117.17700195    1.58000004    2.86999989
   16.78555489  122.15799713    1.58000004    2.86999989
   16.78861046  119.99900055    1.60000002    2.86999989
   16.79194450  117.93499756    1.44000006    2.84999990
   16.79527664  118.90699768    1.41999996    2.86999989
   16.79833221  120.98300171    1.41999996    2.86999989
   16.80166626  120.49400330    1.48000002    2.86999989
   16.80472183  122.05999756    1.46000004    2.84999990
   16.80527687  131.01199341    1.46000004    2.84999990
   16.81138802  131.01199341    1.44000006    2.86999989
   16.81527710  110.22899628    1.51999998    2.86999989
   16.81861115  110.77999878    1.41999996    2.86999989
   16.82194519  119.43000031    1.34000003    2.86999989
   16.82500076  113.71499634    1.34000003    2.86999989
   16.82833481  125.04799652    1.46000004    2.86999989
   16.83166695  122.82399750    1.34000003    2.86999989
   16.83472252  120.39199829    1.36000001    2.86999989
   16.83805656  116.91000366    1.41999996    2.84999990
   16.83861160  125.28700256    1.41999996    2.84999990
   16.84166718  116.31099701    1.39999998    2.86999989
   16.84500122  121.80999756    1.39999998    2.86999989
   16.84805679  116.51300049    1.44000006    2.86999989
   16.85416794  116.51300049    1.33000004    2.86999989
   16.85833359  114.99500275    1.34000003    2.86999989
   16.86138916  116.18299866    1.34000003    2.86999989
   16.86472321  120.26599884    1.41999996    2.86999989
   16.86805534  118.33300018    1.46000004    2.86999989
   16.87111092  113.12100220    1.50000000    2.84999990
   16.87194443  119.76699829    1.50000000    2.84999990
   16.87472153  121.98300171    1.50000000    2.84999990
   16.87805557  123.48600006    1.48000002    2.84999990
   16.88111115  119.31500244    1.48000002    2.84999990
   16.88444519  107.24400330    1.44000006    2.84999990
   16.88750076  112.96600342    1.50000000    2.86999989
   16.89083290  117.42900085    1.53999996    2.84999990
   16.89694405  117.42900085    1.55999994    2.84999990
   16.90111160  118.52999878    1.50000000    2.86999989
   16.90444374  121.70899963    1.50000000    2.86999989
   16.90527725  122.95800018    1.44000006    2.84999990
   16.90805435  127.38300323    1.44000006    2.84999990
   16.91138840  124.31800079    1.41999996    2.86999989
   16.91444397  110.95999908    1.38000000    2.86999989
   16.91777802  163.22599792    1.39999998    2.86999989
   16.92111015  113.66400146    1.41999996    2.84999990
   16.92416573  118.82800293    1.41999996    2.84999990
   16.92749977  127.70700073    1.36000001    2.86999989
   16.93055534  120.02200317    1.36000001    2.86999989
   16.93388748  119.11100006    1.38000000    2.84999990
   16.93972206  119.11100006    1.41999996    2.84999990
   16.94388771  122.90699768    1.53999996    2.84999990
   16.94722176  131.01100159    1.53999996    2.86999989
   16.95027924  122.68299866    1.48000002    2.86999989
   16.95361137  127.80000305    1.46000004    2.86999989
   16.95694542  144.61300659    1.46000004    2.86999989
   16.96000099  133.06799316    1.46000004    2.86999989
   16.96333504  127.33599854    1.48000002    2.86999989
   16.96666718  123.01399994    1.39999998    2.86999989
   16.96972275  124.75700378    1.30999994    2.84999990
   16.97194481  120.47200012    1.30999994    2.84999990
   16.97333336  122.90699768    1.25000000    2.86999989
   16.97666740  113.32900238    1.25000000    2.84999990
   16.98277855  113.32900238    1.14999998    2.86999989
   16.98694420  139.84500122    1.11000001    2.86999989
   16.98999977  131.54699707    1.19000006    2.86999989
   16.99333382  121.78399658    1.25000000    2.86999989
   16.99638939  124.01999664    1.25000000    2.86999989
   16.99972153  120.63800049    1.25000000    2.86999989
   17.00305557  124.33499908    1.25000000    2.86999989
   17.00527763  126.48999786    1.14999998    2.86999989
   17.00666618  131.74400330    1.14999998    2.86999989
   17.01000023  124.26599884    1.14999998    2.84999990
   17.01305580  122.66000366    1.03999996    2.84999990
   17.01638794  117.99400330    1.00000000    2.86999989
   17.01944351  130.75399780    1.00000000    2.86999989
   17.02555466  130.75399780    1.07000005    2.86999989
   17.02972221  127.08899689    1.07000005    2.86999989
   17.03305435  115.99299622    1.07000005    2.86999989
   17.03610992  118.42600250    1.05999994    2.86999989
   17.03861046  121.62300110    1.05999994    2.86999989
   17.03972244  113.40599823    1.11000001    2.86999989
   17.04305458  121.07199860    1.11000001    2.86999989
   17.04611015  129.73599243    1.21000004    2.86999989
   17.04944420  134.62699890    1.28999996    2.86999989
   17.05249977  133.69900513    1.19000006    2.86999989
   17.05583191  131.70599365    1.19000006    2.86999989
   17.05916595  127.14900208    1.21000004    2.86999989
   17.06222153  125.40599823    1.21000004    2.86999989
   17.06833458  125.40599823    1.14999998    2.86999989
   17.07250023  121.88099670    1.23000002    2.86999989
   17.07583427  125.79299927    1.25000000    2.84999990
   17.07888985  121.66200256    1.23000002    2.86999989
   17.08222389  125.46299744    1.16999996    2.86999989
   17.08555603  121.82900238    1.21000004    2.86999989
   17.08861160  122.06199646    1.26999998    2.86999989
   17.09194565  134.05999756    1.33000004    2.86999989
   17.09500122  130.94999695    1.28999996    2.86999989
   17.09833336  135.64500427    1.26999998    2.84999990
   17.10166740  118.90100098    1.26999998    2.86999989
   17.10472298  127.07499695    1.26999998    2.86999989
   17.10527802  129.23399353    1.26999998    2.86999989
   17.11111069  129.23399353    1.23000002    2.86999989
   17.11527824  122.01999664    1.36000001    2.86999989
   17.11861038  133.99400330    1.36000001    2.86999989
   17.12194443  137.95199585    1.39999998    2.86999989
   17.12500000  132.67100525    1.39999998    2.86999989
   17.12833405  125.51000214    1.44000006    2.86999989
   17.13138962  121.62599945    1.51999998    2.86999989
   17.13472176  131.88400269    1.51999998    2.86999989
   17.13805580  135.00399780    1.55999994    2.84999990
   17.13861084  134.00900269    1.55999994    2.84999990
   17.14166641  130.82600403    1.50000000    2.84999990
   17.14500046  129.10699463    1.50000000    2.84999990
   17.14805603  126.20899963    1.41999996    2.84999990
   17.15416718  126.20899963    1.36000001    2.86999989
   17.15833282  126.58300018    1.38000000    2.84999990
   17.16138840  130.69999695    1.44000006    2.86999989
   17.16472244  130.86300659    1.55999994    2.84999990
   17.16777802  119.01799774    1.55999994    2.84999990
   17.17111015  128.37199402    1.60000002    2.86999989
   17.17194366  132.25199890    1.60000002    2.86999989
   17.17472076  136.69900513    1.60000002    2.86999989
   17.17805481  128.47599792    1.61000001    2.84999990
   17.18138885  135.60400391    1.64999998    2.84999990
   17.18472099  135.46699524    1.58000004    2.84999990
   17.18777657  127.72799683    1.58000004    2.84999990
   17.19111061  132.32699585    1.60000002    2.86999989
   17.19694328  132.32699585    1.76999998    2.84999990
   17.20111275  117.12400055    1.86000001    2.84999990
   17.20416832  129.41299438    1.86000001    2.84999990
   17.20555687  132.11700439    1.83000004    2.84999990
   17.20777893  133.46299744    1.83000004    2.84999990
   17.21111107  119.89800262    1.86000001    2.84999990
   17.21416664  139.54299927    1.80999994    2.84999990
   17.21750069  138.25100708    1.73000002    2.84999990
   17.22083473  143.45899963    1.66999996    2.86999989
   17.22389030  139.45300293    1.66999996    2.86999989
   17.22722244  139.29899597    1.64999998    2.84999990
   17.23055649  136.14900208    1.64999998    2.84999990
   17.23361206  130.11000061    1.66999996    2.84999990
   17.23972321  130.11000061    1.63000000    2.84999990
   17.24388885  122.64099884    1.64999998    2.84999990
   17.24722290  122.98699951    1.60000002    2.84999990
   17.25027847  125.11499786    1.60000002    2.84999990
   17.25388908  129.23399353    1.80999994    2.84999990
   17.25694466  129.55400085    1.80999994    2.84999990
   17.26027870  139.86900330    1.73000002    2.84999990
   17.26333427  124.78900146    1.69000006    2.86999989
   17.26666641  130.54100037    1.53999996    2.84999990
   17.27000046  136.68499756    1.50000000    2.84999990
   17.27194405  138.80999756    1.50000000    2.84999990
   17.27333260  134.70799255    1.50000000    2.86999989
   17.27666664  132.82400513    1.50000000    2.86999989
   17.28249931  132.82400513    1.48000002    2.86999989
   17.28666687  136.56500244    1.46000004    2.86999989
   17.28999901  135.62600708    1.46000004    2.84999990
   17.29333305  145.66600037    1.44000006    2.86999989
   17.29638863  141.66099548    1.44000006    2.86999989
   17.29972076  141.94999695    1.38000000    2.86999989
   17.30277634  134.21899414    1.30999994    2.84999990
   17.30527687  142.20500183    1.26999998    2.84999990
   17.30638885  137.22999573    1.26999998    2.84999990
   17.30972099  140.29100037    1.25000000    2.86999989
   17.31277657  127.51100159    1.19000006    2.84999990
   17.31611061  128.63600159    1.19000006    2.84999990
   17.31944466  139.22399902    1.13000000    2.84999990
   17.32555580  139.22399902    1.13000000    2.86999989
   17.32972336  135.05000305    1.14999998    2.86999989
   17.33305550  138.44000244    1.14999998    2.84999990
   17.33611107  133.73399353    1.14999998    2.84999990
   17.33861160  125.06800079    1.13000000    2.86999989
   17.33972359  141.35400391    1.13000000    2.86999989
   17.34305573  135.67599487    1.11000001    2.84999990
   17.34611130  129.80400085    1.11000001    2.84999990
   17.34944534  127.43900299    1.16999996    2.86999989
   17.35277748  129.50700378    1.09000003    2.84999990
   17.35583305  130.08900452    1.05999994    2.86999989
   17.35916710  114.82299805    1.01999998    2.84999990
   17.36222267  137.79400635    1.01999998    2.84999990
   17.36833382  137.79400635    1.03999996    2.84999990
   17.37249947  131.34700012    1.01999998    2.84999990
   17.37555504  140.65699768    1.00000000    2.84999990
   17.37888908  139.44000244    1.00000000    2.84999990
   17.38222313  134.02000427    1.01999998    2.86999989
   17.38527679  137.26600647    1.00000000    2.84999990
   17.38861084  144.24000549    1.00000000    2.86999989
   17.39194489  132.57000732    1.00000000    2.86999989
   17.39500046  137.97500610    0.98000002    2.86999989
   17.39833260  131.00199890    0.98000002    2.86999989
   17.40166664  139.18299866    1.00000000    2.84999990
   17.40472221  143.35600281    1.09000003    2.86999989
   17.40555573  139.76100159    1.09000003    2.86999989
   17.41110992  139.76100159    1.09000003    2.86999989
   17.41527748  132.74600220    1.05999994    2.84999990
   17.41860962  144.33900452    1.05999994    2.84999990
   17.42166519  131.93200684    1.03999996    2.84999990
   17.42499924  137.50799561    1.05999994    2.86999989
   17.42805481  129.12699890    1.14999998    2.84999990
   17.43138885  128.49899292    1.23000002    2.86999989
   17.43472099  133.34500122    1.23000002    2.86999989
   17.43777657  133.34599304    1.21000004    2.84999990
   17.43888855  131.12899780    1.21000004    2.84999990
   17.44138718  130.42100525    1.16999996    2.86999989
   17.44472122  123.79299927    1.09000003    2.86999989
   17.44805527  136.96499634    1.11000001    2.84999990
   17.45388985  136.96499634    1.07000005    2.84999990
   17.45805550  127.93800354    1.01999998    2.86999989
   17.46138954  130.16400146    0.98000002    2.84999990
   17.46444511  123.70600128    1.00000000    2.86999989
   17.46777916  120.47100067    1.07000005    2.86999989
   17.47111130  121.71299744    1.07000005    2.86999989
   17.47222328  124.78500366    1.21000004    2.84999990
   17.47472191  115.25199890    1.21000004    2.84999990
   17.47805595  135.04200745    1.28999996    2.84999990
   17.48111153  130.57600403    1.44000006    2.84999990
   17.48444557  136.39300537    1.51999998    2.84999990
   17.48777771  135.64500427    1.46000004    2.86999989
   17.49083328  127.04399872    1.46000004    2.86999989
   17.49694443  127.04399872    2.26999998    2.84999990
   17.50111198  138.71699524    2.61999989    2.84999990
   17.50416756  134.71099854    2.57999992    2.84999990
   17.50555611  129.58500671    2.21000004    2.84999990
   17.50777817  127.72000122    2.17000008    2.84999990
   17.51111031  127.23400116    1.88000000    2.84999990
   17.51416588  126.92700195    2.73000002    2.84999990
   17.51749992  125.70500183    2.05999994    2.84999990
   17.52083397  123.58000183    1.83000004    2.86999989
   17.52388954  117.20500183    1.71000004    2.84999990
   17.52722168  114.59500122    1.89999998    2.84999990
   17.53055573  125.06099701    1.88000000    2.86999989
   17.53361130  130.34300232    1.94000006    2.84999990
   17.53972244  130.34300232    1.55999994    2.84999990
   17.54388809  123.32399750    1.60000002    2.84999990
   17.54694366  117.53700256    1.60000002    2.84999990
   17.55027771  122.01899719    1.71000004    2.84999990
   17.55360985  124.87799835    1.64999998    2.84999990
   17.55666542  129.57600403    1.64999998    2.84999990
   17.55999947  130.63400269    1.64999998    2.84999990
   17.56333351  127.19999695    1.53999996    2.86999989
   17.56638718  144.62199402    1.55999994    2.86999989
   17.56972313  126.26399994    1.63000000    2.84999990
   17.57222366  135.14399719    1.63000000    2.84999990
   17.57333374  132.06700134    1.41999996    2.86999989
   17.57666779  129.07800293    1.38000000    2.84999990
   17.58250046  129.07800293    1.34000003    2.84999990
   17.58666801  126.01399994    1.36000001    2.84999990
   17.59000015  123.35500336    1.44000006    2.84999990
   17.59305573  125.72699738    1.51999998    2.84999990
   17.59638977  128.63900757    1.60000002    2.86999989
   17.59944534  130.83399963    1.51999998    2.84999990
   17.60277748  131.27099609    1.60000002    2.84999990
   17.60555649  130.97000122    1.66999996    2.84999990
   17.60639000  126.51799774    1.66999996    2.84999990
   17.60972214  125.22899628    1.64999998    2.84999990
   17.61305618  123.76200104    1.64999998    2.84999990
   17.61611176  123.09700012    1.64999998    2.84999990
   17.61944389  121.39299774    2.15000010    2.84999990
   17.62527847  121.39299774    1.86000001    2.84999990
   17.62944412  125.40499878    1.76999998    2.84999990
   17.63277817  126.97100067    2.00000000    2.82999992
   17.63583374  128.23300171    2.03999996    2.84999990
   17.63888931  126.38300323    1.86000001    2.84999990
   17.63944435  124.45899963    1.86000001    2.84999990
   17.64277840  124.08999634    1.76999998    2.84999990
   17.64611053  125.34400177    1.96000004    2.84999990
   17.64916611  130.27799988    2.21000004    2.84999990
   17.65250015  117.51799774    2.21000004    2.84999990
   17.65555573  125.61100006    1.86000001    2.84999990
   17.65888786  122.20300293    1.76999998    2.84999990
   17.66222191  121.30000305    1.78999996    2.86999989
   17.66833305  121.30000305    1.73000002    2.84999990
   17.67222214  117.90100098    1.61000001    2.84999990
   17.67555428  128.63900757    1.61000001    2.84999990
   17.67888832  123.39800262    1.86000001    2.84999990
   17.68194389  123.11299896    2.03999996    2.84999990
   17.68527603  122.20999908    2.00000000    2.84999990
   17.68861008  120.35800171    2.00000000    2.84999990
   17.69166565  122.11900330    1.75000000    2.84999990
   17.69499969  127.65399933    1.73000002    2.84999990
   17.69805527  119.04599762    1.66999996    2.84999990
   17.70138931  125.33799744    2.03999996    2.84999990
   17.70472336  126.04799652    2.66000009    2.82999992
   17.70555687  121.89099884    3.01999998    2.82999992
   17.71111107  121.89099884    2.09999990    2.84999990
   17.71527863  122.61699677    2.09999990    2.84999990
   17.71833420  121.27600098    2.19000006    2.84999990
   17.72166634  120.11900330    2.25000000    2.82999992
   17.73916626  123.85099792    2.98000002    2.82999992
   17.74166679  122.80699921    2.21000004    2.84999990
   17.74500084  119.45800018    2.42000008    2.82999992
   17.74805641  123.57800293    2.44000006    2.84999990
   17.75416756  123.57800293    2.50000000    2.84999990
   17.75805473  124.22100067    2.44000006    2.84999990
   17.76138878  133.21400452    2.36999989    2.84999990
   17.76472282  136.49899292    2.07999992    2.84999990
   17.76777840  138.83900452    2.09999990    2.84999990
   17.77111053  140.09500122    1.88000000    2.84999990
   17.77249908  143.02099609    1.83000004    2.84999990
   17.77472115  134.42100525    1.63000000    2.86999989
   17.77777672  125.86799622    1.48000002    2.84999990
   17.78111076  129.05400085    1.38000000    2.84999990
   17.78416634  133.78399658    1.26999998    2.84999990
   17.78750038  120.75900269    1.28999996    2.86999989
   17.79083252  122.53500366    1.28999996    2.84999990
   17.79694366  122.53500366    1.36000001    2.84999990
   17.80111122  121.95999908    1.39999998    2.86999989
   17.80416679  126.80999756    1.44000006    2.84999990
   17.80583191  128.79200745    1.44000006    2.84999990
   17.80805397  120.72799683    1.44000006    2.84999990
   17.81110954  124.39600372    1.46000004    2.84999990
   17.81444359  128.05099487    1.38000000    2.84999990
   17.81750107  123.52400208    1.30999994    2.86999989
   17.82083511  123.72299957    1.30999994    2.86999989
   17.82416725  124.81600189    1.41999996    2.84999990
   17.82750130  122.98999786    1.48000002    2.84999990
   17.83055687  124.30100250    1.30999994    2.84999990
   17.83388901  130.12800598    1.26999998    2.86999989
   17.83972359  130.12800598    1.33000004    2.84999990
   17.84388924  126.14299774    1.36000001    2.84999990
   17.84722328  128.56300354    1.36000001    2.84999990
   17.85027885  124.13400269    1.33000004    2.84999990
   17.85361099  113.79100037    1.46000004    2.84999990
   17.85666656  119.50000000    2.17000008    2.84999990
   17.86000061  120.20700073    2.05999994    2.84999990
   17.86333466  121.12300110    1.86000001    2.84999990
   17.86638832  116.45600128    1.55999994    2.84999990
   17.86972237  115.05899811    1.36000001    2.84999990
   17.87249947  118.38099670    1.38000000    2.84999990
   17.87333298  120.43000031    1.38000000    2.84999990
   17.87638855  115.31400299    1.44000006    2.84999990
   17.88249969  115.31400299    1.58000004    2.84999990
   17.88666725  127.11699677    1.50000000    2.84999990
   17.88999939  118.73600006    1.25000000    2.84999990
   17.89333344  119.31800079    1.13000000    2.84999990
   17.89638901  129.56700134    1.16999996    2.86999989
   17.89972115  125.69400024    1.16999996    2.86999989
   17.90277672  128.39799500    1.16999996    2.86999989
   17.90583229  125.74099731    1.16999996    2.84999990
   17.90666580  123.68399811    1.16999996    2.84999990
   17.90999985  121.87200165    1.46000004    2.84999990
   17.91305542  130.14199829    1.16999996    2.86999989
   17.91638756  114.07900238    1.23000002    2.84999990
   17.91944313  126.77500153    1.23000002    2.84999990
   17.92555428  126.77500153    1.11000001    2.84999990
   17.92944336  122.66899872    0.89999998    2.84999990
   17.93277740  114.08300018    0.86000001    2.84999990
   17.93610954  121.56300354    0.86000001    2.84999990
   17.93916512  124.94000244    0.76999998    2.86999989
   17.93972206  119.33999634    0.76999998    2.86999989
   17.94277763  124.75599670    0.98000002    2.84999990
   17.94610977  124.27899933    0.98000002    2.84999990
   17.94944382  118.50299835    0.88000000    2.84999990
   17.95250130  126.18800354    0.88000000    2.84999990
   17.95583344  127.69400024    0.89999998    2.84999990
   17.95916748  130.67599487    0.83999997    2.84999990
   17.96250153  127.16999817    0.70999998    2.84999990
   17.96833420  127.16999817    0.83999997    2.84999990
   17.97249985  132.00900269    0.89999998    2.84999990
   17.97277832  132.54100037    0.89999998    2.84999990
   17.97611237  128.94400024    1.03999996    2.84999990
   17.97944450  134.56300354    1.09000003    2.86999989
   17.98250008  125.65899658    0.95999998    2.84999990
   17.98583412  132.06500244    0.95999998    2.84999990
   17.98916626  124.60099792    1.00000000    2.84999990
   17.99222183  131.32499695    1.26999998    2.84999990
   17.99555588  137.91099548    1.38000000    2.84999990
   17.99861145  123.31800079    1.19000006    2.84999990
   18.00194359  143.81100464    1.07000005    2.84999990
   18.00527763  125.53099823    1.07000005    2.84999990
   18.00638962  127.19999695    1.13000000    2.86999989
   18.01111031  127.19999695    1.46000004    2.84999990
   18.01527786  131.33700562    1.44000006    2.84999990
   18.01861000  122.79100037    1.39999998    2.84999990
   18.02166557  128.46800232    1.86000001    2.82999992
   18.02499962  130.19299316    1.86000001    2.82999992
   18.02805519  127.62599945    1.58000004    2.84999990
   18.03138924  130.64599609    1.66999996    2.84999990
   18.03472137  120.79199982    1.69000006    2.84999990
   18.03777695  126.66000366    1.69000006    2.84999990
   18.03972244  130.20199585    1.69000006    2.84999990
   18.04138756  134.58599854    1.69000006    2.84999990
   18.04472160  129.06599426    1.48000002    2.84999990
   18.04777718  129.82099915    1.34000003    2.84999990
   18.05388832  129.82099915    2.13000011    2.84999990
   18.05805397  119.58399963    1.83000004    2.82999992
   18.06138802  134.00999451    1.69000006    2.84999990
   18.06444359  139.16299438    1.69000006    2.84999990
   18.06777954  129.32200623    1.66999996    2.84999990
   18.07111168  130.99699402    1.85000002    2.82999992
   18.07305717  136.93400574    1.64999998    2.84999990
   18.07444572  139.16799927    1.64999998    2.84999990
   18.07777786  140.61000061    1.66999996    2.82999992
   18.08111191  139.53100586    1.51999998    2.84999990
   18.08416748  145.02000427    1.51999998    2.84999990
   18.08750153  128.94400024    1.78999996    2.82999992
   18.09055710  129.17100525    1.28999996    2.84999990
   18.09694481  129.17100525    1.16999996    2.84999990
   18.10083389  125.87799835    1.03999996    2.84999990
   18.10416794  137.55099487    1.03999996    2.84999990
   18.10639000  134.53399658    0.86000001    2.84999990
   18.10777855  137.09399414    0.86000001    2.84999990
   18.11111069  134.89599609    1.16999996    2.84999990
   18.11444473  141.80299377    1.01999998    2.86999989
   18.11750031  140.00300598    1.23000002    2.84999990
   18.12083435  133.16900635    1.14999998    2.84999990
   18.12388992  133.88200378    1.14999998    2.84999990
   18.12722206  136.31199646    1.13000000    2.84999990
   18.13055611  136.66299438    1.11000001    2.84999990
   18.13361168  119.79199982    1.05999994    2.84999990
   18.13972282  119.79199982    1.34000003    2.84999990
   18.14388847  148.99600220    1.33000004    2.84999990
   18.14694405  136.26100159    1.38000000    2.82999992
   18.15027809  135.89300537    1.38000000    2.82999992
   18.15361023  133.90699768    1.48000002    2.84999990
   18.15666580  132.00900269    1.94000006    2.82999992
   18.15999985  109.19100189    1.76999998    2.82999992
   18.16333389  136.30299377    2.13000011    2.82999992
   18.16638756  133.71400452    2.36999989    2.82999992
   18.16972160  132.96899414    2.59999990    2.82999992
   18.17277718  146.05200195    2.71000004    2.82999992
   18.17333221  139.75100708    2.75000000    2.82999992
   18.17666626  126.06900024    2.53999996    2.82999992
   18.18249893  126.06900024    2.42000008    2.82999992
   18.18666649  120.21199799    2.11999989    2.82999992
   18.18999863  133.42599487    2.39000010    2.82999992
   18.19305420  128.22999573    2.55999994    2.82999992
   18.19638824  138.69400024    2.69000006    2.82999992
   18.19944382  140.22300720    2.64000010    2.82999992
   18.20277786  136.69400024    2.93000007    2.82999992
   18.20611191  137.03700256    2.78999996    2.82999992
   18.20666695  128.58200073    2.78999996    2.82999992
   18.20972252  122.10900116    2.66000009    2.82999992
   18.21305656  125.42900085    2.51999998    2.82999992
   18.21611214  128.25799561    2.15000010    2.82999992
   18.21944427  126.76100159    1.76999998    2.82999992
   18.22527885  126.76100159    1.19000006    2.82999992
   18.22944450  137.94799805    1.41999996    2.82999992
   18.23277855  124.88899994    1.26999998    2.82999992
   18.23583412  125.34400177    1.21000004    2.82999992
   18.23916626  135.83999634    1.26999998    2.82999992
   18.23999977  127.29599762    1.30999994    2.82999992
   18.24277878  128.80599976    1.39999998    2.82999992
   18.24611092  125.33100128    1.50000000    2.82999992
   18.24916649  132.99699402    1.55999994    2.82999992
   18.25250053  133.79200745    1.69000006    2.84999990
   18.25555611  130.28700256    1.85000002    2.82999992
   18.25888824  131.82699585    1.94000006    2.82999992
   18.26222229  133.37800598    1.80999994    2.82999992
   18.26833344  133.37800598    1.53999996    2.82999992
   18.27222252  122.99400330    1.55999994    2.82999992
   18.27333260  131.48699951    1.55999994    2.82999992
   18.27583313  124.19599915    1.55999994    2.82999992
   18.27916718  122.17700195    1.66999996    2.84999990
   18.28222275  117.33799744    1.48000002    2.82999992
   18.28555489  134.45300293    1.53999996    2.82999992
   18.28861046  132.44900513    1.61000001    2.84999990
   18.29194450  122.26699829    1.85000002    2.82999992
   18.29527664  120.99099731    1.76999998    2.82999992
   18.29833221  129.97399902    1.91999996    2.82999992
   18.30166626  122.69400024    2.03999996    2.82999992
   18.30499840  129.08799744    2.09999990    2.82999992
   18.30666542  133.16799927    2.13000011    2.82999992
   18.31110954  133.16799927    2.28999996    2.82999992
   18.31527710  124.45300293    2.40000010    2.82999992
   18.31833458  126.92600250    2.40000010    2.82999992
   18.32166672  128.02499390    2.69000006    2.82999992
   18.32500076  136.61300659    2.50000000    2.80999994
   18.32833481  136.97200012    2.48000002    2.82999992
   18.33139038  135.19200134    2.50000000    2.82999992
   18.33472252  138.91400146    2.48000002    2.82999992
   18.33777809  141.17900085    2.48000002    2.82999992
   18.34000015  144.06199646    2.69000006    2.82999992
   18.34138870  138.61599731    2.71000004    2.80999994
   18.34472275  135.48100281    2.55999994    2.82999992
   18.34777832  136.56599426    2.71000004    2.82999992
   18.35388947  136.56599426    2.17000008    2.82999992
   18.35805511  147.64799500    1.86000001    2.82999992
   18.36111069  137.71600342    1.64999998    2.82999992
   18.36444473  140.37399292    1.61000001    2.82999992
   18.36777878  130.20599365    1.61000001    2.82999992
   18.37083435  130.86000061    1.61000001    2.82999992
   18.37333298  138.39100647    1.64999998    2.82999992
   18.37444496  146.36900330    1.64999998    2.82999992
   18.37777710  139.60499573    1.55999994    2.84999990
   18.38083267  137.06199646    1.21000004    2.84999990
   18.38416672  139.74499512    1.19000006    2.82999992
   18.38722229  137.86999512    1.19000006    2.84999990
   18.39055634  134.97200012    1.19000006    2.84999990
   18.39666748  134.97200012    1.19000006    2.82999992
   18.40083313  134.49699402    1.16999996    2.82999992
   18.40416718  132.04699707    1.14999998    2.82999992
   18.40666580  131.08700562    1.14999998    2.82999992
   18.40777779  142.68099976    1.00000000    2.84999990
   18.41110992  132.04299927    1.00000000    2.84999990
   18.41416550  135.14599609    1.09000003    2.84999990
   18.41749954  129.24000549    1.14999998    2.82999992
   18.42083359  139.44500732    1.14999998    2.82999992
   18.42388916  133.70100403    0.88000000    2.84999990
   18.42722130  138.44599915    0.79000002    2.84999990
   18.43055534  134.19799805    0.92000002    2.84999990
   18.43361092  137.45500183    0.95999998    2.84999990
   18.43944359  137.45500183    0.92000002    2.82999992
   18.44361115  146.14199829    0.88000000    2.82999992
   18.44694328  145.30099487    0.86000001    2.82999992
   18.45027924  127.55300140    0.89999998    2.84999990
   18.45333481  137.52499390    0.89999998    2.84999990
   18.45666695  137.51499939    0.86000001    2.82999992
   18.45972252  150.51600647    0.95999998    2.84999990
   18.46305656  141.36399841    1.01999998    2.84999990
   18.46638870  130.63000488    1.03999996    2.82999992
   18.46944427  132.31100464    1.07000005    2.82999992
   18.47277832  129.34399414    1.07000005    2.82999992
   18.47472191  144.25599670    1.03999996    2.84999990
   18.47638893  135.50199890    1.03999996    2.84999990
   18.48250008  135.50199890    1.07000005    2.84999990
   18.48666763  130.39100647    1.01999998    2.82999992
   18.48972321  129.33799744    1.00000000    2.82999992
   18.49305534  146.18499756    1.11000001    2.82999992
   18.49638939  142.26699829    1.11000001    2.82999992
   18.49944496  126.28399658    1.13000000    2.82999992
   18.50277710  122.37100220    1.55999994    2.82999992
   18.50611115  135.84199524    1.41999996    2.82999992
   18.50805473  136.45300293    1.41999996    2.82999992
   18.50944519  144.62199402    1.28999996    2.82999992
   18.51277733  145.89900208    1.28999996    2.82999992
   18.51583290  121.44599915    1.23000002    2.82999992
   18.51916695  124.48100281    1.00000000    2.82999992
   18.52527809  124.48100281    1.01999998    2.82999992
   18.52944374  126.32900238    1.00000000    2.82999992
   18.53249931  137.00100708    1.00000000    2.82999992
   18.53583336  140.98500061    1.05999994    2.82999992
   18.53916550  123.11799622    0.98000002    2.82999992
   18.54138756  129.73599243    1.11000001    2.82999992
   18.54277802  140.65199280    1.11000001    2.82999992
   18.54583359  132.10000610    1.16999996    2.82999992
   18.54916573  138.03100586    1.16999996    2.82999992
   18.55249977  132.30200195    1.03999996    2.84999990
   18.55555534  131.32400513    0.89999998    2.82999992
   18.55888748  140.91400146    0.98000002    2.82999992
   18.56222153  137.96099854    0.95999998    2.82999992
   18.56805611  137.96099854    1.09000003    2.82999992
   18.57222366  129.00000000    1.26999998    2.82999992
   18.57472229  130.92399597    1.26999998    2.82999992
   18.57583427  131.71400452    1.26999998    2.82999992
   18.57916832  138.66499329    1.34000003    2.82999992
   18.58222389  135.79100037    1.50000000    2.82999992
   18.58555603  127.74900055    1.50000000    2.82999992
   18.58861160  129.32400513    1.53999996    2.82999992
   18.59194565  118.85900116    1.71000004    2.80999994
   18.59527779  131.05400085    2.25000000    2.80999994
   18.59833336  132.71499634    2.32999992    2.80999994
   18.60166740  136.15499878    2.34999990    2.80999994
   18.60499954  130.54200745    2.25000000    2.80999994
   18.61083412  130.54200745    2.26999998    2.82999992
   18.61499977  130.57099915    2.34999990    2.80999994
   18.61833382  135.99099731    2.25000000    2.80999994
   18.62166595  138.83099365    2.03999996    2.80999994
   18.62472153  127.26799774    1.60000002    2.82999992
   18.62805557  128.54899597    1.33000004    2.82999992
   18.63111115  138.55499268    1.36000001    2.80999994
   18.63444519  128.04100037    1.46000004    2.82999992
   18.63777733  127.29799652    1.60000002    2.80999994
   18.64083290  119.62699890    1.61000001    2.82999992
   18.64194489  131.31599426    1.61000001    2.82999992
   18.64444351  121.03099823    1.61000001    2.82999992
   18.64777756  128.43800354    1.55999994    2.82999992
   18.65388870  128.43800354    1.36000001    2.82999992
   18.65805435  127.48200226    1.44000006    2.82999992
   18.66110992  138.63000488    1.44000006    2.82999992
   18.66444397  142.26600647    1.44000006    2.82999992
   18.66777802  137.22099304    1.53999996    2.82999992
   18.67083359  133.51300049    1.71000004    2.82999992
   18.67416573  137.90899658    1.78999996    2.80999994
   18.67527771  144.23699951    1.78999996    2.80999994
   18.67777634  140.99899292    1.63000000    2.82999992
   18.68111038  133.69599915    1.63000000    2.82999992
   18.68444443  134.29100037    1.55999994    2.82999992
   18.68750000  138.30400085    1.55999994    2.82999992
   18.69083214  135.60400391    1.51999998    2.82999992
   18.69666672  135.60400391    1.50000000    2.80999994
   18.70083427  125.06500244    1.50000000    2.82999992
   18.70388985  135.15499878    1.55999994    2.80999994
   18.70722389  133.08299255    1.36000001    2.82999992
   18.70861244  143.35699463    1.36000001    2.82999992
   18.71083450  146.66700745    1.36000001    2.80999994
   18.71416664  128.50199890    1.21000004    2.82999992
   18.71722221  147.52000427    1.25000000    2.82999992
   18.72055626  133.30999756    1.25000000    2.82999992
   18.72389030  146.46099854    1.21000004    2.82999992
   18.72694588  141.43899536    1.25000000    2.82999992
   18.73027802  134.51300049    1.21000004    2.82999992
   18.73333359  133.05799866    1.11000001    2.82999992
   18.73944473  133.05799866    1.01999998    2.82999992
   18.75777817  268.55200195    1.41999996    2.82999992
   18.76111031  266.58300781    1.39999998    2.82999992
   18.76444435  254.34199524    1.39999998    2.82999992
   18.76749992  271.93099976    1.30999994    2.80999994
   18.77083397  246.00700378    1.44000006    2.80999994
   18.77416611  247.43600464    2.44000006    2.80999994
   18.77722168  242.53999329    2.34999990    2.80999994
   18.78249931  242.53999329    2.30999994    2.80999994
   18.78666687  211.66499329    2.30999994    2.80999994
   18.78999901  211.24899292    1.91999996    2.80999994
   18.79083252  207.42599487    1.91999996    2.80999994
   18.79361153  211.56700134    1.88000000    2.80999994
   18.79694366  219.37899780    1.64999998    2.80999994
   18.79999924  210.55599976    1.75000000    2.80999994
   18.80333328  213.02499390    1.76999998    2.80999994
   18.80638885  209.37199402    1.73000002    2.80999994
   18.80972099  200.80999756    1.63000000    2.80999994
   18.81305504  187.07400513    1.58000004    2.80999994
   18.81611061  208.30000305    1.64999998    2.80999994
   18.81944466  211.53999329    1.83000004    2.82999992
   18.82527924  211.53999329    1.69000006    2.80999994
   18.82944489  215.37899780    1.83000004    2.80999994
   18.83277893  209.92500305    1.44000006    2.80999994
   18.83611107  204.95500183    1.64999998    2.80999994
   18.83916664  217.66499329    1.63000000    2.80999994
   18.84250069  216.27099609    1.63000000    2.80999994
   18.84555626  215.79600525    1.34000003    2.80999994
   18.84889030  197.38900757    1.39999998    2.80999994
   18.85222244  206.71400452    1.13000000    2.82999992
   18.85527802  216.75100708    0.86000001    2.80999994
   18.85750008  204.24600220    0.86000001    2.80999994
   18.85888863  191.47000122    0.88000000    2.82999992
   18.86222267  196.75900269    0.88000000    2.82999992
   18.86833382  196.75900269    1.14999998    2.80999994
   18.87249947  204.81100464    2.05999994    2.80999994
   18.87555504  196.02799988    1.88000000    2.80999994
   18.87888908  207.12199402    1.80999994    2.80999994
   18.88222313  192.87899780    1.73000002    2.80999994
   18.88527679  196.12399292    1.61000001    2.80999994
   18.88861084  215.14799500    1.71000004    2.80999994
   18.89083290  194.31700134    1.71000004    2.80999994
   18.89222145  196.47500610    1.73000002    2.80999994
   18.89555550  191.30400085    1.60000002    2.80999994
   18.89861107  189.90100098    1.60000002    2.80999994
   18.90194321  194.11399841    1.53999996    2.82999992
   18.90499878  185.10299683    1.53999996    2.82999992
   18.91110992  185.10299683    1.69000006    2.80999994
   18.91527748  182.23399353    1.60000002    2.80999994
   18.91833305  186.85499573    1.64999998    2.80999994
   18.92166519  205.71600342    1.61000001    2.80999994
   18.92416573  189.96000671    1.48000002    2.80999994
   18.92527771  198.12300110    1.48000002    2.80999994
   18.92860985  190.93800354    1.23000002    2.80999994
   18.93194389  187.31799316    1.23000002    2.80999994
   18.93499947  188.85099792    1.25000000    2.80999994
   18.93833160  172.66900635    1.09000003    2.80999994
   18.94166565  189.53999329    1.28999996    2.80999994
   18.94499969  183.50999451    1.19000006    2.80999994
   18.94805527  178.40100098    1.33000004    2.80999994
   18.95388985  178.40100098    1.36000001    2.82999992
   18.95805550  189.30499268    1.13000000    2.82999992
   18.96138954  174.78100586    1.07000005    2.80999994
   18.96444511  186.38000488    0.95999998    2.80999994
   18.96777916  180.47700500    0.95999998    2.80999994
   18.97111130  172.91600037    1.11000001    2.80999994
   18.97416687  175.45199585    1.13000000    2.80999994
   18.97750092  185.92399597    1.07000005    2.80999994
   18.98055649  175.42799377    0.95999998    2.80999994
   18.98388863  174.67500305    0.95999998    2.80999994
   18.98722267  174.41900635    1.09000003    2.82999992
   18.99027824  175.36300659    1.13000000    2.80999994
   18.99083328  180.89700317    1.13000000    2.80999994
   18.99666786  180.89700317    1.14999998    2.82999992
   19.00083351  171.14399719    1.50000000    2.80999994
   19.00416756  179.33000183    1.50000000    2.80999994
   19.00749969  183.24899292    1.39999998    2.80999994
   19.01055527  177.43400574    1.39999998    2.80999994
   19.01388931  178.63900757    1.55999994    2.78999996
   19.01694489  168.93099976    2.05999994    2.78999996
   19.02027702  177.02200317    1.94000006    2.80999994
   19.02361107  180.12899780    1.94000006    2.80999994
   19.02416611  177.10800171    1.88000000    2.80999994
   19.02722168  173.02499390    1.88000000    2.80999994
   19.03055573  173.96600342    1.78999996    2.78999996
   19.03361130  177.57499695    1.50000000    2.80999994
   19.03972244  177.57499695    1.26999998    2.80999994
   19.04388809  181.43499756    1.44000006    2.78999996
   19.04694366  172.05700684    1.21000004    2.80999994
   19.05027771  182.68400574    1.46000004    2.80999994
   19.05333328  170.46299744    0.95999998    2.80999994
   19.05666542  174.09899902    1.05999994    2.80999994
   19.05749893  162.94000244    1.05999994    2.80999994
   19.06027794  116.58899689    1.05999994    2.80999994
   19.06361008  171.71800232    0.95999998    2.80999994
   19.06666756  172.25999451    1.01999998    2.80999994
   19.07000160  166.80400085    1.01999998    2.80999994
   19.07333374  175.07299805    1.58000004    2.78999996
   19.07638931  173.50500488    1.28999996    2.80999994
   19.08250046  173.50500488    0.95999998    2.80999994
   19.08666801  174.88299561    1.28999996    2.80999994
   19.08972359  166.53100586    1.28999996    2.80999994
   19.09083366  171.56700134    0.75000000    2.80999994
   19.09333420  175.80900574    0.75000000    2.80999994
   19.09666824  179.43800354    0.79000002    2.80999994
   19.10000038  177.86599731    0.88000000    2.80999994
   19.10333443  166.25000000    1.03999996    2.80999994
   19.10639000  173.09899902    1.30999994    2.80999994
   19.10972214  166.77499390    1.30999994    2.80999994
   19.11305618  165.05200195    1.09000003    2.80999994
   19.11611176  164.73500061    1.09000003    2.78999996
   19.11944389  163.10000610    0.95999998    2.80999994
   19.12527847  163.10000610    0.92000002    2.78999996
   19.12944412  170.30499268    0.80000001    2.78999996
   19.13277817  174.74299622    1.00000000    2.78999996
   19.13583374  172.11300659    1.00000000    2.78999996
   19.13916588  166.71800232    1.03999996    2.80999994
   19.14249992  176.10800171    1.23000002    2.78999996
   19.14555550  165.76899719    1.21000004    2.78999996
   19.14888954  161.84100342    1.19000006    2.78999996
   19.15222168  165.22200012    1.19000006    2.78999996
   19.15527725  176.27499390    1.34000003    2.78999996
   19.15749931  174.41299438    1.34000003    2.78999996
   19.15888786  173.23899841    1.38000000    2.78999996
   19.16222191  168.67599487    1.38000000    2.78999996
   19.16805458  168.67599487    1.51999998    2.78999996
   19.17222214  160.41000366    2.32999992    2.78999996
   19.17555428  167.33000183    2.09999990    2.78999996
   19.17860985  153.80099487    1.88000000    2.78999996
   19.18194389  152.03999329    1.86000001    2.78999996
   19.18527603  152.06799316    1.86000001    2.78999996
   19.18833160  152.98300171    1.91999996    2.78999996
   19.19083214  160.12199402    1.75000000    2.78999996
   19.19194412  160.25700378    1.75000000    2.78999996
   19.19527626  150.50500488    1.60000002    2.78999996
   19.19833183  151.95700073    1.60000002    2.78999996
   19.20166779  158.79200745    1.39999998    2.78999996
   19.20499992  155.52499390    1.41999996    2.78999996
   19.21111107  155.52499390    1.26999998    2.78999996
   19.21527863  153.54299927    1.09000003    2.78999996
   19.21833420  139.85800171    1.09000003    2.78999996
   19.22166634  145.23599243    1.01999998    2.78999996
   19.22416687  150.78300476    1.03999996    2.78999996
   19.22527885  147.21000671    1.03999996    2.78999996
   19.22861099  154.61399841    1.01999998    2.78999996
   19.23166656  159.17300415    1.01999998    2.78999996
   19.23500061  153.41200256    0.89999998    2.78999996
   19.23833275  165.44099426    0.89999998    2.78999996
   19.24138832  155.24600220    0.94000000    2.78999996
   19.24472237  157.38000488    0.94000000    2.78999996
   19.24805641  157.83999634    1.25000000    2.78999996
   19.25388908  157.83999634    1.44000006    2.78999996
   19.25805473  159.34700012    1.46000004    2.78999996
   19.26138878  155.47500610    1.46000004    2.78999996
   19.26444435  154.33200073    1.41999996    2.78999996
   19.26777840  154.71499634    1.46000004    2.78999996
   19.27111053  146.83099365    1.41999996    2.78999996
   19.27416611  149.21600342    1.51999998    2.78999996
   19.27750015  147.78900146    1.66999996    2.78999996
   19.28083229  149.42199707    1.66999996    2.78999996
   19.28388786  149.78900146    1.50000000    2.78999996
   19.28722191  142.20700073    1.50000000    2.78999996
   19.29027748  142.30999756    1.50000000    2.78999996
   19.29083252  146.85099792    1.50000000    2.78999996
   19.29666710  146.85099792    1.66999996    2.78999996
   19.30083275  134.37399292    1.50000000    2.78999996
   19.30416679  149.27000427    1.58000004    2.78999996
   19.30722237  141.20300293    1.58000004    2.78999996
   19.31055450  146.76800537    1.66999996    2.78999996
   19.31388855  141.74600220    1.44000006    2.78999996
   19.31694603  154.27099609    2.03999996    2.78999996
   19.32027817  148.80599976    2.15000010    2.78999996
   19.32333374  144.36300659    1.98000002    2.76999998
   19.32416725  141.56500244    1.78999996    2.78999996
   19.32694626  139.22000122    1.88000000    2.76999998
   19.33027840  146.65699768    2.00000000    2.78999996
   19.33333397  141.74499512    2.00000000    2.78999996
   19.33944511  141.74499512    1.89999998    2.76999998
   19.34361267  139.57600403    1.98000002    2.76999998
   19.34694481  141.44500732    2.26999998    2.76999998
   19.35027885  143.49600220    2.03999996    2.78999996
   19.35333443  138.08599854    2.03999996    2.78999996
   19.35666656  142.58799744    1.75000000    2.78999996
   19.35777855  137.94999695    1.66999996    2.76999998
   19.36027908  141.41200256    1.75000000    2.76999998
   19.36361122  135.83799744    2.00000000    2.76999998
   19.36666679  138.74499512    2.13000011    2.78999996
   19.37000084  139.31599426    2.03999996    2.76999998
   19.37333298  139.57899475    1.98000002    2.76999998
   19.37638855  145.76899719    1.76999998    2.76999998
   19.38249969  145.76899719    1.21000004    2.78999996
   19.38666725  156.46000671    1.25000000    2.78999996
   19.38972282  138.39799500    1.19000006    2.78999996
   19.39111137  139.91799927    1.19000006    2.78999996
   19.39333344  138.77000427    1.14999998    2.78999996
   19.39666748  139.23199463    1.39999998    2.78999996
   19.39972115  138.72799683    1.34000003    2.76999998
   19.40305519  140.51100159    1.30999994    2.78999996
   19.40638924  144.22500610    1.28999996    2.76999998
   19.40944481  139.83599854    1.28999996    2.76999998
   19.41277695  136.26400757    1.19000006    2.78999996
   19.41611099  139.75999451    1.13000000    2.76999998
   19.41916656  137.38299561    1.13000000    2.76999998
   19.42527771  137.38299561    1.03999996    2.76999998
   19.42944336  145.41200256    1.03999996    2.76999998
   19.43277740  154.41400146    1.00000000    2.78999996
   19.43583298  141.66200256    1.03999996    2.78999996
   19.43916512  145.24200439    1.07000005    2.78999996
   19.44249916  139.70100403    1.07000005    2.78999996
   19.44555473  145.88699341    1.19000006    2.76999998
   19.44888878  154.35499573    1.11000001    2.78999996
   19.45194435  142.37399292    1.09000003    2.76999998
   19.45527840  148.25000000    1.03999996    2.76999998
   19.45777893  156.17399597    1.03999996    2.76999998
   19.45888901  145.97799683    1.00000000    2.78999996
   19.46222305  152.72099304    1.00000000    2.78999996
   19.46805573  152.72099304    1.05999994    2.76999998
   19.47222328  140.96800232    1.21000004    2.76999998
   19.47555542  153.20199585    1.21000004    2.76999998
   19.47861099  154.08299255    1.28999996    2.78999996
   19.48194504  146.99000549    1.28999996    2.76999998
   19.48527718  136.84399414    1.34000003    2.76999998
   19.48833275  143.84100342    1.34000003    2.76999998
   19.49111176  139.46499634    1.39999998    2.76999998
   19.49194527  142.81900024    1.39999998    2.76999998
   19.49527740  149.24000549    1.34000003    2.76999998
   19.49833298  142.83900452    1.34000003    2.76999998
   19.50166702  152.83399963    1.30999994    2.76999998
   19.50499916  134.21200562    1.25000000    2.76999998
   19.51083374  134.21200562    1.33000004    2.76999998
   19.51499939  144.97599792    1.30999994    2.76999998
   19.51833344  153.44900513    1.30999994    2.76999998
   19.52166557  130.70399475    1.07000005    2.76999998
   19.52444458  141.13499451    1.19000006    2.76999998
   19.52499962  157.50999451    1.19000006    2.76999998
   19.52833366  139.11300659    1.23000002    2.76999998
   19.53166580  133.31100464    1.13000000    2.76999998
   19.53472137  140.23699951    1.13000000    2.76999998
   19.53805542  134.10499573    1.13000000    2.76999998
   19.54111099  146.70799255    1.41999996    2.76999998
   19.54444313  142.57899475    1.48000002    2.76999998
   19.54777718  133.87600708    1.51999998    2.76999998
   19.55388832  133.87600708    1.53999996    2.76999998
   19.55805397  149.45399475    1.34000003    2.76999998
   19.56110954  140.41700745    1.50000000    2.76999998
   19.56444359  146.77299500    1.50000000    2.76999998
   19.56750107  125.88700104    1.30999994    2.76999998
   19.57083511  141.96800232    1.30999994    2.76999998
   19.57416725  134.47999573    1.21000004    2.76999998
   19.57722282  141.70399475    1.26999998    2.76999998
   19.58055687  140.45399475    2.25000000    2.75000000
   19.58388901  131.41900635    2.15000010    2.75000000
   19.58694458  135.78900146    2.21000004    2.75000000
   19.59055710  144.40699768    2.36999989    2.75000000
   19.59111214  136.97399902    2.36999989    2.75000000
   19.59666824  136.97399902    1.80999994    2.75000000
   19.60083389  140.96699524    1.55999994    2.75000000
   19.60388947  139.77999878    1.64999998    2.75000000
   19.60722351  141.89700317    1.80999994    2.73000002
   19.61055565  133.46299744    1.78999996    2.75000000
   19.61388969  128.76800537    1.50000000    2.75000000
   19.61694527  147.28500366    1.46000004    2.75000000
   19.62027740  148.58599854    0.95999998    2.76999998
   19.62361145  145.75199890    1.01999998    2.76999998
   19.62444496  130.72500610    1.01999998    2.76999998
   19.62694550  150.92700195    1.03999996    2.76999998
   19.63027763  146.23800659    1.09000003    2.76999998
   19.63361168  145.50700378    1.26999998    2.76999998
   19.63944435  145.50700378    1.64999998    2.75000000
   19.64361191  126.92199707    1.73000002    2.75000000
   19.64694405  146.08799744    1.44000006    2.75000000
   19.64999962  145.71899414    1.39999998    2.75000000
   19.65333366  146.12800598    1.55999994    2.75000000
   19.65666580  143.41799927    1.60000002    2.75000000
   19.65777779  140.50999451    1.60000002    2.75000000
   19.65999985  150.75399780    1.60000002    2.75000000
   19.66333389  148.03199768    1.66999996    2.75000000
   19.66666603  151.12199402    1.96000004    2.75000000
   19.66972160  146.37399292    1.94000006    2.75000000
   19.67305565  143.50999451    1.85000002    2.75000000
   19.67638779  157.63000488    2.05999994    2.75000000
   19.68222237  157.63000488    2.44000006    2.73000002
   19.68638802  152.90899658    2.44000006    2.75000000
   19.68972206  150.88900757    2.42000008    2.75000000
   19.69111061  156.27699280    2.48000002    2.75000000
   19.69305420  148.06599426    2.84999990    2.75000000
   19.69638824  165.67199707    3.03999996    2.73000002
   19.69972038  150.19700623    2.82999992    2.75000000
   19.70305634  152.32699585    2.73000002    2.73000002
   19.70611191  157.25900269    2.73000002    2.75000000
   19.70944595  147.73199463    2.59999990    2.75000000
   19.71250153  133.65199280    2.40000010    2.75000000
   19.71583366  148.15899658    2.51999998    2.75000000
   19.71916771  142.09199524    2.19000006    2.73000002
   19.72527885  142.09199524    1.88000000    2.75000000
   19.72944450  141.90800476    1.73000002    2.75000000
   19.73250008  140.54600525    1.66999996    2.73000002
   19.73583412  164.05400085    1.76999998    2.75000000
   19.73916626  157.49499512    1.80999994    2.75000000
   19.74222183  151.10699463    1.75000000    2.75000000
   19.74555588  149.10699463    1.61000001    2.75000000
   19.74861145  141.88000488    1.60000002    2.75000000
   19.75194359  143.59399414    1.50000000    2.75000000
   19.75527763  141.17199707    1.33000004    2.75000000
   19.75777817  136.00500488    1.30999994    2.75000000
   19.77833366  136.00500488    1.14999998    2.75000000
   19.78249931  147.13200378    1.21000004    2.75000000
   19.78555489  145.53599548    1.26999998    2.75000000
   19.78888893  145.40600586    1.14999998    2.75000000
   19.79111099  142.27499390    1.14999998    2.75000000
   19.79277802  156.69599915    1.14999998    2.75000000
   19.79583359  141.60400391    1.09000003    2.75000000
   19.79916573  130.93299866    1.00000000    2.75000000
   19.80249977  148.83900452    0.95999998    2.75000000
   19.80555534  140.55799866    0.89999998    2.75000000
   19.80888748  139.49299622    0.89999998    2.75000000
   19.81222153  140.37699890    0.95999998    2.75000000
   19.81527710  149.85699463    0.94000000    2.75000000
   19.82111168  149.85699463    0.88000000    2.75000000
   19.82527924  148.17500305    0.83999997    2.75000000
   19.82833481  165.09800720    1.01999998    2.75000000
   19.83166695  140.33200073    1.00000000    2.75000000
   19.83500099  143.24400330    1.00000000    2.73000002
   19.83805656  147.99699402    1.00000000    2.73000002
   19.84138870  143.62199402    1.00000000    2.73000002
   19.84444427  137.93899536    1.14999998    2.75000000
   19.84777832  145.21800232    1.03999996    2.75000000
   19.85111237  147.55900574    1.03999996    2.75000000
   19.85444450  143.64599609    0.94000000    2.75000000
   19.85777855  137.05799866    0.94000000    2.75000000
   19.85805511  144.18699646    0.94000000    2.75000000
   19.86388969  144.18699646    1.19000006    2.75000000
   19.86805534  146.02900696    1.23000002    2.75000000
   19.87138939  145.02900696    1.23000002    2.75000000
   19.87444496  137.78799438    1.11000001    2.75000000
   19.87777710  162.26300049    1.21000004    2.75000000
   19.88111115  157.43200684    1.25000000    2.75000000
   19.88416672  155.10299683    1.41999996    2.73000002
   19.88750076  135.05000305    2.19000006    2.73000002
   19.89055634  141.87399292    1.73000002    2.73000002
   19.89111137  146.57499695    1.73000002    2.73000002
   19.89416695  155.80299377    1.80999994    2.73000002
   19.89749908  163.39799500    2.03999996    2.73000002
   19.90055466  154.43400574    2.00000000    2.73000002
   19.90666580  154.43400574    2.44000006    2.71000004
   19.91083336  158.61099243    2.78999996    2.71000004
   19.91416550  143.63600159    2.66000009    2.73000002
   19.91749954  143.68800354    2.67000008    2.73000002
   19.92055511  150.88099670    2.64000010    2.73000002
   19.92388916  136.82499695    2.67000008    2.73000002
   19.92444420  134.06199646    2.75000000    2.71000004
   19.92749977  157.22500610    2.86999989    2.73000002
   19.93083191  140.31199646    2.93000007    2.73000002
   19.93388748  152.88499451    2.50000000    2.73000002
   19.93722153  147.19200134    2.34999990    2.71000004
   19.94027710  144.52699280    2.28999996    2.71000004
   19.94361115  138.71400452    2.23000002    2.73000002
   19.94972038  138.71400452    2.17000008    2.73000002
   19.95361137  152.95399475    1.96000004    2.73000002
   19.95694542  136.89300537    1.60000002    2.73000002
   19.95777893  125.61599731    1.58000004    2.71000004
   19.96055603  142.93699646    1.48000002    2.73000002
   19.96389008  152.13400269    1.61000001    2.71000004
   19.96694565  144.51400757    1.58000004    2.73000002
   19.97027779  154.81900024    1.63000000    2.73000002
   19.97333336  137.73500061    1.53999996    2.73000002
   19.97666740  148.90199280    1.48000002    2.73000002
   19.98000145  142.33099365    1.55999994    2.71000004
   19.98305511  149.91900635    1.64999998    2.71000004
   19.98638916  153.50700378    1.80999994    2.73000002
   19.99250031  153.50700378    1.78999996    2.73000002
   19.99666786  147.66900635    2.03999996    2.71000004
   20.00000000  146.36500549    2.00000000    2.71000004
   20.00305557  148.07800293    2.25000000    2.71000004
   20.00638962  149.85000610    2.28999996    2.71000004
   20.00944519  138.48500061    2.17000008    2.71000004
   20.01277733  141.49400330    2.21000004    2.71000004
   20.01611137  151.04600525    2.23000002    2.71000004
   20.01916695  139.69999695    2.13000011    2.73000002
   20.02249908  133.08200073    2.09999990    2.71000004
   20.02444458  148.39399719    2.07999992    2.71000004
   20.02611160  136.17599487    1.89999998    2.71000004
   20.02944374  142.80700684    1.78999996    2.73000002
   20.03527641  142.80700684    1.73000002    2.71000004
   20.03944397  147.47399902    1.61000001    2.73000002
   20.04277802  150.10099792    1.51999998    2.73000002
   20.04583359  140.73300171    1.61000001    2.73000002
   20.04916573  138.64999390    1.61000001    2.73000002
   20.05249977  128.90800476    1.71000004    2.71000004
   20.05555534  139.24200439    1.85000002    2.71000004
   20.05777740  134.19999695    2.21000004    2.71000004
   20.05916595  138.70599365    2.36999989    2.71000004
   20.06250000  136.94500732    2.34999990    2.69000006
   20.06583214  136.50000000    2.36999989    2.71000004
   20.06916809  124.87400055    2.71000004    2.69000006
   20.07250023  128.73300171    2.69000006    2.71000004
   20.07805634  128.73300171    2.05999994    2.71000004
   20.08222389  146.42300415    1.73000002    2.71000004
   20.08555603  136.25000000    1.73000002    2.71000004
   20.08889008  148.93299866    1.73000002    2.71000004
   20.09111214  137.17599487    1.78999996    2.71000004
   20.09250069  144.72099304    2.25000000    2.69000006
   20.09583473  141.38999939    2.26999998    2.71000004
   20.09889030  144.24899292    2.34999990    2.69000006
   20.10222244  129.11099243    2.40000010    2.69000006
   20.10555649  137.62800598    2.17000008    2.71000004
   20.10861206  139.60200500    2.09999990    2.71000004
   20.11194420  138.67700195    2.00000000    2.69000006
   20.11499977  145.06100464    2.01999998    2.71000004
   20.12111092  145.06100464    2.59999990    2.69000006
   20.12527847  130.99899292    2.75000000    2.69000006
   20.12833405  129.61999512    2.44000006    2.71000004
   20.13166618  142.53700256    2.48000002    2.71000004
   20.13472176  135.77200317    2.42000008    2.71000004
   20.13805580  121.13700104    1.94000006    2.71000004
   20.14138794  125.97599792    2.13000011    2.69000006
   20.14444351  127.02700043    2.05999994    2.69000006
   20.14777756  123.18699646    1.98000002    2.71000004
   20.15083313  123.93800354    2.15000010    2.69000006
   20.15416718  134.95899963    1.83000004    2.71000004
   20.15749931  135.45799255    1.64999998    2.69000006
   20.15805435  127.57900238    1.63000000    2.71000004
   20.16388893  127.57900238    1.64999998    2.71000004
   20.16805458  130.91499329    1.41999996    2.71000004
   20.17111015  127.53199768    1.63000000    2.69000006
   20.17444420  138.85299683    1.38000000    2.71000004
   20.17777634  131.34800720    1.25000000    2.69000006
   20.18083191  123.99700165    1.23000002    2.71000004
   20.18416595  134.02000427    1.60000002    2.69000006
   20.18722153  118.10800171    1.50000000    2.69000006
   20.19055557  130.17199707    1.53999996    2.69000006
   20.19138718  134.08399963    1.44000006    2.69000006
   20.19416618  130.79800415    1.38000000    2.69000006
   20.19749832  134.66400146    1.26999998    2.71000004
   20.20055580  131.45199585    1.26999998    2.69000006
   20.20666695  131.45199585    1.25000000    2.69000006
   20.21083450  137.88699341    1.26999998    2.71000004
   20.21416664  144.62100220    1.07000005    2.69000006
   20.21722221  132.53599548    1.16999996    2.71000004
   20.22055626  136.27400208    1.16999996    2.71000004
   20.22361183  157.37199402    1.05999994    2.69000006
   20.22472191  156.06500244    1.05999994    2.69000006
   20.22750092  153.48500061    1.07000005    2.69000006
   20.23083305  149.11399841    1.07000005    2.69000006
   20.23388863  159.05599976    1.07000005    2.71000004
   20.23722267  158.27299500    1.07000005    2.71000004
   20.24027824  164.72799683    1.09000003    2.71000004
   20.24361229  173.92799377    1.11000001    2.71000004
   20.24944496  173.92799377    1.14999998    2.69000006
   20.25361061  187.28900146    1.13000000    2.69000006
   20.25694466  189.69299316    1.05999994    2.71000004
   20.25805473  184.58399963    1.05999994    2.71000004
   20.26055527  181.97799683    1.03999996    2.69000006
   20.26388931  189.01199341    1.09000003    2.69000006
   20.26694489  173.44900513    1.03999996    2.69000006
   20.27027702  173.33299255    1.03999996    2.69000006
   20.27361107  168.53199768    1.05999994    2.69000006
   20.27666664  159.59100342    1.07000005    2.69000006
   20.28000069  170.72799683    1.13000000    2.69000006
   20.28333282  149.94900513    1.28999996    2.69000006
   20.28638840  158.29400635    1.28999996    2.69000006
   20.29249954  158.29400635    1.21000004    2.69000006
   20.29638863  154.00199890    1.13000000    2.69000006
   20.29972076  159.61000061    1.07000005    2.69000006
   20.30305481  165.11099243    1.07000005    2.69000006
   20.30611038  148.60699463    1.07000005    2.69000006
   20.30944443  164.79100037    1.13000000    2.69000006
   20.31277657  169.06500244    1.14999998    2.69000006
   20.31583214  169.38099670    1.14999998    2.69000006
   20.31916809  178.45700073    1.16999996    2.69000006
   20.32222366  162.39300537    1.16999996    2.69000006
   20.32472229  163.98500061    1.23000002    2.69000006
   20.32583427  158.55700684    1.23000002    2.69000006
   20.32916832  151.78799438    1.19000006    2.69000006
   20.33527756  151.78799438    1.14999998    2.67000008
   20.33944511  150.74400330    1.14999998    2.69000006
   20.34277916  140.50900269    1.23000002    2.67000008
   20.34583473  142.31199646    1.23000002    2.67000008
   20.34916687  150.09100342    1.19000006    2.69000006
   20.35222244  151.67700195    1.13000000    2.67000008
   20.35555649  139.97799683    1.13000000    2.67000008
   20.35805511  135.04699707    1.16999996    2.69000006
   20.35916710  134.80599976    1.16999996    2.69000006
   20.36250114  133.03700256    1.25000000    2.69000006
   20.36583328  136.22000122    1.36000001    2.67000008
   20.36888885  134.73100281    1.58000004    2.67000008
   20.37222290  130.08599854    1.58000004    2.67000008
   20.37805557  130.08599854    1.48000002    2.67000008
   20.38222313  134.05400085    1.53999996    2.69000006
   20.38555527  138.06599426    1.76999998    2.67000008
   20.38861084  132.13200378    2.23000002    2.67000008
   20.39138794  132.19099426    2.26999998    2.67000008
   20.39222145  131.04200745    2.25000000    2.67000008
   20.39555550  122.76100159    2.36999989    2.67000008
   20.39861107  125.49199677    2.40000010    2.67000008
   20.40194321  127.22200012    2.42000008    2.66000009
   20.40527725  138.97300720    2.21000004    2.66000009
   20.40833282  125.32700348    2.17000008    2.67000008
   20.41166687  123.46700287    2.01999998    2.67000008
   20.41499901  120.37400055    1.83000004    2.67000008
   20.42083359  120.37400055    1.66999996    2.67000008
   20.42499924  120.52300262    1.50000000    2.66000009
   20.42833328  128.31799316    1.55999994    2.67000008
   20.43166542  124.64199829    1.63000000    2.67000008
   20.43472099  120.79000092    1.60000002    2.67000008
   20.43805504  131.41000366    1.71000004    2.67000008
   20.44138718  127.15499878    1.76999998    2.67000008
   20.44444275  132.41200256    1.76999998    2.67000008
   20.44777679  126.06900024    1.75000000    2.67000008
   20.45083427  125.85700226    1.71000004    2.67000008
   20.45416832  125.01100159    1.85000002    2.67000008
   20.45750046  124.95400238    1.96000004    2.66000009
   20.45805550  119.87500000    1.96000004    2.66000009
   20.46389008  119.87500000    1.88000000    2.66000009
   20.46805573  127.83799744    1.78999996    2.66000009
   20.47111130  127.51599884    1.88000000    2.66000009
   20.47444534  123.77500153    1.76999998    2.67000008
   20.47750092  113.44999695    1.73000002    2.67000008
   20.48083305  121.29499817    1.73000002    2.66000009
   20.48416710  122.20700073    1.75000000    2.66000009
   20.48750114  136.02000427    1.75000000    2.66000009
   20.49055672  136.16700745    1.69000006    2.66000009
   20.49138832  127.18599701    1.66999996    2.66000009
   20.49416733  135.78599548    1.66999996    2.66000009
   20.49749947  124.83799744    1.60000002    2.66000009
   20.50083351  130.07800293    1.60000002    2.66000009
   20.50666618  130.07800293    1.61000001    2.66000009
   20.51083374  120.03299713    1.55999994    2.66000009
   20.51416588  121.56900024    1.50000000    2.66000009
   20.51749992  119.40200043    1.50000000    2.66000009
   20.52055550  121.68699646    1.48000002    2.66000009
   20.52388954  117.44400024    1.44000006    2.66000009
   20.52472115  117.13899994    1.44000006    2.66000009
   20.52750015  121.08599854    1.41999996    2.67000008
   20.53083229  115.63700104    1.34000003    2.66000009
   20.53416634  115.72200012    1.30999994    2.66000009
   20.53722191  124.86900330    1.30999994    2.66000009
   20.54055595  128.41200256    1.36000001    2.66000009
   20.54361153  124.45500183    1.19000006    2.66000009
   20.54944420  124.45500183    1.09000003    2.66000009
   20.55360985  128.27999878    1.07000005    2.66000009
   20.55694389  123.80000305    1.07000005    2.66000009
   20.55805397  127.71600342    1.13000000    2.66000009
   20.56027794  121.05100250    1.13000000    2.66000009
   20.56361008  126.80799866    1.05999994    2.66000009
   20.56694603  129.64799500    1.03999996    2.66000009
   20.57000160  127.76899719    1.13000000    2.64000010
   20.57333374  127.14900208    1.13000000    2.64000010
   20.57666779  129.01400757    1.28999996    2.66000009
   20.57972336  122.86599731    1.41999996    2.64000010
   20.58305550  120.10399628    1.34000003    2.66000009
   20.58611107  115.83699799    1.53999996    2.64000010
   20.59250069  115.83699799    1.63000000    2.64000010
   20.59638977  117.58899689    1.58000004    2.64000010
   20.59972191  128.10299683    1.61000001    2.64000010
   20.60305595  140.66299438    1.61000001    2.64000010
   20.60611153  130.83299255    1.58000004    2.64000010
   20.60944557  133.71200562    1.58000004    2.64000010
   20.61250114  130.39900208    1.63000000    2.64000010
   20.61583328  127.17500305    1.66999996    2.64000010
   20.61916733  119.22799683    1.73000002    2.64000010
   20.62222290  127.32900238    1.75000000    2.64000010
   20.62472153  121.15200043    1.75000000    2.64000010
   20.62583351  117.68199921    1.61000001    2.64000010
   20.62916756  128.65600586    1.60000002    2.66000009
   20.63527679  128.65600586    1.64999998    2.64000010
   20.63944435  119.72100067    1.66999996    2.64000010
   20.64249992  124.28700256    1.66999996    2.64000010
   20.64583397  125.23500061    1.66999996    2.64000010
   20.64916611  118.13500214    1.83000004    2.61999989
   20.65222168  119.50900269    1.83000004    2.61999989
   20.65555573  122.03299713    1.88000000    2.61999989
   20.65805435  122.48400116    1.80999994    2.61999989
   20.65916634  115.43800354    1.76999998    2.61999989
   20.66250038  124.97499847    1.85000002    2.61999989
   20.66583252  117.97100067    1.86000001    2.61999989
   20.66888809  127.31400299    1.86000001    2.61999989
   20.67222214  124.49700165    2.44000006    2.61999989
   20.67805481  124.49700165    2.26999998    2.64000010
   20.68222237  122.47200012    2.39000010    2.61999989
   20.68527603  121.41999817    2.46000004    2.61999989
   20.68861008  131.01600647    2.09999990    2.61999989
   20.69138718  124.52899933    2.01999998    2.61999989
   20.69222069  119.41300201    1.98000002    2.61999989
   20.69555473  120.29900360    1.66999996    2.61999989
   20.69888878  125.25900269    1.55999994    2.61999989
   20.70194435  122.08100128    1.55999994    2.61999989
   20.70527840  116.57499695    1.53999996    2.61999989
   20.70833397  117.28500366    1.55999994    2.61999989
   20.71166801  128.81799316    1.53999996    2.64000010
   20.71500015  130.98300171    1.53999996    2.64000010
   20.72083473  130.98300171    1.53999996    2.61999989
   20.72500038  136.37699890    1.58000004    2.61999989
   20.72833443  127.74800110    1.55999994    2.61999989
   20.73139000  133.04299927    1.63000000    2.61999989
   20.73472214  134.48699951    1.63000000    2.61999989
   20.73805618  131.36999512    1.41999996    2.61999989
   20.74111176  123.92900085    1.51999998    2.61999989
   20.74444389  125.12400055    1.51999998    2.61999989
   20.74777794  125.79599762    1.46000004    2.61999989
   20.75083351  125.19400024    1.46000004    2.61999989
   20.75416756  121.70200348    1.33000004    2.61999989
   20.75722313  121.58000183    1.23000002    2.61999989
   20.75805473  120.76200104    1.23000002    2.61999989
   20.76388931  120.76200104    1.25000000    2.61999989
   20.76805496  128.93699646    1.25000000    2.61999989
   20.77111053  118.54599762    1.23000002    2.61999989
   20.77444458  129.31300354    1.23000002    2.61999989
   20.79194450  128.28700256    1.21000004    2.59999990
   20.79416656  131.23500061    1.21000004    2.59999990
   20.79749870  126.12300110    1.28999996    2.59999990
   20.80083275  122.59700012    1.28999996    2.59999990
   20.80666542  122.59700012    1.30999994    2.59999990
   20.81083298  122.63700104    1.28999996    2.59999990
   20.81416512  133.39599609    1.44000006    2.59999990
   20.81722260  129.57400513    1.41999996    2.59999990
   20.82055664  129.82899475    1.39999998    2.59999990
   20.82389069  134.20500183    1.30999994    2.59999990
   20.82527924  132.08099365    1.33000004    2.59999990
   20.82722282  128.11599731    1.33000004    2.59999990
   20.83055687  125.31600189    1.33000004    2.59999990
   20.83361244  129.38499451    1.21000004    2.59999990
   20.83694458  136.66000366    1.33000004    2.59999990
   20.84027863  129.83999634    1.33000004    2.59999990
   20.84333420  121.19599915    1.38000000    2.59999990
   20.84944534  121.19599915    1.63000000    2.59999990
   20.85361099  124.87599945    1.58000004    2.59999990
   20.85694504  115.38999939    1.53999996    2.59999990
   20.85861206  128.44900513    1.60000002    2.59999990
   20.86055565  118.59700012    1.63000000    2.59999990
   20.86388969  119.00000000    1.66999996    2.59999990
   20.86694527  121.72499847    1.69000006    2.59999990
   20.87027740  129.46299744    1.66999996    2.57999992
   20.87361145  128.29800415    1.60000002    2.59999990
   20.87666702  126.82599640    1.61000001    2.59999990
   20.88000107  128.23300171    1.46000004    2.59999990
   20.88333321  126.77600098    1.44000006    2.57999992
   20.88638878  126.22599792    1.44000006    2.59999990
   20.89249992  126.22599792    1.44000006    2.59999990
   20.89666748  123.95300293    1.46000004    2.57999992
   20.89972115  124.97899628    1.50000000    2.57999992
   20.90305519  126.31600189    1.53999996    2.57999992
   20.90611076  125.95400238    1.58000004    2.57999992
   20.90944481  121.78099823    1.66999996    2.57999992
   20.91277695  118.98300171    1.80999994    2.57999992
   20.91583252  131.84700012    1.88000000    2.55999994
   20.91916656  132.23699951    1.88000000    2.55999994
   20.92249870  126.06099701    1.98000002    2.57999992
   20.92527771  129.33200073    2.40000010    2.57999992
   20.92583275  129.65299988    2.40000010    2.57999992
   20.92916679  125.89399719    2.44000006    2.55999994
   20.93527603  125.89399719    2.69000006    2.55999994
   20.93944359  123.81400299    2.32999992    2.55999994
   20.94249916  117.31099701    2.01999998    2.55999994
   20.94583321  115.44300079    2.00000000    2.55999994
   20.94944382  119.11499786    1.80999994    2.55999994
   20.95250130  123.00099945    1.88000000    2.55999994
   20.95583344  129.05900574    1.94000006    2.55999994
   20.95861244  126.37899780    1.91999996    2.55999994
   20.95944595  120.18699646    1.89999998    2.55999994
   20.96250153  126.01100159    1.96000004    2.55999994
   20.96666718  126.01100159    1.86000001    2.55999994
   20.97083473  124.90899658    1.76999998    2.55999994
   20.97416687  124.57399750    1.83000004    2.55999994
