    HOUR (UT)   FLARE FACTOR    SKY TESTER    SUN TESTER
   10.45861053   -1.00000000   -1.00000000   -1.00000000
   10.47888851  210.19799805    1.58000004    1.71000004
   10.48222160  219.85299683    1.58000004    1.71000004
   10.48527813  152.22200012    1.58000004    1.71000004
   10.48861122  242.21499634    1.60000002    1.71000004
   10.49194431  225.33099365    1.60000002    1.73000002
   10.49499989  229.83399963    1.61000001    1.73000002
   10.49833393  225.49400330    1.61000001    1.73000002
   10.50138855  223.24800110    1.63000000    1.73000002
   10.50527763  223.02299500    1.63000000    1.73000002
   10.51000023  229.37300110    1.64999998    1.75000000
   10.51222229  222.51100159    1.64999998    1.76999998
   10.51361084  221.86700439    1.66999996    1.76999998
   10.51694393  239.30900574    1.66999996    1.76999998
   10.51999950  228.83700562    1.66999996    1.76999998
   10.52333355  226.15400696    1.66999996    1.78999996
   10.52666664  217.24299622    1.66999996    1.78999996
   10.52972221  211.24000549    1.66999996    1.78999996
   10.53305531  209.00799561    1.66999996    1.78999996
   10.53638935  212.12199402    1.66999996    1.78999996
   10.53944492  205.31700134    1.66999996    1.78999996
   10.54277802  209.50799561    1.66999996    1.80999994
   10.54555607  204.41600037    1.66999996    1.80999994
   10.54638958  210.02299500    1.64999998    1.80999994
   10.54972267  206.37399292    1.64999998    1.80999994
   10.55277824  205.19900513    1.66999996    1.80999994
   10.55611134  190.45899963    1.66999996    1.80999994
   10.55944443  206.19999695    1.64999998    1.83000004
   10.56250000  203.66999817    1.63000000    1.83000004
   10.56611156  191.01800537    1.63000000    1.80999994
   10.56944466  204.50300598    1.63000000    1.83000004
   10.57250023  199.04699707    1.63000000    1.83000004
   10.57583332  189.91900635    1.61000001    1.83000004
   10.57888889  202.35899353    1.61000001    1.83000004
   10.57944393  212.21000671    1.63000000    1.85000002
   10.58277798  185.23199463    1.61000001    1.85000002
   10.58583260  188.81799316    1.61000001    1.85000002
   10.58916664  192.40299988    1.60000002    1.85000002
   10.59249973  190.41499329    1.60000002    1.85000002
   10.59555531  200.95500183    1.60000002    1.86000001
   10.59888840  199.17900085    1.60000002    1.86000001
   10.60222244  195.11300659    1.58000004    1.85000002
   10.60527802  203.85800171    1.58000004    1.85000002
   10.60861111  188.36700439    1.58000004    1.86000001
   10.61194515  188.83599854    1.58000004    1.86000001
   10.61222267  184.68400574    1.58000004    1.86000001
   10.61555576  185.89199829    1.58000004    1.86000001
   10.61888885  182.42100525    1.58000004    1.88000000
   10.62194443  185.93200684    1.58000004    1.88000000
   10.62527752  177.24899292    1.58000004    1.88000000
   10.62861156  182.86399841    1.58000004    1.89999998
   10.63194466  190.13499451    1.58000004    1.89999998
   10.63500023  184.87300110    1.58000004    1.89999998
   10.63833332  182.87600708    1.58000004    1.89999998
   10.64138889  185.57499695    1.58000004    1.91999996
   10.64472198  203.51400757    1.58000004    1.91999996
   10.64555550  179.45199585    1.58000004    1.91999996
   10.64833355  187.30599976    1.58000004    1.91999996
   10.65166664  201.22200012    1.58000004    1.91999996
   10.65472221  226.36700439    1.58000004    1.91999996
   10.65805531  197.32800293    1.58000004    1.91999996
   10.66111088  241.80299377    1.58000004    1.91999996
   10.66444397  258.57901001    1.60000002    1.91999996
   10.66777802  253.49499512    1.60000002    1.94000006
   10.67083359  234.41700745    1.60000002    1.94000006
   10.67416668  233.91200256    1.61000001    1.94000006
   10.67750072  216.61599731    1.61000001    1.94000006
   10.67888927  235.44799805    1.60000002    1.94000006
   10.68111134  225.09899902    1.60000002    1.94000006
   10.68444443  255.69099426    1.60000002    1.94000006
   10.68750000  217.74499512    1.60000002    1.94000006
   10.69083309  233.47599792    1.60000002    1.96000004
   10.69388866  242.65499878    1.61000001    1.98000002
   10.69722271  211.18299866    1.61000001    1.98000002
   10.70055580  249.20799255    1.63000000    1.98000002
   10.70361137  239.83399963    1.63000000    1.98000002
   10.70694447  217.47300720    1.63000000    1.98000002
   10.71027756  236.04899597    1.63000000    2.00000000
   10.71222210  216.59100342    1.64999998    1.98000002
   10.71388912  230.01199341    1.64999998    1.98000002
   10.71722221  212.61399841    1.64999998    1.98000002
   10.72027779  238.46899414    1.64999998    1.98000002
   10.72361088  223.09500122    1.64999998    2.00000000
   10.72694397  201.82299805    1.66999996    2.00000000
   10.72999954  225.32499695    1.66999996    2.00000000
   10.73333359  239.58500671    1.66999996    2.01999998
   10.73638916  203.90699768    1.66999996    2.01999998
   10.73972225  219.01699829    1.69000006    2.01999998
   10.74305534  212.41700745    1.73000002    2.01999998
   10.74555588  220.33299255    1.73000002    2.01999998
   10.74666691  214.76699829    1.73000002    2.01999998
   10.75000000  201.26800537    1.73000002    2.01999998
   10.75305557  233.11099243    1.75000000    2.01999998
   10.75638866  206.20899963    1.75000000    2.01999998
   10.75944424  188.26899719    1.75000000    2.03999996
   10.76277733  203.47399902    1.78999996    2.01999998
   10.76611137  183.50300598    1.78999996    2.01999998
   10.76916599  176.36500549    1.78999996    2.03999996
   10.77250004  194.24499512    1.80999994    2.05999994
   10.77583313  216.76499939    1.83000004    2.03999996
   10.77888870  192.83399963    1.83000004    2.03999996
   10.77944374  181.26600647    1.83000004    2.03999996
   10.78277779  206.34599304    1.85000002    2.05999994
   10.78583336  191.15100098    1.85000002    2.05999994
   10.78916740  177.36999512    1.85000002    2.05999994
   10.79250050  186.86999512    1.86000001    2.05999994
   10.79555607  183.00799561    1.88000000    2.05999994
   10.79888916  193.96000671    1.88000000    2.05999994
   10.80222225  181.04299927    1.88000000    2.05999994
   10.80527782  183.48500061    1.89999998    2.07999992
   10.80861092  200.76800537    1.89999998    2.07999992
   10.81194496  177.30900574    1.89999998    2.05999994
   10.81277752  189.00900269    1.89999998    2.05999994
   10.81555557  184.92799377    1.89999998    2.07999992
   10.81861115  180.35000610    1.89999998    2.07999992
   10.82194424  200.53300476    1.89999998    2.07999992
   10.82527733  193.69500732    1.91999996    2.07999992
   10.82833290  179.25799561    1.91999996    2.07999992
   10.83166695  197.68200684    1.91999996    2.09999990
   10.83472157  190.43299866    1.89999998    2.09999990
   10.83805561  168.55000305    1.89999998    2.09999990
   10.84138870  184.79200745    1.89999998    2.09999990
   10.84444427  179.93499756    1.89999998    2.09999990
   10.84611034  171.24600220    1.88000000    2.11999989
   10.84833336  205.54200745    1.88000000    2.11999989
   10.85138893  165.98399353    1.86000001    2.11999989
   10.85472298  166.81799316    1.86000001    2.11999989
   10.85805607  181.55299377    1.86000001    2.09999990
   10.86111164  178.39199829    1.85000002    2.11999989
   10.86444473  191.42199707    1.85000002    2.11999989
   10.86750031  175.15699768    1.86000001    2.11999989
   10.87083340  183.04699707    1.88000000    2.11999989
   10.87416649  183.80799866    1.88000000    2.11999989
   10.87722206  189.28199768    1.85000002    2.13000011
   10.87944412  169.29600525    1.88000000    2.13000011
   10.88111115  182.92500305    1.88000000    2.13000011
   10.88416672  179.17799377    1.86000001    2.13000011
   10.88749981  183.60299683    1.86000001    2.13000011
   10.89083290  182.56100464    1.83000004    2.15000010
   10.89388847  179.33500671    1.80999994    2.15000010
   10.89722252  182.07600403    1.80999994    2.15000010
   10.90055561  183.61300659    1.83000004    2.15000010
   10.90361118  167.66700745    1.80999994    2.15000010
   10.90694427  179.74299622    1.78999996    2.15000010
   10.90999985  162.34899902    1.78999996    2.15000010
   10.91277695  174.37800598    1.76999998    2.15000010
   10.91388893  169.62500000    1.76999998    2.15000010
   10.91694450  167.73300171    1.76999998    2.15000010
   10.92027855  175.17999268    1.76999998    2.15000010
   10.92361164  179.63999939    1.76999998    2.17000008
   10.92666721  158.21299744    1.76999998    2.15000010
   10.93000031  183.41799927    1.76999998    2.17000008
   10.93333340  170.89399719    1.76999998    2.17000008
   10.93638897  178.26699829    1.76999998    2.17000008
   10.93972206  182.25199890    1.75000000    2.17000008
   10.94277763  174.50399780    1.75000000    2.17000008
   10.94611073  171.23399353    1.75000000    2.17000008
   10.94666672  167.86399841    1.75000000    2.17000008
   10.94972229  171.77499390    1.75000000    2.17000008
   10.95305538  186.60899353    1.75000000    2.19000006
   10.95638847  180.26600647    1.71000004    2.19000006
   10.95944405  187.27600098    1.73000002    2.21000004
   10.96277714  187.63999939    1.73000002    2.21000004
   10.96583271  180.95599365    1.71000004    2.21000004
   10.96916580  171.42599487    1.71000004    2.19000006
   10.97249985  168.85899353    1.69000006    2.21000004
   10.97555542  171.36900330    1.69000006    2.21000004
   10.97888851  176.09800720    1.66999996    2.21000004
   10.97944355  176.24200439    1.66999996    2.21000004
   10.98249912  165.35000610    1.66999996    2.21000004
   10.98555565  158.79600525    1.69000006    2.21000004
   10.98888874  164.45300293    1.69000006    2.21000004
   10.99222279  181.62899780    1.66999996    2.21000004
   10.99527836  165.82600403    1.66999996    2.19000006
   10.99861145  166.65400696    1.66999996    2.19000006
   11.00194454  165.32899475    1.66999996    2.21000004
   11.00500011  167.04499817    1.66999996    2.21000004
   11.00833321  175.20500183    1.64999998    2.23000002
   11.01138878  165.93299866    1.64999998    2.23000002
   11.01277733  169.69599915    1.64999998    2.23000002
   11.01527786  171.83799744    1.64999998    2.23000002
   11.01833344  175.27799988    1.64999998    2.23000002
   11.02166653  168.73399353    1.64999998    2.25000000
   11.02499962  173.71600342    1.63000000    2.23000002
   11.02805519  174.39399719    1.63000000    2.23000002
   11.03138828  164.89599609    1.63000000    2.25000000
   11.03472233  174.60200500    1.63000000    2.25000000
   11.03777790  161.95899963    1.64999998    2.25000000
   11.04111195  170.51600647    1.64999998    2.25000000
   11.04416752  154.84800720    1.63000000    2.23000002
   11.04611111  157.09300232    1.63000000    2.23000002
   11.04805565  165.89700317    1.63000000    2.23000002
   11.05111122  169.56700134    1.64999998    2.25000000
   11.05444431  170.49499512    1.64999998    2.25000000
   11.05777836  158.25399780    1.64999998    2.25000000
   11.06083393  164.51899719    1.63000000    2.25000000
   11.06416702  165.29100037    1.63000000    2.25000000
   11.06750011  162.19500732    1.63000000    2.26999998
   11.07055569  157.90100098    1.63000000    2.26999998
   11.07388878  161.51400757    1.63000000    2.25000000
   11.07694435  163.59399414    1.61000001    2.26999998
   11.07944393  163.65699768    1.63000000    2.28999996
   11.08083344  165.17100525    1.63000000    2.28999996
   11.08388901  163.48300171    1.60000002    2.26999998
   11.08722210  161.52900696    1.60000002    2.26999998
   11.09055519  161.76699829    1.60000002    2.26999998
   11.09361076  159.80900574    1.60000002    2.26999998
   11.09694386  157.28700256    1.64999998    2.26999998
   11.10027790  163.50300598    1.60000002    2.26999998
   11.10333347  164.17799377    1.60000002    2.26999998
   11.10666752  160.11599731    1.60000002    2.28999996
   11.10972214  157.80700684    1.60000002    2.28999996
   11.11277771  155.82699585    1.61000001    2.28999996
   11.11361122  156.54200745    1.61000001    2.28999996
   11.11666679  154.51100159    1.58000004    2.30999994
   11.11999989  157.99499512    1.55999994    2.28999996
   11.12333393  164.19099426    1.55999994    2.28999996
   11.12638855  155.80499268    1.55999994    2.28999996
   11.12972260  162.72700500    1.55999994    2.30999994
   11.13305569  153.14500427    1.55999994    2.28999996
   11.13611126  150.81399536    1.53999996    2.28999996
   11.13944435  162.88299561    1.53999996    2.30999994
   11.14249992  163.32600403    1.53999996    2.30999994
   11.14583302  164.27299500    1.53999996    2.30999994
   11.14638901  169.35899353    1.53999996    2.30999994
   11.14972210  155.89399719    1.53999996    2.30999994
   11.15305519  159.03599548    1.53999996    2.30999994
   11.15611076  153.15699768    1.51999998    2.32999992
   11.15944386  161.03300476    1.51999998    2.32999992
   11.16277695  152.07000732    1.51999998    2.32999992
   11.16583252  150.90600586    1.53999996    2.30999994
   11.16916656  158.39500427    1.53999996    2.32999992
   11.17222214  153.05799866    1.53999996    2.32999992
   11.17555618  160.00799561    1.53999996    2.32999992
   11.17888927  162.89100647    1.53999996    2.32999992
   11.17972279  162.50799561    1.53999996    2.32999992
   11.18249989  155.04200745    1.53999996    2.32999992
   11.18583298  162.08799744    1.55999994    2.32999992
   11.18888855  158.82899475    1.55999994    2.32999992
   11.19222260  160.67999268    1.58000004    2.32999992
   11.19527817  154.94200134    1.60000002    2.32999992
   11.19861126  155.86199951    1.60000002    2.32999992
   11.20194435  147.69700623    1.58000004    2.32999992
   11.20499992  153.63600159    1.58000004    2.32999992
   11.20833302  154.50300598    1.60000002    2.32999992
   11.21166611  164.75799561    1.60000002    2.34999990
   11.21305561  153.39999390    1.60000002    2.34999990
   11.21527767  157.71499634    1.60000002    2.34999990
   11.21861076  158.59899902    1.60000002    2.34999990
   11.22166634  154.41000366    1.58000004    2.34999990
   11.22499943  154.85800171    1.58000004    2.34999990
   11.22833252  151.46200562    1.58000004    2.34999990
   11.23138809  160.90299988    1.58000004    2.36999989
   11.23472214  156.04499817    1.58000004    2.36999989
   11.23805618  148.47399902    1.58000004    2.34999990
   11.24111176  155.27900696    1.55999994    2.36999989
   11.24444485  153.66900635    1.55999994    2.36999989
   11.24638939  154.49899292    1.55999994    2.36999989
   11.24805546  154.67900085    1.55999994    2.36999989
   11.25138855  152.51300049    1.58000004    2.36999989
   11.25444412  149.31399536    1.55999994    2.36999989
   11.25777817  156.57200623    1.55999994    2.36999989
   11.26083374  148.48100281    1.53999996    2.36999989
   11.26416683  150.17199707    1.55999994    2.36999989
   11.26749992  155.69299316    1.55999994    2.36999989
   11.27055550  162.83500671    1.53999996    2.36999989
   11.27388859  160.37199402    1.53999996    2.36999989
   11.27722168  157.63600159    1.53999996    2.36999989
   11.27972221  158.56700134    1.51999998    2.36999989
   11.28083324  155.80499268    1.51999998    2.36999989
   11.28416729  166.08500671    1.51999998    2.39000010
   11.28722286  151.01800537    1.50000000    2.39000010
   11.29055595  158.95100403    1.50000000    2.39000010
   11.29361153  161.02699280    1.50000000    2.39000010
   11.29694462  159.86799622    1.51999998    2.39000010
   11.30027771  154.20500183    1.50000000    2.36999989
   11.30333328  151.98899841    1.51999998    2.39000010
   11.30666733  159.94500732    1.51999998    2.39000010
   11.31000042  153.80099487    1.51999998    2.39000010
   11.31305599  160.72900391    1.50000000    2.39000010
   11.31361103  153.24099731    1.50000000    2.39000010
   11.31694412  153.29400635    1.51999998    2.39000010
   11.31999969  152.54299927    1.51999998    2.39000010
   11.32333374  150.65800476    1.51999998    2.39000010
   11.32638836  155.86599731    1.53999996    2.39000010
   11.32972240  155.78399658    1.55999994    2.39000010
   11.33305550  153.87300110    1.55999994    2.39000010
   11.33611107  159.75799561    1.55999994    2.39000010
   11.33944416  155.39599609    1.58000004    2.39000010
   11.34277725  155.04699707    1.58000004    2.40000010
   11.34583282  158.59199524    1.58000004    2.40000010
   11.34638882  161.50799561    1.58000004    2.40000010
   11.34944439  153.18699646    1.55999994    2.40000010
   11.35277843  153.85200500    1.55999994    2.42000008
   11.35583401  167.36700439    1.55999994    2.42000008
   11.35916710  158.43600464    1.58000004    2.40000010
   11.36250019  159.41200256    1.58000004    2.40000010
   11.36555576  155.28900146    1.58000004    2.42000008
   11.36888885  153.73899841    1.58000004    2.42000008
   11.37194443  156.72700500    1.60000002    2.40000010
   11.37527752  147.21400452    1.60000002    2.40000010
   11.37861156  157.18800354    1.63000000    2.40000010
   11.37972260  162.61799622    1.61000001    2.40000010
   11.38222218  153.08399963    1.61000001    2.40000010
   11.38555527  150.52299500    1.61000001    2.40000010
   11.38861084  154.83599854    1.60000002    2.40000010
   11.39194393  157.41200256    1.61000001    2.40000010
   11.39527798  150.49000549    1.61000001    2.40000010
   11.39833355  153.35400391    1.61000001    2.40000010
   11.40166664  155.96400452    1.61000001    2.42000008
   11.40499973  155.06300354    1.61000001    2.42000008
   11.40805531  155.01800537    1.61000001    2.42000008
   11.41138840  156.29100037    1.61000001    2.42000008
   11.41305542  157.55400085    1.61000001    2.42000008
   11.41499996  160.55499268    1.61000001    2.42000008
   11.41833401  151.39799500    1.61000001    2.42000008
   11.42138958  155.16000366    1.61000001    2.42000008
   11.42472267  154.29299927    1.60000002    2.40000010
   11.42805576  160.47799683    1.60000002    2.44000006
   11.43111134  158.15499878    1.61000001    2.42000008
   11.43444443  159.66499329    1.60000002    2.42000008
   11.43750000  152.10299683    1.60000002    2.44000006
   11.44083309  155.95599365    1.61000001    2.44000006
   11.44416714  157.05400085    1.60000002    2.44000006
   11.44638920  152.29600525    1.60000002    2.42000008
   11.44777775  153.94999695    1.60000002    2.42000008
   11.45111084  153.47700500    1.61000001    2.44000006
   11.45416641  159.48899841    1.60000002    2.42000008
   11.45749950  156.95500183    1.60000002    2.42000008
   11.46083355  157.59100342    1.60000002    2.44000006
   11.46388912  152.63600159    1.60000002    2.44000006
   11.46722221  162.55099487    1.60000002    2.46000004
   11.47027779  160.56399536    1.58000004    2.44000006
   11.47361088  150.56599426    1.58000004    2.44000006
   11.47694397  153.43299866    1.58000004    2.46000004
   11.49555588  151.16400146    1.55999994    2.46000004
   11.49666691  151.29200745    1.55999994    2.46000004
   11.50000000  149.41299438    1.58000004    2.46000004
   11.50333309  155.42799377    1.58000004    2.46000004
   11.50638866  150.99000549    1.60000002    2.46000004
   11.50972176  159.90400696    1.60000002    2.46000004
   11.51277733  153.70899963    1.60000002    2.48000002
   11.51611137  148.17900085    1.61000001    2.46000004
   11.51944447  148.54600525    1.60000002    2.46000004
   11.52277756  147.65699768    1.60000002    2.46000004
   11.52611065  151.12800598    1.61000001    2.46000004
   11.52861118  148.51199341    1.61000001    2.46000004
   11.52972221  152.60099792    1.60000002    2.46000004
   11.53305531  147.91600037    1.60000002    2.46000004
   11.53611183  146.08799744    1.60000002    2.46000004
   11.53944492  156.21800232    1.58000004    2.46000004
   11.54250050  152.36999512    1.58000004    2.46000004
   11.54583359  148.09199524    1.60000002    2.48000002
   11.54916668  155.63699341    1.61000001    2.48000002
   11.55222225  154.18099976    1.61000001    2.48000002
   11.55555534  151.44599915    1.60000002    2.46000004
   11.55888939  148.67700195    1.63000000    2.46000004
   11.56222248  147.74800110    1.63000000    2.48000002
   11.56250000  144.86999512    1.63000000    2.48000002
   11.56583309  147.62100220    1.64999998    2.46000004
   11.56888866  142.78999329    1.63000000    2.46000004
   11.57222176  146.08900452    1.63000000    2.48000002
   11.57555580  143.72399902    1.63000000    2.48000002
   11.57861137  152.01300049    1.63000000    2.48000002
   11.58194447  149.68499756    1.64999998    2.48000002
   11.58527756  152.08599854    1.66999996    2.48000002
   11.58833313  152.11500549    1.69000006    2.48000002
   11.59166622  150.51699829    1.71000004    2.48000002
   11.59472179  150.04200745    1.71000004    2.48000002
   11.59555531  148.35699463    1.69000006    2.48000002
   11.59833336  150.14900208    1.69000006    2.48000002
   11.60166740  149.95500183    1.71000004    2.48000002
   11.60500050  145.44900513    1.69000006    2.48000002
   11.60805607  156.32400513    1.66999996    2.50000000
   11.61138916  145.12500000    1.66999996    2.50000000
   11.61444473  153.25900269    1.64999998    2.50000000
   11.61777782  149.45399475    1.64999998    2.48000002
   11.62111092  155.81300354    1.64999998    2.48000002
   11.62416649  157.79299927    1.63000000    2.50000000
   11.62750053  151.63400269    1.64999998    2.50000000
   11.62888908  151.01600647    1.64999998    2.50000000
   11.63111115  148.25900269    1.64999998    2.50000000
   11.63444424  157.07800293    1.64999998    2.50000000
   11.63749981  162.25599670    1.64999998    2.50000000
   11.64083290  154.69799805    1.64999998    2.50000000
   11.64416695  147.14799500    1.66999996    2.50000000
   11.64750004  145.64700317    1.69000006    2.50000000
   11.65055561  149.41799927    1.69000006    2.50000000
   11.65388870  152.60499573    1.71000004    2.50000000
   11.65694427  145.46200562    1.73000002    2.50000000
   11.66027737  149.89399719    1.71000004    2.50000000
   11.66222191  151.60699463    1.71000004    2.50000000
   11.66388893  150.54899597    1.71000004    2.50000000
   11.66722298  140.85800171    1.73000002    2.50000000
   11.67055607  146.13800049    1.73000002    2.50000000
   11.67388916  145.56300354    1.73000002    2.51999998
   11.67694473  143.74899292    1.73000002    2.51999998
   11.68027782  147.66999817    1.71000004    2.51999998
   11.68361092  149.18299866    1.71000004    2.51999998
   11.68666649  150.62600708    1.71000004    2.51999998
   11.69000053  150.38099670    1.66999996    2.51999998
   11.69305515  149.97999573    1.64999998    2.51999998
   11.69555569  146.69299316    1.66999996    2.51999998
   11.69694424  152.31700134    1.66999996    2.51999998
   11.69999981  153.22200012    1.69000006    2.51999998
   11.70333290  151.20399475    1.71000004    2.51999998
   11.70666695  144.84199524    1.75000000    2.51999998
   11.70972157  146.91700745    1.75000000    2.51999998
   11.71305561  150.50199890    1.76999998    2.51999998
   11.71638870  154.26899719    1.78999996    2.51999998
   11.71944427  145.06799316    1.78999996    2.51999998
   11.72277737  154.33000183    1.80999994    2.51999998
   11.72583294  147.99200439    1.83000004    2.53999996
   11.72888851  150.02200317    1.83000004    2.53999996
   11.72944355  145.16600037    1.83000004    2.51999998
   11.73277760  142.01400757    1.83000004    2.51999998
   11.73611164  143.66400146    1.83000004    2.51999998
   11.73916721  147.43699646    1.83000004    2.51999998
   11.74250031  146.56199646    1.83000004    2.51999998
   11.74555588  138.11900330    1.83000004    2.51999998
   11.74888897  142.01400757    1.86000001    2.53999996
   11.75222206  142.57800293    1.86000001    2.51999998
   11.75527763  146.19900513    1.86000001    2.51999998
   11.75861073  141.86999512    1.86000001    2.53999996
   11.76194477  152.82099915    1.86000001    2.53999996
   11.76222229  148.05599976    1.86000001    2.53999996
   11.76555538  148.10800171    1.88000000    2.51999998
   11.76888847  150.58999634    1.89999998    2.53999996
   11.77194405  151.96699524    1.91999996    2.53999996
   11.77527714  146.01300049    1.94000006    2.53999996
   11.77861118  150.61799622    1.91999996    2.53999996
   11.78166676  146.05900574    1.91999996    2.53999996
   11.78500080  157.29200745    1.91999996    2.53999996
   11.78805637  152.89999390    1.91999996    2.51999998
   11.79138947  146.30299377    1.94000006    2.53999996
   11.79472256  147.27600098    2.00000000    2.53999996
   11.79555607  155.07800293    2.00000000    2.53999996
   11.79805565  152.30999756    2.01999998    2.53999996
   11.80138874  145.71200562    2.05999994    2.53999996
   11.80444431  148.11099243    2.09999990    2.53999996
   11.80777836  151.00000000    2.13000011    2.55999994
   11.81111145  154.85800171    2.17000008    2.53999996
   11.81416702  151.69000244    2.19000006    2.53999996
   11.81750011  150.67799377    2.19000006    2.53999996
   11.82083321  146.36799622    2.17000008    2.53999996
   11.82388878  152.14100647    2.21000004    2.55999994
   11.82722187  148.02299500    2.23000002    2.55999994
   11.82888889  156.01800537    2.23000002    2.53999996
   11.83083344  144.03100586    2.25000000    2.55999994
   11.83416653  146.68200684    2.26999998    2.53999996
   11.83722210  151.73599243    2.25000000    2.55999994
   11.84055519  149.05700684    2.23000002    2.53999996
   11.84388828  149.56700134    2.23000002    2.55999994
   11.84694386  158.26800537    2.25000000    2.55999994
   11.85027790  149.70899963    2.25000000    2.55999994
   11.85361195  148.06599426    2.26999998    2.55999994
   11.85666752  148.49299622    2.26999998    2.53999996
   11.86000061  154.50599670    2.28999996    2.55999994
   11.86222267  149.96600342    2.30999994    2.55999994
   11.86361122  153.43800354    2.30999994    2.55999994
   11.86694431  148.88400269    2.39000010    2.55999994
   11.86999989  152.01300049    2.42000008    2.55999994
   11.87333393  149.26199341    2.59999990    2.55999994
   11.87666702  150.48300171    2.69000006    2.55999994
   11.87972260  148.49800110    2.76999998    2.55999994
   11.88305569  150.93099976    2.82999992    2.55999994
   11.88638878  147.98899841    2.86999989    2.55999994
   11.88944435  152.92799377    2.91000009    2.55999994
   11.89277744  148.97700500    2.91000009    2.53999996
   11.89555550  153.15699768    2.91000009    2.55999994
   11.89638901  147.27999878    2.91000009    2.55999994
   11.89972210  155.63400269    2.91000009    2.55999994
   11.90277767  153.47799683    2.91000009    2.55999994
   11.90611076  154.60000610    2.93000007    2.57999992
   11.90944386  149.72900391    2.94000006    2.55999994
   11.91249943  149.42700195    2.96000004    2.55999994
   11.91583252  154.37500000    3.00000000    2.55999994
   11.91888905  146.33700562    3.00000000    2.55999994
   11.92222214  145.92199707    3.01999998    2.55999994
   11.92555618  150.22099304    3.03999996    2.55999994
   11.92861176  145.32299805    3.01999998    2.55999994
   11.92916679  151.75000000    3.01999998    2.55999994
   11.93222237  152.14100647    3.00000000    2.55999994
   11.93527794  148.48199463    2.94000006    2.55999994
   11.93861103  147.33999634    2.89000010    2.55999994
   11.94194412  143.44500732    2.78999996    2.57999992
   11.94499969  149.35499573    2.75000000    2.57999992
   11.94833374  151.87699890    2.69000006    2.57999992
   11.95138836  151.28799438    2.67000008    2.55999994
   11.95472240  147.97999573    2.67000008    2.59999990
   11.95805550  152.28799438    2.71000004    2.57999992
   11.96111107  157.65299988    2.73000002    2.57999992
   11.96249962  150.91400146    2.75000000    2.57999992
   11.96500015  143.38999939    2.78999996    2.57999992
   11.96805477  146.85299683    2.78999996    2.57999992
   11.97138882  149.38000488    2.76999998    2.57999992
   11.97472191  159.15299988    2.76999998    2.57999992
   11.97777748  151.74000549    2.75000000    2.59999990
   11.98111057  153.58900452    2.71000004    2.59999990
   11.98444462  149.53599548    2.69000006    2.57999992
   11.98750019  147.67199707    2.67000008    2.57999992
   11.99083328  142.55499268    2.66000009    2.57999992
   11.99416733  145.57600403    2.66000009    2.57999992
   11.99583340  144.50000000    2.67000008    2.57999992
   11.99777794  147.20199585    2.67000008    2.57999992
   12.00083351  159.51400757    2.69000006    2.57999992
   12.00416660  140.15100098    2.67000008    2.59999990
   12.00749969  146.20899963    2.67000008    2.57999992
   12.01055527  143.05200195    2.66000009    2.59999990
   12.01388931  143.82600403    2.61999989    2.57999992
   12.01694393  151.22999573    2.61999989    2.59999990
   12.02027798  145.35499573    2.61999989    2.57999992
   12.02361107  150.25900269    2.61999989    2.57999992
   12.02666664  151.63400269    2.61999989    2.59999990
   12.02916622  157.38400269    2.64000010    2.59999990
   12.03055573  155.44999695    2.64000010    2.59999990
   12.03361130  150.08399963    2.61999989    2.57999992
   12.03694534  156.39700317    2.59999990    2.57999992
   12.04027843  146.27099609    2.59999990    2.59999990
   12.04333401  147.08299255    2.57999992    2.59999990
   12.04666710  147.05400085    2.55999994    2.59999990
   12.05000019  155.14100647    2.55999994    2.59999990
   12.05305576  146.57099915    2.55999994    2.59999990
   12.05638885  147.31100464    2.55999994    2.59999990
   12.05944443  143.49400330    2.51999998    2.59999990
   12.06250000  153.94099426    2.51999998    2.59999990
   12.06333351  144.21400452    2.51999998    2.59999990
   12.06638908  149.35000610    2.50000000    2.59999990
   12.06972218  149.12699890    2.50000000    2.59999990
   12.07305527  149.23899841    2.50000000    2.59999990
   12.07611084  147.65100098    2.50000000    2.59999990
   12.07944393  145.71099854    2.51999998    2.59999990
   12.08277798  144.99800110    2.50000000    2.59999990
   12.08583260  146.96899414    2.50000000    2.59999990
   12.08916664  146.31599426    2.50000000    2.59999990
   12.09222221  158.44200134    2.48000002    2.59999990
   12.09555531  152.28500366    2.46000004    2.61999989
   12.09611034  153.65400696    2.46000004    2.61999989
   12.09916592  154.66700745    2.46000004    2.61999989
   12.10249996  151.92300415    2.48000002    2.61999989
   12.10583401  142.90299988    2.50000000    2.59999990
   12.10888958  145.16900635    2.50000000    2.61999989
   12.11222267  148.42199707    2.48000002    2.61999989
   12.11555576  148.79499817    2.48000002    2.61999989
   12.11861134  141.99699402    2.50000000    2.59999990
   12.12194443  150.19799805    2.48000002    2.61999989
   12.12500000  147.58200073    2.48000002    2.61999989
   12.12833309  148.68499756    2.46000004    2.61999989
   12.12944412  149.81399536    2.46000004    2.61999989
   12.13194466  140.91700745    2.44000006    2.61999989
   12.13500023  141.59399414    2.44000006    2.61999989
   12.13833332  145.33700562    2.42000008    2.61999989
   12.14138889  142.33599854    2.42000008    2.61999989
   12.14472198  142.35499573    2.42000008    2.61999989
   12.14805508  141.62199402    2.40000010    2.61999989
   12.15138817  141.95500183    2.40000010    2.61999989
   12.15444374  146.58999634    2.40000010    2.64000010
   12.15777779  152.28700256    2.40000010    2.61999989
   12.16083336  146.88499451    2.39000010    2.61999989
   12.16277695  145.88600159    2.39000010    2.61999989
   12.16444397  147.98500061    2.39000010    2.61999989
   12.16777802  143.17700195    2.40000010    2.61999989
   12.17111111  153.45199585    2.40000010    2.61999989
   12.17416668  146.94400024    2.40000010    2.64000010
   12.17750072  142.75300598    2.42000008    2.64000010
   12.18083382  140.07200623    2.42000008    2.64000010
   12.18388939  148.55000305    2.42000008    2.64000010
   12.18722248  148.92799377    2.40000010    2.64000010
   12.19027805  146.39500427    2.39000010    2.61999989
   12.19361115  145.66200256    2.36999989    2.61999989
   12.19611073  143.52200317    2.34999990    2.61999989
   12.19722271  139.59700012    2.34999990    2.61999989
   12.20055580  148.83999634    2.34999990    2.64000010
   12.20388889  142.06399536    2.30999994    2.64000010
   12.20694447  141.89599609    2.26999998    2.64000010
   12.21027756  153.57899475    2.25000000    2.61999989
   12.21361065  144.32600403    2.25000000    2.64000010
   12.21666622  146.33900452    2.26999998    2.64000010
   12.21999931  142.29899597    2.28999996    2.64000010
   12.22305489  139.19500732    2.34999990    2.61999989
   12.22638798  141.00799561    2.36999989    2.64000010
   12.22944355  144.41999817    2.36999989    2.64000010
   12.22999954  143.66400146    2.39000010    2.64000010
   12.23333359  146.59399414    2.39000010    2.64000010
   12.23666668  149.88099670    2.40000010    2.64000010
   12.23972225  143.31500244    2.40000010    2.64000010
   12.24305534  149.53599548    2.39000010    2.64000010
   12.24611092  142.46200562    2.34999990    2.64000010
   12.24944496  140.76800537    2.30999994    2.64000010
   12.25277805  148.15499878    2.25000000    2.64000010
   12.25583363  138.99000549    2.25000000    2.64000010
   12.25916672  148.69799805    2.26999998    2.64000010
   12.26249981  145.07400513    2.28999996    2.64000010
   12.26277733  145.00900269    2.30999994    2.64000010
   12.26583290  144.27099609    2.32999992    2.64000010
   12.26916599  146.23100281    2.28999996    2.64000010
   12.27222157  142.74499512    2.28999996    2.64000010
   12.27555561  142.26499939    2.28999996    2.64000010
   12.27888870  145.55599976    2.28999996    2.64000010
   12.28194427  142.96200562    2.26999998    2.64000010
   12.28527832  141.70399475    2.26999998    2.64000010
   12.28833389  136.68899536    2.23000002    2.66000009
   12.29166698  145.20199585    2.21000004    2.64000010
   12.29500008  143.09199524    2.19000006    2.64000010
   12.29611111  143.61999512    2.17000008    2.66000009
   12.29861164  150.51199341    2.19000006    2.64000010
   12.30194473  144.32099915    2.17000008    2.66000009
   12.30500031  138.16299438    2.17000008    2.66000009
   12.30833340  148.53799438    2.15000010    2.66000009
   12.31166649  148.27000427    2.13000011    2.64000010
   12.31472206  147.35800171    2.11999989    2.64000010
   12.31805515  149.62600708    2.09999990    2.64000010
   12.32138920  149.38299561    2.09999990    2.66000009
   12.32444477  147.59599304    2.09999990    2.66000009
   12.32777786  154.44900513    2.11999989    2.64000010
   12.32944393  148.55900574    2.13000011    2.64000010
   12.33138847  149.06100464    2.13000011    2.66000009
   12.33472157  148.35699463    2.13000011    2.66000009
   12.33777714  141.10899353    2.11999989    2.66000009
   12.34111118  149.13499451    2.09999990    2.66000009
   12.34444427  142.88400269    2.11999989    2.66000009
   12.34749985  145.15899658    2.11999989    2.66000009
   12.35083389  150.15100098    2.11999989    2.66000009
   12.35416698  144.81599426    2.13000011    2.66000009
   12.35722256  151.41400146    2.11999989    2.67000008
   12.36055565  146.28999329    2.11999989    2.66000009
   12.36277771  144.47399902    2.11999989    2.66000009
   12.36444473  142.09700012    2.09999990    2.66000009
   12.36750031  144.08200073    2.07999992    2.66000009
   12.37083340  142.38900757    2.05999994    2.66000009
   12.37416649  147.54100037    2.05999994    2.67000008
   12.37722206  148.85499573    2.05999994    2.66000009
   12.38055611  147.05799866    2.07999992    2.67000008
   12.38361073  146.70399475    2.07999992    2.66000009
   12.38694477  146.07899475    2.07999992    2.67000008
   12.39027786  147.07499695    2.07999992    2.67000008
   12.39333344  139.32499695    2.07999992    2.66000009
   12.39611053  145.42100525    2.09999990    2.67000008
   12.39694405  145.50599670    2.09999990    2.66000009
   12.40027714  149.65499878    2.09999990    2.67000008
   12.40333271  144.46800232    2.09999990    2.67000008
   12.40666676  145.62199402    2.09999990    2.66000009
   12.40999985  152.57400513    2.07999992    2.67000008
   12.41305542  150.51400757    2.05999994    2.67000008
   12.41638851  144.00999451    2.03999996    2.67000008
   12.41944504  144.15100098    2.01999998    2.67000008
   12.42277813  145.61099243    3.50000000    2.67000008
   12.42611122  140.15699768    2.15000010    2.67000008
   12.42916679  147.49299622    1.98000002    2.67000008
   12.42972279  141.58999634    1.94000006    2.67000008
   12.43277836  145.67900085    1.91999996    2.66000009
   12.43583298  140.87899780    1.91999996    2.67000008
   12.43916702  139.32499695    1.94000006    2.66000009
   12.44250011  149.12300110    1.94000006    2.66000009
   12.44555569  141.30000305    1.94000006    2.67000008
   12.44888878  141.78999329    1.88000000    2.66000009
   12.45194435  146.72399902    1.88000000    2.67000008
   12.45527744  140.56900024    1.85000002    2.67000008
   12.45861053  145.28500366    1.80999994    2.66000009
   12.46166611  145.92799377    1.78999996    2.69000006
   12.46305561  149.09899902    1.78999996    2.67000008
   12.46555519  149.29400635    1.78999996    2.67000008
   12.46861076  146.25500488    1.80999994    2.67000008
   12.47194386  147.96699524    1.80999994    2.69000006
   12.47527695  144.66099548    1.80999994    2.67000008
   12.47833252  146.33399963    1.85000002    2.67000008
   12.48166656  143.03700256    1.85000002    2.67000008
   12.48472214  142.86199951    1.86000001    2.67000008
   12.48805618  146.02499390    1.85000002    2.69000006
   12.49138927  148.88400269    1.78999996    2.67000008
   12.49444485  149.38299561    1.80999994    2.69000006
   12.51194477  142.02999878    1.85000002    2.67000008
   12.51444435  145.29499817    1.88000000    2.67000008
   12.51777744  146.97099304    1.88000000    2.67000008
   12.52083302  142.72999573    1.88000000    2.67000008
   12.52416611  149.46800232    1.89999998    2.69000006
   12.52722168  135.56100464    1.85000002    2.69000006
   12.53055573  146.33900452    1.85000002    2.67000008
   12.53388977  141.09800720    1.85000002    2.69000006
   12.53694534  144.84100342    1.85000002    2.69000006
   12.54027843  144.45899963    1.85000002    2.69000006
   12.54361153  142.30700684    1.83000004    2.69000006
   12.54527855  146.15800476    1.80999994    2.69000006
   12.54722309  146.75100708    1.80999994    2.69000006
   12.55027771  149.10699463    1.78999996    2.67000008
   12.55361176  140.33500671    1.76999998    2.69000006
   12.55694485  146.17999268    1.78999996    2.69000006
   12.56000042  145.95599365    1.78999996    2.69000006
   12.56333351  149.44500732    1.78999996    2.69000006
   12.56638908  149.62500000    1.80999994    2.69000006
   12.56972218  148.81599426    1.85000002    2.69000006
   12.57305527  148.44799805    1.80999994    2.69000006
   12.57611084  144.84599304    1.83000004    2.69000006
   12.57861137  143.67100525    1.83000004    2.69000006
   12.57999992  141.86399841    1.83000004    2.69000006
   12.58333302  141.65199280    1.83000004    2.69000006
   12.58638859  147.35499573    1.78999996    2.69000006
   12.58972168  141.83399963    1.78999996    2.69000006
   12.59277725  140.25900269    1.78999996    2.69000006
   12.59611034  144.66299438    1.76999998    2.69000006
   12.59944439  137.96299744    1.78999996    2.69000006
   12.60249996  141.39500427    1.78999996    2.69000006
   12.60583401  145.41600037    1.83000004    2.69000006
   12.60916710  140.16200256    1.85000002    2.69000006
   12.61194515  147.97799683    1.85000002    2.67000008
   12.61277771  146.74600220    1.85000002    2.67000008
   12.61583328  147.09700012    1.85000002    2.67000008
   12.61916637  148.15199280    1.83000004    2.69000006
   12.62250042  153.36300659    1.83000004    2.69000006
   12.62555599  149.45500183    1.85000002    2.69000006
   12.62888908  147.57200623    1.85000002    2.71000004
   12.63222218  152.71299744    1.85000002    2.71000004
   12.63527775  144.90299988    1.85000002    2.69000006
   12.63861084  150.96499634    1.85000002    2.69000006
   12.64166641  153.73800659    1.80999994    2.69000006
   12.64499950  152.73199463    1.78999996    2.69000006
   12.64555550  152.06199646    1.78999996    2.69000006
   12.64861107  149.50599670    1.80999994    2.69000006
   12.65166664  150.49299622    1.80999994    2.69000006
   12.65499973  147.57099915    1.85000002    2.69000006
   12.65805531  152.66999817    1.86000001    2.71000004
   12.66138840  146.20100403    1.85000002    2.69000006
   12.66472149  149.62800598    1.85000002    2.69000006
   12.66805553  143.58700562    1.85000002    2.69000006
   12.67111111  151.48500061    1.80999994    2.71000004
   12.67444515  141.49099731    1.80999994    2.71000004
   12.67750072  145.12399292    1.80999994    2.69000006
   12.67888927  148.71600342    1.80999994    2.69000006
   12.68111134  141.70799255    1.78999996    2.69000006
   12.68444443  136.60099792    1.76999998    2.69000006
   12.68777752  149.84399414    1.80999994    2.71000004
   12.69083309  148.11799622    1.80999994    2.71000004
   12.69416714  147.93200684    1.80999994    2.71000004
   12.69722271  144.61000061    1.80999994    2.71000004
   12.70055580  148.28999329    1.83000004    2.71000004
   12.70388889  151.43400574    1.83000004    2.71000004
   12.70694447  149.07099915    1.80999994    2.71000004
   12.71027756  145.87699890    1.80999994    2.71000004
   12.81055546   -1.00000000   -1.00000000   -1.00000000
   12.90722179   -1.00000000   -1.00000000   -1.00000000
   13.00277805   -1.00000000   -1.00000000   -1.00000000
   13.02638817   97.26560211    2.00000000    2.73000002
   13.02972221  151.58599854    2.01999998    2.73000002
   13.03277779  149.12800598    1.96000004    2.73000002
   13.03611183  146.33200073    1.96000004    2.73000002
   13.03944492  147.60600281    1.96000004    2.73000002
   13.04277802  147.30999756    1.94000006    2.73000002
   13.04666710  147.30999756    1.94000006    2.73000002
   13.05083370  144.18200684    1.89999998    2.75000000
   13.05416679  153.61199951    1.89999998    2.75000000
   13.05722237  138.71899414    1.89999998    2.75000000
   13.05944443  146.45300293    1.88000000    2.73000002
   13.06083393  152.67999268    1.88000000    2.73000002
   13.06416702  151.77600098    1.89999998    2.75000000
   13.06722260  148.17100525    1.94000006    2.73000002
   13.07055569  150.20100403    1.96000004    2.73000002
   13.07361126  149.89999390    2.00000000    2.73000002
   13.07694435  145.55999756    1.96000004    2.73000002
   13.08027744  148.15299988    1.96000004    2.73000002
   13.08333302  151.45899963    1.94000006    2.75000000
   13.08972168  151.45899963    1.91999996    2.75000000
   13.09361076  145.10000610    1.96000004    2.73000002
   13.09694386  148.25799561    1.96000004    2.73000002
   13.10027790  144.00300598    1.91999996    2.73000002
   13.10333347  145.89300537    1.91999996    2.73000002
   13.10666752  144.25900269    1.91999996    2.75000000
   13.11000061  152.64799500    1.91999996    2.75000000
   13.11305618  152.76199341    1.89999998    2.75000000
   13.11638927  158.93800354    1.89999998    2.75000000
   13.11972237  145.39300537    1.94000006    2.75000000
   13.12277794  150.78599548    1.91999996    2.73000002
   13.12611103  147.90499878    1.89999998    2.73000002
   13.12666702  145.28700256    1.89999998    2.73000002
   13.13249969  145.28700256    1.88000000    2.73000002
   13.13666630  149.36099243    1.89999998    2.76999998
   13.13972187  145.42999268    1.89999998    2.75000000
   13.14305496  154.57400513    1.89999998    2.76999998
   13.14638901  148.47099304    1.91999996    2.75000000
   13.14944458  158.83700562    1.89999998    2.75000000
   13.15277767  155.49800110    1.89999998    2.75000000
   13.15583324  154.82400513    1.89999998    2.75000000
   13.15916634  143.56500244    1.89999998    2.75000000
   13.15999985  152.92399597    1.89999998    2.75000000
   13.16277695  150.43400574    1.89999998    2.75000000
   13.16611099  145.04200745    1.89999998    2.75000000
   13.16944504  151.03599548    1.89999998    2.75000000
   13.17527771  151.03599548    1.91999996    2.75000000
   13.17944431  152.56500244    1.89999998    2.75000000
   13.18277836  150.65100098    1.89999998    2.75000000
   13.18583298  153.72000122    1.89999998    2.75000000
   13.18916702  154.18800354    1.89999998    2.76999998
   13.19250011  152.25700378    1.89999998    2.75000000
   13.19333363  140.45700073    1.89999998    2.75000000
   13.19583321  143.24299622    1.89999998    2.75000000
   13.19916630  147.30499268    1.94000006    2.76999998
   13.20249939  148.27099609    2.00000000    2.76999998
   13.20555496  145.51499939    2.00000000    2.75000000
   13.20888901  152.90499878    1.98000002    2.75000000
   13.21194458  147.09199524    1.98000002    2.75000000
   13.21805477  147.09199524    1.98000002    2.75000000
   13.22222137  155.17700195    1.98000002    2.73000002
   13.22555542  145.72999573    1.98000002    2.75000000
   13.22666645  146.52200317    1.98000002    2.75000000
   13.22916603  152.78700256    1.98000002    2.75000000
   13.23249912  146.86599731    1.96000004    2.75000000
   13.23555565  145.06599426    1.96000004    2.75000000
   13.23888874  149.25300598    1.96000004    2.75000000
   13.24194431  148.53300476    1.94000006    2.75000000
   13.24527836  149.25900269    1.94000006    2.75000000
   13.24861145  142.99699402    1.94000006    2.75000000
   13.25166702  157.63900757    1.91999996    2.75000000
   13.25500011  149.52000427    1.83000004    2.75000000
   13.26111126  149.52000427    1.73000002    2.75000000
   13.26500034  139.46000671    1.75000000    2.75000000
   13.26833344  142.02000427    1.78999996    2.75000000
   13.27166653  147.11900330    1.73000002    2.75000000
   13.27499962  152.05400085    1.73000002    2.75000000
   13.27805519  152.55799866    1.76999998    2.75000000
   13.28138828  148.92500305    1.76999998    2.75000000
   13.28472233  148.82000732    1.78999996    2.75000000
   13.28777790  149.59199524    1.78999996    2.75000000
   13.29111195  150.06399536    1.78999996    2.76999998
   13.29333401  145.32000732    1.78999996    2.75000000
   13.29472256  142.55000305    1.78999996    2.75000000
   13.29805565  150.04899597    1.78999996    2.75000000
   13.30388927  150.04899597    1.80999994    2.75000000
   13.30805588  152.58999634    1.80999994    2.75000000
   13.31111145  149.15899658    1.83000004    2.76999998
   13.31444454  147.73500061    1.80999994    2.76999998
   13.31777763  142.33299255    1.86000001    2.76999998
   13.32083321  143.38299561    1.88000000    2.76999998
   13.32416630  142.63400269    1.88000000    2.76999998
   13.32666683  145.00100708    1.89999998    2.75000000
   13.32750034  148.71699524    1.89999998    2.75000000
   13.33083344  147.34100342    1.91999996    2.78999996
   13.33416653  151.69700623    1.94000006    2.75000000
   13.33722210  143.65899658    1.94000006    2.76999998
   13.34055519  151.57099915    1.94000006    2.76999998
   13.34666634  151.57099915    1.94000006    2.76999998
   13.35083389  143.00100708    1.96000004    2.76999998
   13.35416698  135.35699463    1.94000006    2.78999996
   13.35722256  137.89700317    1.91999996    2.76999998
   13.36000061  144.27900696    1.88000000    2.76999998
   13.36083412  137.05900574    1.88000000    2.76999998
   13.36416721  135.36000061    1.86000001    2.76999998
   13.36750031  147.39300537    1.86000001    2.76999998
   13.37055588  146.30099487    1.86000001    2.76999998
   13.37388897  147.82200623    1.86000001    2.76999998
   13.37722206  143.40400696    1.86000001    2.76999998
   13.38027763  140.53399658    1.88000000    2.76999998
   13.38361073  145.06799316    1.88000000    2.76999998
   13.38944435  145.06799316    1.88000000    2.76999998
   13.39361095  141.35000610    1.91999996    2.76999998
   13.39694405  147.83799744    1.91999996    2.76999998
   13.39999962  147.80900574    1.96000004    2.75000000
   13.40333271  139.54200745    1.98000002    2.76999998
   13.40666676  137.29299927    1.94000006    2.75000000
   13.40999985  140.22900391    1.96000004    2.76999998
   13.41333294  137.91400146    1.89999998    2.76999998
   13.41666698  140.52000427    1.89999998    2.76999998
   13.41972256  139.71800232    1.86000001    2.76999998
   13.42305565  140.53300476    1.85000002    2.76999998
   13.42638874  139.31700134    1.80999994    2.76999998
   13.42666721  135.58299255    1.80999994    2.76999998
   13.43249989  135.58299255    1.80999994    2.78999996
   13.43638897  144.65400696    1.83000004    2.76999998
   13.43972206  142.66200256    1.83000004    2.76999998
   13.44305515  145.66299438    1.85000002    2.78999996
   13.44611073  146.49600220    1.86000001    2.76999998
   13.44944477  144.94700623    1.85000002    2.76999998
   13.45277786  143.66600037    1.85000002    2.76999998
   13.45611095  147.28399658    1.85000002    2.76999998
   13.45916653  141.46000671    1.83000004    2.75000000
   13.46000004  145.49400330    1.80999994    2.76999998
   13.46277714  149.68600464    1.78999996    2.76999998
   13.46611118  141.23500061    1.78999996    2.78999996
   13.46916580  141.64199829    1.73000002    2.78999996
   13.47527695  141.64199829    1.66999996    2.78999996
   13.47944355  144.55099487    1.69000006    2.76999998
   13.48249912  144.72599792    1.71000004    2.76999998
   13.48583317  139.23399353    1.69000006    2.76999998
   13.48916721  139.59399414    1.66999996    2.76999998
   13.49222279  142.64799500    1.64999998    2.76999998
   13.49333382  145.20599365    1.64999998    2.78999996
   13.49583340  140.96400452    1.66999996    2.76999998
   13.49916649  145.29800415    1.71000004    2.76999998
   13.50222206  140.27999878    1.71000004    2.76999998
   13.50555515  144.19599915    1.73000002    2.76999998
   13.50888920  142.24099731    1.71000004    2.76999998
   13.51194477  148.39599609    1.71000004    2.76999998
   13.51805496  148.39599609    1.69000006    2.76999998
   13.52222157  152.46899414    1.64999998    2.78999996
   13.52555561  143.63200378    1.63000000    2.76999998
   13.52666664  143.24600220    1.63000000    2.76999998
   13.52888870  143.65699768    1.63000000    2.75000000
   13.53222179  151.44099426    1.63000000    2.78999996
   13.53527832  149.24099731    1.63000000    2.78999996
   13.53861141  146.99499512    1.64999998    2.76999998
   13.54194450  146.65400696    1.66999996    2.76999998
   13.54500008  152.26699829    1.71000004    2.78999996
   13.54833412  147.37899780    1.71000004    2.76999998
   13.55138874  148.46600342    1.69000006    2.78999996
   13.55472279  149.77699280    1.71000004    2.78999996
   13.56083393  149.77699280    1.69000006    2.78999996
   13.56500053  147.46800232    1.69000006    2.78999996
   13.56833363  153.70100403    1.69000006    2.78999996
   13.57138920  144.43899536    1.69000006    2.78999996
   13.57472229  152.61599731    1.66999996    2.78999996
   13.57805538  140.15299988    1.66999996    2.78999996
   13.58111095  145.12399292    1.66999996    2.76999998
   13.58444405  147.11399841    1.71000004    2.76999998
   13.58777714  146.38000488    1.71000004    2.76999998
   13.59083271  150.24400330    1.75000000    2.76999998
   13.59333324  149.30299377    1.76999998    2.76999998
   13.59444427  148.18800354    1.76999998    2.76999998
   13.59777737  155.85000610    1.78999996    2.76999998
   13.60388947  155.85000610    1.76999998    2.78999996
   13.60777855  154.27299500    1.76999998    2.78999996
   13.61111164  150.96099854    1.75000000    2.78999996
   13.61444473  142.78700256    1.75000000    2.78999996
   13.61777782  142.02600098    1.73000002    2.78999996
   13.62083340  148.00700378    1.73000002    2.78999996
   13.62416649  143.24499512    1.75000000    2.78999996
   13.62666702  144.91299438    1.75000000    2.78999996
   13.62777805  148.99200439    1.75000000    2.76999998
   13.63111115  146.50399780    1.73000002    2.78999996
   13.63416672  144.17500305    1.73000002    2.78999996
   13.63749981  144.73199463    1.76999998    2.78999996
   13.64083290  143.11900330    1.73000002    2.78999996
   13.64666653  143.11900330    1.73000002    2.78999996
   13.65083313  149.11500549    1.75000000    2.76999998
   13.65388870  152.95100403    1.75000000    2.78999996
   13.65722179  155.08999634    1.75000000    2.78999996
   13.66027737  145.59800720    1.73000002    2.76999998
   13.66083336  149.29100037    1.73000002    2.76999998
   13.66416645  150.34300232    1.69000006    2.76999998
   13.66722298  147.67399597    1.71000004    2.78999996
   13.67055607  146.46800232    1.73000002    2.78999996
   13.67388916  146.16200256    1.73000002    2.78999996
   13.67694473  144.14500427    1.75000000    2.78999996
   13.68027782  145.63499451    1.75000000    2.78999996
   13.68361092  144.41600037    1.75000000    2.78999996
   13.68944454  144.41600037    1.76999998    2.76999998
   13.69361115  143.51400757    1.76999998    2.78999996
   13.69694424  143.97399902    1.76999998    2.78999996
   13.69999981  143.10800171    1.75000000    2.78999996
   13.70333290  152.79600525    1.75000000    2.78999996
   13.70638847  148.47799683    1.75000000    2.78999996
   13.70972157  143.98100281    1.75000000    2.78999996
   13.71305561  142.49699402    1.75000000    2.78999996
   13.71611118  146.64599609    1.73000002    2.78999996
   13.71944427  147.96699524    1.73000002    2.78999996
   13.72277737  150.08599854    1.73000002    2.78999996
   13.72583294  149.42199707    1.71000004    2.80999994
   13.72694397  150.18499756    1.71000004    2.78999996
   13.73222160  150.18499756    1.71000004    2.78999996
   13.73638916  148.17900085    1.73000002    2.78999996
   13.73972225  154.24299622    1.73000002    2.78999996
   13.74277782  145.62300110    1.71000004    2.78999996
   13.74611092  151.21099854    1.71000004    2.78999996
   13.74944496  151.63299561    1.73000002    2.78999996
   13.75249958  150.52600098    1.73000002    2.78999996
   13.75583363  147.18499756    1.73000002    2.78999996
   13.75916672  148.01100159    1.76999998    2.78999996
   13.76000023  157.71499634    1.76999998    2.78999996
   13.76249981  153.38299561    1.75000000    2.78999996
   13.76583290  151.95399475    1.75000000    2.78999996
   13.76888847  141.75000000    1.73000002    2.78999996
   13.77527714  141.75000000    1.73000002    2.78999996
   13.77916622  152.36300659    1.71000004    2.78999996
   13.78249931  149.01499939    1.73000002    2.78999996
   13.78583336  138.39399719    1.71000004    2.78999996
   13.78916740  149.07899475    1.71000004    2.78999996
   13.79222298  141.34500122    1.71000004    2.78999996
   13.79361153  153.20100403    1.71000004    2.78999996
   13.79583359  138.66700745    1.71000004    2.78999996
   13.79916668  162.92799377    1.71000004    2.78999996
   13.80222225  165.99299622    1.71000004    2.78999996
   13.80555534  163.08599854    1.71000004    2.78999996
   13.80888939  146.80000305    1.75000000    2.78999996
   13.81194496  140.19799805    1.75000000    2.78999996
   13.81805515  140.19799805    1.75000000    2.78999996
   13.82222176  152.99099731    1.78999996    2.78999996
   13.82527733  142.74299622    1.80999994    2.78999996
   13.82694435  140.75900269    1.80999994    2.78999996
   13.82916641  140.34800720    1.80999994    2.78999996
   13.83222198  141.88099670    1.78999996    2.78999996
   13.83555508  145.75399780    1.78999996    2.78999996
   13.83888817  145.54899597    1.76999998    2.78999996
   13.84194374  136.51499939    1.73000002    2.80999994
   13.84527779  138.53500366    1.73000002    2.78999996
   13.84833336  151.88499451    1.73000002    2.80999994
   13.85166740  143.98500061    1.73000002    2.80999994
   13.85500050  142.90400696    1.71000004    2.78999996
   13.86083412  142.90400696    1.71000004    2.80999994
   13.86500072  140.05200195    1.71000004    2.78999996
   13.86805534  153.47000122    1.71000004    2.80999994
   13.87138939  141.90499878    1.71000004    2.78999996
   13.87472248  151.09399414    1.71000004    2.80999994
   13.87777805  149.50900269    1.71000004    2.80999994
   13.88111115  151.94700623    1.71000004    2.78999996
   13.88444424  158.93400574    1.73000002    2.78999996
   13.88749981  146.41499329    1.73000002    2.78999996
   13.89083290  153.62399292    1.73000002    2.80999994
   13.89361095  146.05599976    1.73000002    2.78999996
   13.89444447  155.06100464    1.73000002    2.78999996
   13.89777756  155.83799744    1.71000004    2.80999994
   13.90361118  155.83799744    1.71000004    2.80999994
   13.90777779  147.79600525    1.69000006    2.80999994
   13.91111088  145.13299561    1.71000004    2.78999996
   13.91416645  147.97000122    1.71000004    2.78999996
   13.91750050  145.12399292    1.71000004    2.78999996
   13.92083359  137.64900208    1.71000004    2.78999996
   13.92388916  134.10200500    1.71000004    2.80999994
   13.92694473  148.22200012    1.71000004    2.80999994
   13.92750072  144.01300049    1.71000004    2.80999994
   13.93083382  145.13699341    1.71000004    2.80999994
   13.93416691  144.14999390    1.69000006    2.78999996
   13.93722248  147.38600159    1.69000006    2.78999996
   13.94055557  147.13000488    1.69000006    2.78999996
   13.94666672  147.13000488    1.71000004    2.80999994
   13.95055580  146.52900696    1.69000006    2.80999994
   13.95388889  145.23800659    1.69000006    2.78999996
   13.95722198  147.79899597    1.69000006    2.80999994
   13.96027756  146.21800232    1.69000006    2.80999994
   13.96083355  150.78399658    1.71000004    2.80999994
   13.96416664  148.76699829    1.71000004    2.80999994
   13.96722221  149.52099609    1.69000006    2.80999994
   13.97055531  142.04200745    1.71000004    2.80999994
   13.97388840  141.28100586    1.66999996    2.80999994
   13.97694397  143.19700623    1.69000006    2.78999996
   13.98027706  151.51600647    1.69000006    2.78999996
   13.98361111  142.13000488    1.66999996    2.78999996
   13.98944473  142.13000488    1.63000000    2.80999994
   13.99361134  141.25700378    1.63000000    2.82999992
   13.99388885  141.73300171    1.64999998    2.80999994
   13.99722290  140.54499817    1.63000000    2.80999994
   14.00027752  138.51199341    1.64999998    2.80999994
   14.00361156  141.63099670    1.64999998    2.80999994
   14.00694466  147.17599487    1.66999996    2.80999994
   14.01000023  144.77699280    1.66999996    2.80999994
   14.01333332  144.41999817    1.66999996    2.80999994
   14.01666641  147.58299255    1.66999996    2.80999994
   14.01972198  142.86399841    1.66999996    2.80999994
   14.02305508  156.08900452    1.66999996    2.80999994
   14.02611065  142.62800598    1.64999998    2.80999994
   14.02694416  142.46800232    1.64999998    2.80999994
   14.04750061  142.46800232    1.73000002    2.82999992
   14.05166721  137.58500671    1.73000002    2.80999994
   14.05500031  144.76400757    1.75000000    2.80999994
   14.05805588  137.56300354    1.73000002    2.78999996
   14.06027794  135.55099487    1.73000002    2.78999996
   14.06166649  142.65299988    1.75000000    2.80999994
   14.06500053  134.29699707    1.75000000    2.80999994
   14.06833363  142.47000122    1.76999998    2.80999994
   14.07138920  140.25999451    1.76999998    2.80999994
   14.07472229  135.91600037    1.73000002    2.80999994
   14.07777786  143.28399658    1.73000002    2.80999994
   14.08111095  146.36599731    1.73000002    2.80999994
   14.08444405  143.53999329    1.69000006    2.82999992
   14.09027767  143.53999329    1.71000004    2.78999996
   14.09444427  147.51800537    1.71000004    2.80999994
   14.09777737  145.69599915    1.73000002    2.80999994
   14.10111141  141.71000671    1.71000004    2.80999994
   14.10416698  144.98100281    1.71000004    2.80999994
   14.10750008  136.45700073    1.73000002    2.80999994
   14.11083412  142.50999451    1.73000002    2.80999994
   14.11388969  143.75900269    1.75000000    2.80999994
   14.11722279  138.08099365    1.76999998    2.78999996
   14.12027836  144.25399780    1.78999996    2.80999994
   14.12361145  139.12100220    1.78999996    2.80999994
   14.12694454  134.57499695    1.80999994    2.80999994
   14.12750053  138.17500305    1.80999994    2.80999994
   14.13305569  138.17500305    1.85000002    2.80999994
   14.13722229  144.84300232    1.86000001    2.80999994
   14.14055538  147.05599976    1.86000001    2.80999994
   14.14388847  150.47000122    1.86000001    2.80999994
   14.14694405  146.75500488    1.89999998    2.80999994
   14.15027714  150.81300354    1.89999998    2.80999994
   14.15361118  149.70100403    1.91999996    2.80999994
   14.15666676  151.33700562    1.94000006    2.80999994
   14.15999985  140.35099792    1.89999998    2.80999994
   14.16055489  139.98800659    1.89999998    2.80999994
   14.16388893  144.71800232    1.88000000    2.80999994
   14.16694450  146.37800598    1.88000000    2.80999994
   14.17027855  142.50399780    1.91999996    2.78999996
   14.17583370  142.50399780    1.91999996    2.80999994
   14.18000031  144.33299255    1.91999996    2.80999994
   14.18333340  148.01400757    1.94000006    2.80999994
   14.18666649  136.83000183    1.96000004    2.80999994
   14.18972206  146.43200684    1.94000006    2.82999992
   14.19305515  138.08700562    1.96000004    2.80999994
   14.19388866  145.58900452    1.96000004    2.80999994
   14.19638920  142.67500305    1.96000004    2.80999994
   14.19972229  139.78500366    1.94000006    2.80999994
   14.20305538  143.15899658    1.89999998    2.80999994
   14.20611095  138.68200684    1.89999998    2.80999994
   14.20944405  142.06500244    1.88000000    2.80999994
   14.21277714  143.88299561    1.88000000    2.80999994
   14.21888828  143.88299561    1.89999998    2.80999994
   14.22305489  143.22300720    1.89999998    2.80999994
   14.22611046  140.74800110    1.98000002    2.80999994
   14.22722149  146.21899414    1.94000006    2.80999994
   14.22972202  147.47500610    1.94000006    2.80999994
   14.23305511  141.46499634    1.94000006    2.80999994
   14.23638916  144.50500488    1.94000006    2.80999994
   14.23944473  134.66600037    1.94000006    2.80999994
   14.24277782  144.80599976    1.94000006    2.80999994
   14.24611092  136.22999573    1.94000006    2.80999994
   14.24916649  137.39300537    1.94000006    2.80999994
   14.25249958  142.12500000    1.94000006    2.80999994
   14.25555515  143.55799866    1.94000006    2.80999994
   14.26166630  143.55799866    1.94000006    2.80999994
   14.26583290  138.87399292    1.94000006    2.80999994
   14.26888847  141.08500671    1.94000006    2.80999994
   14.27222157  136.07699585    1.94000006    2.80999994
   14.27555561  139.47700500    1.94000006    2.80999994
   14.27861118  140.64399719    1.94000006    2.80999994
   14.28194427  135.38400269    1.94000006    2.80999994
   14.28527832  140.22000122    1.94000006    2.80999994
   14.28833389  137.40299988    1.94000006    2.80999994
   14.29166698  147.32200623    1.94000006    2.80999994
   14.29388905  139.64300537    1.94000006    2.80999994
   14.29500008  145.14199829    1.94000006    2.80999994
   14.29833412  139.01400757    1.94000006    2.80999994
   14.30444431  139.01400757    1.94000006    2.80999994
   14.30861092  146.64700317    1.94000006    2.80999994
   14.31194496  139.60200500    1.94000006    2.80999994
   14.31500053  139.49600220    1.94000006    2.80999994
   14.31833363  135.21699524    1.94000006    2.80999994
   14.32166672  134.74800110    1.94000006    2.80999994
   14.32472229  133.66299438    1.94000006    2.80999994
   14.32722187  137.77499390    1.94000006    2.80999994
   14.32833290  136.00900269    1.94000006    2.80999994
   14.33166695  135.58299255    1.94000006    2.80999994
   14.33500004  134.82899475    1.94000006    2.80999994
   14.33805561  134.24600220    1.94000006    2.80999994
   14.34138870  135.53500366    1.94000006    2.80999994
   14.34722233  135.53500366    1.94000006    2.80999994
   14.35138893  137.13000488    1.94000006    2.80999994
   14.35472298  140.05000305    1.94000006    2.80999994
   14.35777855  137.10200500    1.94000006    2.80999994
   14.36055565  139.90100098    1.94000006    2.80999994
   14.36138916  147.53900146    1.94000006    2.80999994
   14.36472225  138.13299561    1.94000006    2.80999994
   14.36805534  142.72900391    1.94000006    2.80999994
   14.37111092  140.68499756    1.94000006    2.80999994
   14.37444496  143.35000610    1.94000006    2.80999994
   14.37777805  143.98500061    1.94000006    2.82999992
   14.38083363  136.73800659    1.96000004    2.80999994
   14.38416672  142.50100708    1.86000001    2.82999992
   14.39027786  142.50100708    1.83000004    2.82999992
   14.39416695  140.11000061    1.80999994    2.80999994
   14.39750004  143.68200684    1.80999994    2.80999994
   14.40083313  139.84100342    1.83000004    2.80999994
   14.40388870  138.00500488    4.90999985    2.82999992
   14.40722179  137.85099792    4.90999985    2.80999994
   14.41055489  135.07699585    2.42000008    2.82999992
   14.41361046  131.60000610    1.86000001    2.84999990
   14.41694450  139.18099976    1.80999994    2.82999992
   14.42000008  138.26699829    1.80999994    2.84999990
   14.42333412  136.86199951    1.85000002    2.78999996
   14.42666721  129.80900574    1.89999998    2.80999994
   14.42722225  128.54400635    1.89999998    2.80999994
   14.43305588  128.54400635    1.88000000    2.82999992
   14.43722248  141.33299255    1.85000002    2.82999992
   14.44027805  144.32600403    1.86000001    2.80999994
   14.44361115  142.92999268    1.86000001    2.82999992
   14.44694424  140.64300537    1.83000004    2.82999992
   14.44999981  141.40299988    1.83000004    2.82999992
   14.45333290  146.19500732    1.83000004    2.82999992
   14.45666695  141.13099670    1.83000004    2.82999992
   14.45972157  142.92199707    1.83000004    2.82999992
   14.46055508  140.64399719    1.83000004    2.82999992
   14.46333313  138.85099792    1.80999994    2.82999992
   14.46638870  139.27000427    1.80999994    2.82999992
   14.46972179  141.24000549    1.80999994    2.78999996
   14.47583294  141.24000549    1.80999994    2.82999992
   14.47999954  137.97999573    1.78999996    2.82999992
   14.48333359  133.42500305    1.80999994    2.82999992
   14.48638916  141.79899597    1.86000001    2.82999992
   14.48972225  137.15400696    1.86000001    2.82999992
   14.49305534  135.84300232    1.85000002    2.84999990
   14.49388885  140.32099915    1.85000002    2.80999994
   14.49666691  136.80999756    1.83000004    2.82999992
   14.49972248  135.18299866    1.83000004    2.80999994
   14.50305557  133.56399536    1.88000000    2.80999994
   14.50638866  135.79200745    1.88000000    2.80999994
   14.50944424  140.64100647    1.85000002    2.82999992
   14.51277733  134.84399414    1.86000001    2.82999992
   14.51861095  134.84399414    1.83000004    2.80999994
   14.52277756  138.38499451    1.83000004    2.80999994
   14.52611065  140.97399902    1.83000004    2.82999992
   14.52722168  136.98599243    1.83000004    2.82999992
   14.52972221  139.52699280    1.83000004    2.82999992
   14.53277779  138.25799561    1.83000004    2.84999990
   14.53611183  140.93699646    1.80999994    2.80999994
   14.53916740  137.35299683    1.78999996    2.80999994
   14.54250050  136.54800415    1.76999998    2.80999994
   14.54583359  139.72200012    1.76999998    2.82999992
   14.54888916  143.61599731    1.76999998    2.82999992
   14.55222225  141.82299805    1.80999994    2.80999994
   14.55555534  139.68800354    1.83000004    2.82999992
   14.56166649  139.68800354    1.78999996    2.82999992
   14.56583309  135.78700256    1.76999998    2.82999992
   14.56916618  143.80099487    1.76999998    2.82999992
   14.57222176  138.05999756    1.80999994    2.82999992
   14.57555580  135.74099731    1.80999994    2.82999992
   14.57861137  137.74600220    1.80999994    2.80999994
   14.58194447  139.14500427    1.80999994    2.82999992
   14.58527756  140.54100037    1.83000004    2.82999992
   14.58833313  137.04800415    1.83000004    2.84999990
   14.59166622  138.67700195    1.86000001    2.82999992
   14.59388828  135.23500061    1.86000001    2.82999992
   14.59527779  134.67199707    1.83000004    2.82999992
   14.59833336  137.36300659    1.83000004    2.82999992
   14.60444450  137.36300659    1.83000004    2.82999992
   14.60861111  135.09700012    1.85000002    2.80999994
   14.61166668  139.66700745    1.83000004    2.80999994
   14.61500072  139.33700562    1.83000004    2.80999994
   14.61833382  139.71400452    1.83000004    2.82999992
   14.62138939  138.86599731    1.83000004    2.82999992
   14.62472248  138.60000610    1.85000002    2.82999992
   14.62722206  139.49600220    1.86000001    2.82999992
   14.62833309  132.79899597    1.86000001    2.82999992
   14.63138866  134.55400085    1.86000001    2.80999994
   14.63472176  130.66400146    1.86000001    2.80999994
   14.63805580  134.13699341    1.88000000    2.82999992
   14.64111137  143.49200439    1.86000001    2.82999992
   14.64722252  143.49200439    1.88000000    2.84999990
   14.65138817  135.22500610    1.91999996    2.82999992
   14.65472221  141.89900208    1.94000006    2.82999992
   14.65777779  142.18699646    2.07999992    2.82999992
   14.66055489  143.38499451    2.00000000    2.84999990
   14.66166592  139.13999939    1.96000004    2.82999992
   14.66472149  144.33799744    1.89999998    2.80999994
   14.66805553  143.44299316    1.89999998    2.82999992
   14.67111111  139.38200378    1.94000006    2.82999992
   14.67444515  140.07099915    1.98000002    2.82999992
   14.67777824  136.18600464    1.98000002    2.82999992
   14.68083382  144.60000610    2.03999996    2.84999990
   14.68416691  138.95100403    2.03999996    2.82999992
   14.69000053  138.95100403    2.05999994    2.82999992
   14.69416714  138.12100220    2.05999994    2.82999992
   14.69750023  138.92599487    2.03999996    2.80999994
   14.70055580  136.12500000    2.01999998    2.82999992
   14.70388889  138.28599548    2.01999998    2.84999990
   14.70722198  141.82099915    2.01999998    2.80999994
   14.71027756  138.74299622    2.01999998    2.84999990
   14.71361065  139.19900513    2.01999998    2.82999992
   14.71694374  138.69799805    2.03999996    2.82999992
   14.71999931  134.83999634    2.01999998    2.82999992
   14.72333336  139.20899963    2.03999996    2.82999992
   14.72638798  133.47799683    2.01999998    2.82999992
   14.72722149  140.51600647    2.00000000    2.84999990
   14.73305511  140.51600647    2.01999998    2.82999992
   14.73694515  137.87699890    2.00000000    2.82999992
   14.74027824  139.89599609    1.96000004    2.84999990
   14.74361134  138.24299622    1.94000006    2.82999992
   14.74666691  138.00199890    1.94000006    2.82999992
   14.75000000  135.23399353    1.94000006    2.82999992
   14.75333309  132.12399292    1.96000004    2.82999992
   14.75638866  135.91600037    1.91999996    2.82999992
   14.75972176  134.34800720    1.91999996    2.82999992
   14.76055527  136.35299683    1.94000006    2.84999990
   14.76333332  134.79600525    1.94000006    2.84999990
   14.76638889  136.45100403    1.94000006    2.84999990
   14.76972198  138.10099792    1.91999996    2.84999990
   14.77583313  138.10099792    1.91999996    2.82999992
   14.77999973  139.24899292    1.91999996    2.84999990
   14.78305531  139.51600647    1.91999996    2.84999990
   14.78638935  132.65699768    2.01999998    2.82999992
   14.78972244  139.77999878    2.01999998    2.84999990
   14.79277802  142.19799805    1.96000004    2.82999992
   14.79388905  139.30799866    1.94000006    2.84999990
   14.79638958  134.78199768    1.94000006    2.84999990
   14.79944515  132.28399658    1.94000006    2.84999990
   14.80277824  132.92199707    1.89999998    2.84999990
   14.80611134  140.79400635    1.86000001    2.82999992
   14.80916691  139.34700012    1.80999994    2.84999990
   14.81250000  134.51600647    1.83000004    2.84999990
   14.81861115  134.51600647    1.85000002    2.82999992
   14.82277775  131.13600159    1.85000002    2.82999992
   14.82611084  138.70399475    1.85000002    2.82999992
   14.82722187  135.83500671    1.86000001    2.84999990
   14.82972240  134.24699402    1.86000001    2.84999990
   14.83277798  142.47799683    1.83000004    2.84999990
   14.83611107  145.64999390    1.94000006    2.82999992
   14.83944416  139.42900085    1.94000006    2.84999990
   14.84249973  136.95100403    1.94000006    2.84999990
   14.84583282  138.39399719    1.91999996    2.84999990
   14.84888840  139.98500061    1.91999996    2.82999992
   14.85222244  135.83700562    1.86000001    2.84999990
   14.85555553  148.06100464    1.88000000    2.82999992
   14.86138916  148.06100464    1.91999996    2.84999990
   14.86555576  133.62899780    1.96000004    2.84999990
   14.86888885  137.28399658    1.94000006    2.84999990
   14.87194443  134.49699402    1.98000002    2.84999990
   14.87527752  135.55000305    2.00000000    2.80999994
   14.87861156  144.15600586    1.98000002    2.84999990
   14.88194466  138.08299255    1.98000002    2.82999992
   14.88500023  138.68499756    1.98000002    2.82999992
   14.88833332  136.76899719    1.96000004    2.84999990
   14.89166641  139.24200439    1.96000004    2.84999990
   14.89388847  135.72200012    1.94000006    2.86999989
   14.89527798  140.55599976    1.88000000    2.84999990
   14.89833355  144.85299683    1.89999998    2.82999992
   14.90444374  144.85299683    1.91999996    2.82999992
   14.90833282  141.72500610    1.96000004    2.82999992
   14.91166592  143.58200073    2.01999998    2.84999990
   14.91499996  144.10800171    2.00000000    2.82999992
   14.91805553  148.09399414    1.98000002    2.84999990
   14.92138958  140.25100708    1.98000002    2.82999992
   14.92472267  144.54499817    2.05999994    2.82999992
   14.92722225  142.82499695    2.07999992    2.84999990
   14.92833328  144.35400391    2.05999994    2.82999992
   14.93138885  137.83799744    2.07999992    2.84999990
   14.93472195  138.47200012    2.05999994    2.82999992
   14.93805599  135.16700745    2.07999992    2.82999992
   14.94111156  141.53799438    2.13000011    2.82999992
   14.94722271  141.53799438    2.15000010    2.82999992
   14.95138836  147.14199829    2.13000011    2.82999992
   14.95444393  143.21099854    2.15000010    2.82999992
   14.95777798  142.91400146    2.07999992    2.82999992
   14.96055508  144.52299500    1.98000002    2.84999990
   14.96138859  144.30799866    2.01999998    2.84999990
   14.96444416  142.62699890    2.00000000    2.84999990
   14.96777725  145.77999878    1.96000004    2.84999990
   14.97111034  149.74200439    1.96000004    2.82999992
   14.97416592  142.54600525    1.96000004    2.82999992
   14.97749996  142.45399475    1.96000004    2.84999990
   14.98055553  136.19099426    2.07999992    2.84999990
   14.98388958  140.47900391    2.05999994    2.82999992
   14.99000072  140.47900391    2.01999998    2.84999990
   14.99416733  142.89599609    2.01999998    2.84999990
   14.99750042  139.72099304    2.07999992    2.84999990
   15.00055599  140.43400574    2.09999990    2.84999990
   15.00388908  139.80000305    2.11999989    2.82999992
   15.00694466  140.44599915    2.09999990    2.82999992
   15.01027775  141.30400085    1.98000002    2.84999990
   15.01361084  144.38499451    2.00000000    2.82999992
   15.01666641  154.51199341    2.03999996    2.84999990
   15.01999950  143.37600708    2.13000011    2.82999992
   15.02333355  145.48899841    2.13000011    2.84999990
   15.02638817  147.87100220    2.19000006    2.84999990
   15.02722168  142.49800110    2.19000006    2.84999990
   15.03277779  142.49800110    2.13000011    2.82999992
   15.03694534  143.68499756    2.11999989    2.84999990
   15.04027843  140.71499634    2.09999990    2.84999990
   15.04333401  144.31599426    2.15000010    2.82999992
   15.06111145  149.02099609    2.30999994    2.84999990
   15.06333351  143.10000610    2.23000002    2.82999992
   15.06666660  143.01400757    2.21000004    2.82999992
   15.06999969  145.82899475    2.15000010    2.84999990
   15.07583332  145.82899475    2.13000011    2.82999992
   15.07999992  140.19000244    2.09999990    2.82999992
   15.08333302  139.99800110    2.05999994    2.84999990
   15.08638859  134.45599365    2.05999994    2.84999990
   15.08972168  145.03900146    2.11999989    2.82999992
   15.09277725  143.47900391    2.19000006    2.82999992
   15.09416676  145.85600281    2.15000010    2.84999990
   15.09638882  143.14100647    2.15000010    2.82999992
   15.09972191  145.01600647    2.23000002    2.84999990
   15.10277843  141.31300354    2.13000011    2.82999992
   15.10611153  143.88099670    2.00000000    2.82999992
   15.10944462  148.42199707    1.98000002    2.82999992
   15.11250019  143.25999451    2.03999996    2.82999992
   15.11861134  143.25999451    2.05999994    2.84999990
   15.12277794  144.86900330    2.05999994    2.84999990
   15.12611103  142.58200073    2.21000004    2.84999990
   15.12750053  144.96299744    2.23000002    2.82999992
   15.12972260  138.34700012    2.21000004    2.84999990
   15.13305569  149.77699280    2.19000006    2.84999990
   15.13611126  138.94799805    2.23000002    2.82999992
   15.13944435  145.83200073    2.21000004    2.84999990
   15.14277744  142.97799683    2.25000000    2.82999992
   15.14583302  143.20599365    2.28999996    2.82999992
   15.14916611  145.15800476    2.25000000    2.84999990
   15.15222168  140.26199341    2.32999992    2.80999994
   15.15555477  144.46699524    2.28999996    2.82999992
   15.16166592  144.46699524    2.23000002    2.84999990
   15.16555500  145.16499329    2.26999998    2.84999990
   15.16888905  144.40199280    2.26999998    2.82999992
   15.17222214  146.33000183    2.36999989    2.82999992
   15.17527771  139.18800354    2.32999992    2.82999992
   15.17861176  141.18699646    2.30999994    2.84999990
   15.18194485  140.18600464    2.36999989    2.82999992
   15.18500042  143.02999878    2.36999989    2.82999992
   15.18833351  138.79600525    2.26999998    2.82999992
   15.19138908  139.53300476    2.28999996    2.84999990
   15.19416714  139.52299500    2.32999992    2.84999990
   15.19499969  144.69999695    2.30999994    2.82999992
   15.19833374  142.57099915    2.23000002    2.82999992
   15.20444393  142.57099915    2.07999992    2.84999990
   15.20861053  143.47099304    2.15000010    2.84999990
   15.21166611  139.68400574    2.17000008    2.84999990
   15.21500015  139.30900574    2.19000006    2.84999990
   15.21833324  137.90600586    2.28999996    2.84999990
   15.22138882  143.94400024    2.34999990    2.82999992
   15.22472191  145.31599426    2.30999994    2.84999990
   15.22749996  146.35800171    2.39000010    2.82999992
   15.22833252  140.70399475    2.42000008    2.82999992
   15.23166656  136.38099670    2.39000010    2.84999990
   15.23472214  143.83799744    2.32999992    2.82999992
   15.23805618  141.89900208    2.25000000    2.82999992
   15.24138927  142.40800476    2.19000006    2.82999992
   15.24722290  142.40800476    2.13000011    2.82999992
   15.25138855  135.09399414    2.11999989    2.82999992
   15.25472260  140.71000671    2.11999989    2.84999990
   15.25777817  137.90899658    2.11999989    2.84999990
   15.26083374  137.87199402    2.19000006    2.84999990
   15.26138878  140.93400574    2.21000004    2.84999990
   15.26472187  139.41000366    2.23000002    2.82999992
   15.26777744  143.38900757    2.26999998    2.82999992
   15.27111053  141.62100220    2.25000000    2.84999990
   15.27444458  138.47300720    2.23000002    2.82999992
   15.27750015  139.76100159    2.26999998    2.82999992
   15.28083324  136.61099243    2.32999992    2.84999990
   15.28388977  140.39799500    2.28999996    2.82999992
   15.29000092  140.39799500    2.39000010    2.84999990
   15.29416752  138.20100403    2.42000008    2.82999992
   15.29472256  137.53799438    2.42000008    2.82999992
   15.29805565  142.74200439    2.44000006    2.84999990
   15.30111122  138.66799927    2.36999989    2.84999990
   15.30444431  140.71499634    2.34999990    2.86999989
   15.30749989  139.92399597    2.36999989    2.84999990
   15.31083393  135.20700073    2.30999994    2.84999990
   15.31416702  141.20199585    2.28999996    2.82999992
   15.31722260  137.93200684    2.26999998    2.84999990
   15.32055569  149.32200623    2.25000000    2.84999990
   15.32388878  139.71000671    2.25000000    2.84999990
   15.32694435  139.94599915    2.19000006    2.84999990
   15.32805538  144.62699890    2.17000008    2.84999990
   15.33277798  144.62699890    2.03999996    2.84999990
   15.33694458  139.38699341    2.00000000    2.86999989
   15.34027767  134.19200134    2.01999998    2.86999989
   15.34361076  143.01199341    4.90999985    2.82999992
   15.34666634  137.24299622    4.90999985    2.80999994
   15.35000038  142.39599609    4.90999985    2.82999992
   15.35333347  140.15100098    4.90999985    2.82999992
   15.35638905  138.53100586    4.90999985    2.82999992
   15.35972214  139.24600220    4.90999985    2.82999992
   15.36138916  142.37500000    4.90999985    2.82999992
   15.36333370  140.55200195    4.90999985    2.82999992
   15.36638927  141.09399414    4.90999985    2.84999990
   15.36972237  146.19200134    4.90999985    2.84999990
   15.37583351  146.19200134    4.90999985    2.82999992
   15.38000011  143.47700500    4.90999985    2.82999992
   15.38305569  144.79400635    4.90999985    2.84999990
   15.38638878  140.67799377    4.90999985    2.82999992
   15.38972187  145.85600281    4.90999985    2.82999992
   15.39277744  141.74699402    4.90999985    2.84999990
   15.39472198  142.39100647    4.90999985    2.82999992
   15.39666653  139.82099915    4.90999985    2.82999992
   15.39972210  140.54200745    4.90999985    2.82999992
   15.40305519  153.40600586    4.90999985    2.84999990
   15.40638828  137.09199524    4.90999985    2.82999992
   15.40944386  147.94900513    4.90999985    2.84999990
   15.41277695  149.96899414    4.90999985    2.82999992
   15.41861153  149.96899414    4.90999985    2.82999992
   15.42277813  140.76499939    4.90999985    2.84999990
   15.42611122  145.63400269    4.90999985    2.84999990
   15.42805576  138.43400574    4.90999985    2.82999992
   15.42972279  140.22599792    4.90999985    2.82999992
   15.43277836  142.64500427    4.90999985    2.84999990
   15.43611145  150.90400696    4.90999985    2.82999992
   15.43916702  143.04699707    4.90999985    2.84999990
   15.44250011  138.22599792    4.90999985    2.84999990
   15.44583321  157.94500732    4.90999985    2.89000010
   15.44888878  142.05499268    4.90999985    2.91000009
   15.45222187  141.29200745    0.15000001    0.55000001
   15.45527744  144.82000732    0.07000000    0.30000001
   15.46138859  144.82000732    0.05000000    0.05000000
   15.46555519  141.99699402    0.05000000    0.05000000
   15.46888828  136.55999756    0.05000000    0.05000000
   15.47194386  136.57299805    0.05000000    0.05000000
   15.47527695  127.06600189    0.05000000    0.05000000
   15.47861099  140.64900208    0.05000000    0.05000000
   15.48166656  137.16200256    0.05000000    0.05000000
   15.48500061  138.19200134    0.05000000    0.05000000
   15.48833370  140.17300415    0.05000000    0.05000000
   15.49138927  142.91600037    0.05000000    0.05000000
   15.49472237  140.26100159    0.05000000    0.05000000
   15.49527836  142.23899841    0.05000000    0.05000000
   15.49833393  138.04899597    0.05000000    0.05000000
   15.50444412  138.04899597    0.05000000    0.05000000
   15.50833321  138.67700195    0.05000000    0.05000000
   15.51166630  143.51899719    0.05000000    0.05000000
   15.51500034  145.09100342    0.05000000    0.05000000
   15.51805496  139.24499512    0.05000000    0.05000000
   15.52138901  139.76899719    0.05000000    0.05000000
   15.52444458  144.86799622    0.05000000    0.05000000
   15.52777767  141.08799744    0.05000000    0.05000000
   15.52833271  144.36000061    0.05000000    0.05000000
   15.53138828  138.43899536    0.05000000    0.05000000
   15.53472233  144.33500671    0.05000000    0.05000000
   15.53805637  138.24600220    0.05000000    0.05000000
   15.54111195  138.64300537    0.05000000    0.05000000
   15.54722309  138.64300537    0.05000000    0.05000000
   15.55138874  135.78100586    0.05000000    0.05000000
   15.55444431  148.17999268    0.05000000    0.05000000
   15.55777836  146.21000671    0.05000000    0.05000000
   15.56083393  136.27699280    0.05000000    0.05000000
   15.56166649  140.76899719    0.05000000    0.05000000
   15.56472206  136.33099365    0.05000000    0.05000000
   15.56777763  137.08500671    0.05000000    0.05000000
   15.57111073  142.74099731    0.05000000    0.05000000
   15.57444477  136.50999451    0.05000000    0.05000000
   15.57750034  143.00000000    0.05000000    0.05000000
   15.58083344  144.54299927    0.05000000    0.05000000
   15.58416653  144.37399292    0.05000000    0.05000000
   15.59000015  144.37399292    0.05000000    0.05000000
   15.59416676  136.58000183    0.05000000    0.05000000
   15.59499931  141.24000549    0.05000000    0.05000000
   15.59777737  144.38999939    0.05000000    0.05000000
   15.60083389  141.12600708    0.05000000    0.05000000
   15.60416698  146.51300049    0.05000000    0.05000000
   15.60722256  140.52299500    0.05000000    0.05000000
   15.61055565  148.67500305    0.05000000    0.05000000
   15.61388969  142.62800598    0.05000000    0.05000000
   15.61694431  139.47399902    0.05000000    0.05000000
   15.62027836  135.41400146    0.05000000    0.05000000
   15.62361145  139.14999390    0.05000000    0.05000000
   15.62666702  137.32099915    0.05000000    0.05000000
   15.62833309  144.76300049    0.05000000    0.05000000
   15.63277817  144.76300049    0.05000000    0.05000000
   15.63694477  136.53399658    0.05000000    0.05000000
   15.64027786  137.83900452    0.05000000    0.05000000
   15.64333344  139.96499634    0.05000000    0.05000000
   15.64666653  143.05999756    0.05000000    0.05000000
   15.64999962  138.54299927    0.05000000    0.05000000
   15.65305519  138.74899292    0.05000000    0.05000000
   15.65638828  142.42799377    0.05000000    0.05000000
   15.65972137  143.05900574    0.05000000    0.05000000
   15.66166592  145.72999573    0.05000000    0.05000000
   15.66361046  138.88099670    0.05000000    0.05000000
   15.66666698  141.13000488    0.05000000    0.05000000
   15.67000008  140.25700378    0.05000000    0.05000000
   15.67555618  140.25700378    0.05000000    0.05000000
   15.67972279  140.17100525    0.05000000    0.05000000
   15.68305588  134.42500305    0.05000000    0.05000000
   15.68638897  139.23100281    0.05000000    0.05000000
   15.68944454  134.79100037    0.05000000    0.05000000
   15.69277763  136.83500671    0.05000000    0.05000000
   15.69499969  139.11999512    0.05000000    0.05000000
   15.69638920  152.27499390    0.05000000    0.05000000
   15.69944477  159.71699524    0.05000000    0.05000000
   15.70277786  164.79499817    0.05000000    0.05000000
   15.70583344  166.67799377    0.05000000    0.05000000
   15.70916653  154.74200439    0.05000000    0.05000000
   15.71249962  146.62500000    0.05000000    0.05000000
   15.71861076  146.62500000    0.05000000    0.05000000
   15.72277737  140.02299500    0.05000000    0.05000000
   15.72583294  154.96299744    0.05000000    0.05000000
   15.72833252  141.91400146    0.05000000    0.05000000
   15.72972202  157.25500488    0.05000000    0.05000000
   15.73277760  143.61399841    0.05000000    0.05000000
   15.73611164  154.17399597    0.05000000    0.05000000
   15.73916721  144.60499573    0.05000000    0.05000000
   15.74250031  143.15899658    0.05000000    0.05000000
   15.74583340  144.76699829    0.05000000    0.05000000
   15.74888897  141.64100647    0.05000000    0.05000000
   15.75222206  148.99099731    0.05000000    0.05000000
   15.75555515  142.79299927    0.05000000    0.05000000
   15.76138878  142.79299927    0.05000000    0.05000000
   15.76555538  144.06700134    0.05000000    0.05000000
   15.76861095  137.67799377    0.05000000    0.05000000
   15.77194405  143.97999573    0.05000000    0.05000000
   15.77527714  141.61399841    0.05000000    0.05000000
   15.77833271  138.38999939    0.05000000    0.05000000
   15.78166676  145.93899536    0.05000000    0.05000000
   15.78500080  145.64599609    0.05000000    0.05000000
   15.78805637  137.41999817    0.05000000    0.05000000
   15.79138947  144.49000549    0.05000000    0.05000000
   15.79444504  141.85899353    0.05000000    0.05000000
   15.79638958  147.06799316    0.05000000    0.05000000
   15.79833412  143.82299805    0.05000000    0.05000000
   15.80416679  143.82299805    0.05000000    0.05000000
   15.80833340  144.19799805    0.05000000    0.05000000
   15.81166649  141.29499817    0.05000000    0.05000000
   15.81472206  145.09399414    0.05000000    0.05000000
   15.81805515  137.89199829    0.05000000    0.05000000
   15.82138920  143.88200378    0.05000000    0.05000000
   15.82444477  141.61199951    0.05000000    0.05000000
   15.82777786  143.84800720    0.05000000    0.05000000
   15.82972240  142.91799927    0.05000000    0.05000000
   15.83138847  143.81900024    0.05000000    0.05000000
   15.83444405  141.87800598    0.05000000    0.05000000
   15.83777714  140.93200684    0.05000000    0.05000000
   15.84111118  142.83500671    0.05000000    0.05000000
   15.84694386  142.83500671    0.05000000    0.05000000
   15.85111141  142.60200500    0.05000000    0.05000000
   15.85444450  135.29400635    0.05000000    0.05000000
   15.85777855  141.95799255    0.05000000    0.05000000
   15.86083412  143.26699829    0.05000000    0.05000000
   15.86361122  137.08999634    0.05000000    0.05000000
   15.86500072  139.80999756    0.05000000    0.05000000
   15.86805534  140.11000061    0.05000000    0.05000000
   15.87138939  138.72099304    0.05000000    0.05000000
   15.87444496  134.42700195    0.05000000    0.05000000
   15.87777805  142.19999695    0.05000000    0.05000000
   15.88111115  143.08500671    0.05000000    0.05000000
   15.88416672  135.60600281    0.05000000    0.05000000
   15.89000034  135.60600281    0.05000000    0.05000000
   15.89416695  139.45599365    0.05000000    0.05000000
   15.89666653  140.23300171    0.05000000    0.05000000
   15.89750004  140.65800476    0.05000000    0.05000000
   15.90083313  147.53999329    0.05000000    0.05000000
   15.90416622  150.08099365    0.05000000    0.05000000
   15.90722179  143.56399536    0.05000000    0.05000000
   15.91055489  145.09800720    0.05000000    0.05000000
   15.91361046  145.00500488    0.05000000    0.05000000
   15.91694450  144.02699280    0.05000000    0.05000000
   15.92027855  138.63200378    0.05000000    0.05000000
   15.92333412  147.60200500    0.05000000    0.05000000
   15.92666721  142.28599548    0.05000000    0.05000000
   15.93277836  142.28599548    0.05000000    0.05000000
   15.93694496  141.90499878    0.05000000    0.05000000
   15.94000053  144.92999268    0.05000000    0.05000000
   15.94333363  141.61099243    0.05000000    0.05000000
   15.94666672  138.16099548    0.05000000    0.05000000
   15.94972229  131.01899719    0.05000000    0.05000000
   15.95305538  138.40100098    0.05000000    0.05000000
   15.95638847  139.65299988    0.05000000    0.05000000
   15.95944405  139.19200134    0.05000000    0.05000000
   15.96277714  137.46200562    0.05000000    0.05000000
   15.96361065  138.10800171    0.05000000    0.05000000
   15.96638870  138.73399353    0.05000000    0.05000000
   15.96972179  138.16200256    0.05000000    0.05000000
   15.97555542  138.16200256    0.05000000    0.05000000
   15.97972202  143.01199341    0.05000000    0.05000000
   15.98305511  137.58599854    0.05000000    0.05000000
   15.98638916  133.65199280    0.05000000    0.05000000
   15.98944473  144.52799988    0.05000000    0.05000000
   15.99277782  146.99400330    0.05000000    0.05000000
   15.99611092  143.67999268    0.05000000    0.05000000
   15.99694443  140.32800293    0.05000000    0.05000000
   15.99972248  146.09399414    0.05000000    0.05000000
   16.00305557  137.00300598    0.05000000    0.05000000
   16.00611115  137.91299438    0.05000000    0.05000000
   16.00944519  139.19500732    0.05000000    0.05000000
   16.01250076  135.97700500    0.05000000    0.05000000
   16.01833344  135.97700500    0.05000000    0.05000000
   16.02249908  139.80999756    0.05000000    0.05000000
   16.02583313  133.46299744    0.05000000    0.05000000
   16.02916718  135.42599487    0.05000000    0.05000000
   16.03055573  137.58500671    0.05000000    0.05000000
   16.03277779  138.43200684    0.05000000    0.05000000
   16.03583336  136.48699951    0.05000000    0.05000000
   16.03916550  144.92999268    0.05000000    0.05000000
   16.04222107  139.89399719    0.05000000    0.05000000
   16.04555511  139.80099487    0.05000000    0.05000000
   16.04888916  140.37699890    0.05000000    0.05000000
   16.05194283  137.69599915    0.05000000    0.05000000
   16.05527687  138.78300476    0.05000000    0.05000000
   16.06138802  138.78300476    0.05000000    0.05000000
   16.07972336  137.38200378    0.05000000    0.05000000
   16.08277893  139.45100403    0.05000000    0.05000000
   16.08611107  144.65199280    0.05000000    0.05000000
   16.08944511  139.94200134    0.05000000    0.05000000
   16.09250069  135.80900574    0.05000000    0.05000000
   16.09583473  141.32299805    0.05000000    0.05000000
   16.09916687  142.88000488    0.05000000    0.05000000
   16.10444450  142.88000488    0.05000000    0.05000000
   16.10833359  143.12300110    0.05000000    0.05000000
   16.11166763  144.74099731    0.05000000    0.05000000
   16.11277771  142.18800354    0.05000000    0.05000000
   16.11527824  145.32699585    0.05000000    0.05000000
   16.11861038  138.67300415    0.05000000    0.05000000
   16.12194443  139.30099487    0.05000000    0.05000000
   16.12500000  139.54600525    0.05000000    0.05000000
   16.12833405  138.37899780    0.05000000    0.05000000
   16.13138962  139.99800110    0.05000000    0.05000000
   16.13472176  138.97399902    0.05000000    0.05000000
   16.13805580  136.00300598    0.05000000    0.05000000
   16.14111137  138.16299438    0.05000000    0.05000000
   16.14722252  138.16299438    0.05000000    0.05000000
   16.15138817  132.06900024    0.05000000    0.05000000
   16.15444374  140.98100281    0.05000000    0.05000000
   16.15777779  136.99899292    0.05000000    0.05000000
   16.16110992  135.04600525    0.05000000    0.05000000
   16.16444397  137.73300171    0.05000000    0.05000000
   16.16749954  139.55400085    0.05000000    0.05000000
   16.17083359  139.08299255    0.05000000    0.05000000
   16.17416573  137.66499329    0.05000000    0.05000000
   16.17722130  144.51800537    0.05000000    0.05000000
   16.17944336  146.97799683    0.05000000    0.05000000
   16.18083191  138.35600281    0.05000000    0.05000000
   16.18416595  142.12199402    0.05000000    0.05000000
   16.18999863  142.12199402    0.05000000    0.05000000
   16.19416618  142.92999268    0.05000000    0.05000000
   16.19749832  143.72300720    0.05000000    0.05000000
   16.20055580  140.83200073    0.05000000    0.05000000
   16.20388985  140.63000488    0.05000000    0.05000000
   16.20722389  140.38900757    0.05000000    0.05000000
   16.21027946  137.47799683    0.05000000    0.05000000
   16.21277809  136.90699768    0.05000000    0.05000000
   16.21389008  135.68499756    0.05000000    0.05000000
   16.21722221  136.74699402    0.05000000    0.05000000
   16.22055626  138.77099609    0.05000000    0.05000000
   16.22361183  136.89100647    0.05000000    0.05000000
   16.22694588  141.68600464    0.05000000    0.05000000
   16.23277855  141.68600464    0.05000000    0.05000000
   16.23694420  137.33999634    0.05000000    0.05000000
   16.24027824  138.73599243    0.05000000    0.05000000
   16.24333382  138.51400757    0.05000000    0.05000000
   16.24611092  141.72999573    0.05000000    0.05000000
   16.24694443  145.08599854    0.05000000    0.05000000
   16.25027847  141.40400696    0.05000000    0.05000000
   16.25361061  145.38299561    0.05000000    0.05000000
   16.25694466  141.58200073    0.05000000    0.05000000
   16.26000023  147.33599854    0.05000000    0.05000000
   16.26333427  143.41700745    0.05000000    0.05000000
   16.26638794  145.32699585    0.05000000    0.05000000
   16.26972198  142.81799316    0.05000000    0.05000000
   16.27583313  142.81799316    0.05000000    0.05000000
   16.28000069  139.86799622    0.05000000    0.05000000
   16.28305435  134.77099609    0.05000000    0.05000000
   16.28638840  137.19900513    0.05000000    0.05000000
   16.28944397  136.81100464    0.05000000    0.05000000
   16.29277802  135.53599548    0.05000000    0.05000000
   16.29611015  134.64900208    0.05000000    0.05000000
   16.29916573  137.42900085    0.05000000    0.05000000
   16.30249977  137.63499451    0.05000000    0.05000000
   16.30583191  140.41900635    0.05000000    0.05000000
   16.30888748  142.26600647    0.05000000    0.05000000
   16.31222153  143.10899353    0.05000000    0.05000000
   16.31277657  142.89999390    0.05000000    0.05000000
   16.31861115  142.89999390    0.05000000    0.05000000
   16.32277870  141.80700684    0.05000000    0.05000000
   16.32583427  147.30299377    0.05000000    0.05000000
   16.32916832  141.50300598    0.05000000    0.05000000
   16.33250046  143.02200317    0.05000000    0.05000000
   16.33555603  143.11999512    0.05000000    0.05000000
   16.33889008  140.06100464    0.05000000    0.05000000
   16.34194565  145.39799500    0.05000000    0.05000000
   16.34527779  143.37600708    0.05000000    0.05000000
   16.34611130  146.68600464    0.05000000    0.05000000
   16.34889030  139.82400513    0.05000000    0.05000000
   16.35222244  138.94400024    0.05000000    0.05000000
   16.35555649  139.02699280    0.05000000    0.05000000
   16.36138916  139.02699280    0.05000000    0.05000000
   16.36555672  139.17700195    0.05000000    0.05000000
   16.36888885  140.51600647    0.05000000    0.05000000
   16.37194443  135.86999512    0.05000000    0.05000000
   16.37527847  141.15899658    0.05000000    0.05000000
   16.37833405  143.23199463    0.05000000    0.05000000
   16.37944412  142.61799622    0.05000000    0.05000000
   16.38194466  143.97900391    0.05000000    0.05000000
   16.38527679  142.78799438    0.05000000    0.05000000
   16.38861084  145.23599243    0.05000000    0.05000000
   16.39166641  140.90299988    0.05000000    0.05000000
   16.39500046  143.81300354    0.05000000    0.05000000
   16.39833260  140.87600708    0.05000000    0.05000000
   16.40416718  140.87600708    0.05000000    0.05000000
   16.40833282  138.79100037    0.05000000    0.05000000
   16.41166687  136.71600342    0.05000000    0.05000000
   16.41277695  135.68899536    0.05000000    0.05000000
   16.41499901  139.33500671    0.05000000    0.05000000
   16.41833305  139.12100220    0.05000000    0.05000000
   16.42166519  138.98699951    0.05000000    0.05000000
   16.42472076  143.14700317    0.05000000    0.05000000
   16.42805481  137.41200256    0.05000000    0.05000000
   16.43138885  140.65899658    0.05000000    0.05000000
   16.43444443  138.87600708    0.05000000    0.05000000
   16.43777657  138.14700317    0.05000000    0.05000000
   16.44083214  139.98599243    0.05000000    0.05000000
   16.44722176  139.98599243    0.05000000    0.05000000
   16.45111275  177.31700134    0.05000000    0.05000000
   16.45444489  145.60600281    0.05000000    0.05000000
   16.45777893  135.75999451    0.05000000    0.05000000
   16.46083450  140.18099976    0.05000000    0.05000000
   16.46416664  138.53900146    0.05000000    0.05000000
   16.46750069  142.21299744    0.05000000    0.05000000
   16.47055626  140.20100403    0.05000000    0.05000000
   16.47389030  141.65299988    0.05000000    0.05000000
   16.47694588  143.83399963    0.05000000    0.05000000
   16.47944450  139.82099915    0.05000000    0.05000000
   16.48083305  139.04499817    0.05000000    0.05000000
   16.48388863  141.53599548    0.05000000    0.05000000
   16.48999977  141.53599548    0.05000000    0.05000000
   16.49416733  143.35299683    0.05000000    0.05000000
   16.49722290  144.81399536    0.05000000    0.05000000
   16.50055504  139.92599487    0.05000000    0.05000000
   16.50388908  142.80799866    0.05000000    0.05000000
   16.50694466  143.66799927    0.05000000    0.05000000
   16.51027870  139.45899963    0.05000000    0.05000000
   16.51277733  141.57600403    0.05000000    0.05000000
   16.51388931  144.82699585    0.05000000    0.05000000
   16.51694489  140.57000732    0.05000000    0.05000000
   16.52027702  140.73300171    0.05000000    0.05000000
   16.52333260  142.30000305    0.05000000    0.05000000
   16.52666664  138.84300232    0.05000000    0.05000000
   16.53277779  138.84300232    0.05000000    0.05000000
   16.53694344  142.72900391    0.05000000    0.05000000
   16.54027748  139.61300659    0.05000000    0.05000000
   16.54333305  138.66499329    0.05000000    0.05000000
   16.54611015  140.47399902    0.05000000    0.05000000
   16.54722214  138.54600525    0.05000000    0.05000000
   16.55027771  137.55000305    0.05000000    0.05000000
   16.55360985  138.84800720    0.05000000    0.05000000
   16.55666542  144.61599731    0.05000000    0.05000000
   16.55999947  141.92599487    0.05000000    0.05000000
   16.56333351  143.09100342    0.05000000    0.05000000
   16.56638718  139.67999268    0.05000000    0.05000000
   16.56972313  141.55200195    0.05000000    0.05000000
   16.57555580  141.55200195    0.05000000    0.05000000
   16.57972336  138.24099731    0.05000000    0.05000000
   16.58305550  143.63499451    0.05000000    0.05000000
   16.58638954  146.05400085    0.05000000    0.05000000
   16.58944511  144.04100037    0.05000000    0.05000000
   16.59277916  142.75000000    0.05000000    0.05000000
   16.59611130  142.95899963    0.05000000    0.05000000
   16.59916687  141.18400574    0.05000000    0.05000000
   16.60250092  140.13099670    0.05000000    0.05000000
   16.60583305  144.02799988    0.05000000    0.05000000
   16.60888863  139.39999390    0.05000000    0.05000000
   16.61222267  139.41499329    0.05000000    0.05000000
   16.61277771  140.48300171    0.05000000    0.05000000
   16.61861038  140.48300171    0.05000000    0.05000000
   16.62249947  140.82400513    0.05000000    0.05000000
   16.62583351  145.45599365    0.05000000    0.05000000
   16.62916756  140.39300537    0.05000000    0.05000000
   16.63222313  141.90699768    0.05000000    0.05000000
   16.63555527  138.35400391    0.05000000    0.05000000
   16.63888931  142.03999329    0.05000000    0.05000000
   16.64194489  142.53700256    0.05000000    0.05000000
   16.64527702  140.77099609    0.05000000    0.05000000
   16.64611053  141.73300171    0.05000000    0.05000000
   16.64888954  144.03300476    0.05000000    0.05000000
   16.65194321  140.31500244    0.05000000    0.05000000
   16.65527725  142.49499512    0.05000000    0.05000000
   16.66138840  142.49499512    0.05000000    0.05000000
   16.66555595  143.84399414    0.05000000    0.05000000
   16.66860962  141.20500183    0.05000000    0.05000000
   16.67194366  145.44099426    0.05000000    0.05000000
   16.67527771  142.39799500    0.05000000    0.05000000
   16.67833328  136.31300354    0.05000000    0.05000000
   16.67944336  136.07699585    0.05000000    0.05000000
   16.68194389  142.97000122    0.05000000    0.05000000
   16.68499947  145.29299927    0.05000000    0.05000000
   16.68833160  142.54600525    0.05000000    0.05000000
   16.69166565  139.16799927    0.05000000    0.05000000
   16.69472122  142.44299316    0.05000000    0.05000000
   16.69805527  145.35200500    0.05000000    0.05000000
   16.70416832  145.35200500    0.05000000    0.05000000
   16.70833397  145.89199829    0.05000000    0.05000000
   16.71166801  144.71800232    0.05000000    0.05000000
   16.71277809  140.08399963    0.05000000    0.05000000
   16.71527863  142.12600708    0.05000000    0.05000000
   16.71833420  144.64700317    0.05000000    0.05000000
   16.72166634  145.31399536    0.05000000    0.05000000
   16.72500038  136.92799377    0.05000000    0.05000000
   16.72805595  143.77999878    0.05000000    0.05000000
   16.73139000  134.80099487    0.05000000    0.05000000
   16.73444557  137.44700623    0.05000000    0.05000000
   16.73777771  141.42399597    0.05000000    0.05000000
   16.74111176  137.51699829    0.05000000    0.05000000
   16.74694443  137.51699829    0.05000000    0.05000000
   16.75111198  138.23500061    0.05000000    0.05000000
   16.75444412  142.13800049    0.05000000    0.05000000
   16.75749969  143.76699829    0.05000000    0.05000000
   16.76083374  145.68699646    0.05000000    0.05000000
   16.76416588  144.75300598    0.05000000    0.05000000
   16.76722145  147.25999451    0.05000000    0.05000000
   16.77055550  144.11500549    0.05000000    0.05000000
   16.77388954  143.28399658    0.05000000    0.05000000
   16.77694511  144.63800049    0.05000000    0.05000000
   16.77944374  144.57200623    0.05000000    0.05000000
   16.78055573  139.43400574    0.05000000    0.05000000
   16.78361130  146.80000305    0.05000000    0.05000000
   16.78999901  146.80000305    0.05000000    0.05000000
   16.79388809  142.38099670    0.05000000    0.05000000
   16.79722214  138.03300476    0.05000000    0.05000000
   16.80055428  136.52699280    0.05000000    0.05000000
   16.80360985  139.19200134    0.05000000    0.05000000
   16.80694389  137.77000427    0.05000000    0.05000000
   16.81027794  143.39500427    0.05000000    0.05000000
   16.81277657  142.73599243    0.05000000    0.05000000
   16.81388855  140.95899963    0.05000000    0.05000000
   16.81694603  139.65400696    0.05000000    0.05000000
   16.82027817  146.36099243    0.05000000    0.05000000
   16.82361221  140.75799561    0.05000000    0.05000000
   16.82666779  146.66900635    0.05000000    0.05000000
   16.83277893  146.66900635    0.05000000    0.05000000
   16.83694458  143.11199951    0.05000000    0.05000000
   16.84000015  143.63299561    0.05000000    0.05000000
   16.84333420  141.54600525    0.05000000    0.05000000
   16.84611130  143.96200562    0.05000000    0.05000000
   16.84694481  138.89300537    0.05000000    0.05000000
   16.85000038  143.34199524    0.05000000    0.05000000
   16.85333443  146.45700073    0.05000000    0.05000000
   16.85639000  138.83599854    0.05000000    0.05000000
   16.85972214  142.08399963    0.05000000    0.05000000
   16.86305618  140.29600525    0.05000000    0.05000000
   16.86611176  139.13999939    0.05000000    0.05000000
   16.86944389  146.53900146    0.05000000    0.05000000
   16.87555504  146.53900146    0.05000000    0.05000000
   16.87972260  146.25599670    0.05000000    0.05000000
   16.88305473  141.52900696    0.05000000    0.05000000
   16.88611031  143.35200500    0.05000000    0.05000000
   16.88944435  142.73500061    0.05000000    0.05000000
   16.89249992  145.82000732    0.05000000    0.05000000
   16.89583397  145.22599792    0.05000000    0.05000000
   16.89916611  147.51100159    0.05000000    0.05000000
   16.90222168  142.84399414    0.05000000    0.05000000
   16.90555573  142.51800537    0.05000000    0.05000000
   16.90888786  147.28399658    0.05000000    0.05000000
   16.91194344  146.81199646    0.05000000    0.05000000
   16.91277695  145.40600586    0.05000000    0.05000000
   16.91833305  145.40600586    0.05000000    0.05000000
   16.92249870  146.96699524    0.05000000    0.05000000
   16.92583275  142.37100220    0.05000000    0.05000000
   16.92888832  145.58299255    0.05000000    0.05000000
   16.93222237  142.03399658    0.05000000    0.05000000
   16.93555450  143.61399841    0.05000000    0.05000000
   16.93888855  147.57499695    0.05000000    0.05000000
   16.94194412  143.43499756    0.05000000    0.05000000
   16.94527626  144.31300354    0.05000000    0.05000000
   16.94610977  145.58999634    0.05000000    0.05000000
   16.94888878  145.32800293    0.05000000    0.05000000
   16.95194435  144.35299683    0.05000000    0.05000000
   16.95527840  141.23399353    0.05000000    0.05000000
   16.96138954  141.23399353    0.05000000    0.05000000
   16.96527863  148.51499939    0.05000000    0.05000000
   16.96861076  143.17700195    0.05000000    0.05000000
   16.97194481  141.85200500    0.05000000    0.05000000
   16.97500038  141.96699524    0.05000000    0.05000000
   16.97833443  143.27099609    0.05000000    0.05000000
   16.97944450  139.96099854    0.05000000    0.05000000
   16.98194504  145.20300293    0.05000000    0.05000000
   16.98500061  142.58099365    0.05000000    0.05000000
   16.98833275  144.93800354    0.05000000    0.05000000
   16.99166679  141.63699341    0.05000000    0.05000000
   16.99472237  144.09199524    0.05000000    0.05000000
   16.99805641  140.64799500    0.05000000    0.05000000
   17.00416756  140.64799500    0.05000000    0.05000000
   17.00833321  145.00300598    0.05000000    0.05000000
   17.01138878  142.15600586    0.05000000    0.05000000
   17.01277733  142.99800110    0.05000000    0.05000000
   17.01499939  141.85000610    0.05000000    0.05000000
   17.01805496  143.36300659    0.05000000    0.05000000
   17.02138901  144.67700195    0.05000000    0.05000000
   17.02472115  147.00100708    0.05000000    0.05000000
   17.02777672  148.32099915    0.05000000    0.05000000
   17.03111076  145.96699524    0.05000000    0.05000000
   17.03444481  144.42700195    0.05000000    0.05000000
   17.03750038  145.27200317    0.05000000    0.05000000
   17.04083252  149.55900574    0.05000000    0.05000000
   17.04694366  149.55900574    0.05000000    0.05000000
   17.05111122  140.33299255    0.05000000    0.05000000
   17.05444336  142.40800476    0.05000000    0.05000000
   17.05749893  141.42999268    0.05000000    0.05000000
   17.06083298  140.92900085    0.05000000    0.05000000
   17.06388855  141.46699524    0.05000000    0.05000000
   17.06722260  143.58599854    0.05000000    0.05000000
   17.07055664  146.48300171    0.05000000    0.05000000
   17.07361221  144.74299622    0.05000000    0.05000000
   17.07694626  146.09100342    0.05000000    0.05000000
   17.07944489  148.33599854    0.05000000    0.05000000
   17.10000038  148.33599854    0.05000000    0.05000000
   17.10416794  142.21499634    0.05000000    0.05000000
   17.10750008  142.17700195    0.05000000    0.05000000
   17.11055565  143.45300293    0.05000000    0.05000000
   17.11277771  143.92199707    0.05000000    0.05000000
   17.11444473  139.74499512    0.05000000    0.05000000
   17.11777878  142.55200195    0.05000000    0.05000000
   17.12083435  142.58500671    0.05000000    0.05000000
   17.12416649  143.50999451    0.05000000    0.05000000
   17.12750053  140.64100647    0.05000000    0.05000000
   17.13055611  144.81100464    0.05000000    0.05000000
   17.13388824  145.47900391    0.05000000    0.05000000
   17.13750076  143.66000366    0.05000000    0.05000000
   17.14277840  143.66000366    0.05000000    0.05000000
   17.14694405  144.39199829    0.05000000    0.05000000
   17.15027809  149.18699646    0.05000000    0.05000000
   17.15333366  151.09500122    0.05000000    0.05000000
   17.15666580  146.02499390    0.05000000    0.05000000
   17.15972137  148.87800598    0.05000000    0.05000000
   17.16305542  149.92300415    0.05000000    0.05000000
   17.16638756  147.31500244    0.05000000    0.05000000
   17.16944313  148.53500366    0.05000000    0.05000000
   17.17277718  149.91200256    0.05000000    0.05000000
   17.17611122  147.67399597    0.05000000    0.05000000
   17.17916679  154.97999573    0.05000000    0.05000000
   17.17972183  148.09599304    0.05000000    0.05000000
   17.18555450  148.09599304    0.05000000    0.05000000
   17.18972206  149.68800354    0.05000000    0.05000000
   17.19305420  150.34399414    0.05000000    0.05000000
   17.19638824  149.85600281    0.05000000    0.05000000
   17.19944382  147.54200745    0.05000000    0.05000000
   17.20277786  145.62600708    0.05000000    0.05000000
   17.20583344  139.38200378    0.05000000    0.05000000
   17.20916748  150.97399902    0.05000000    0.05000000
   17.21250153  145.48300171    0.05000000    0.05000000
   17.21305656  145.37199402    0.05000000    0.05000000
   17.21611214  141.24600220    0.05000000    0.05000000
   17.21916771  147.61399841    0.05000000    0.05000000
   17.22249985  148.85600281    0.05000000    0.05000000
   17.22861099  148.85600281    0.05000000    0.05000000
   17.23250008  144.72599792    0.05000000    0.05000000
   17.23583412  146.41799927    0.05000000    0.05000000
   17.23916626  147.42700195    0.05000000    0.05000000
   17.24222183  148.75100708    0.05000000    0.05000000
   17.24555588  151.35099792    0.05000000    0.05000000
   17.24638939  151.40400696    0.05000000    0.05000000
   17.24916649  146.77400208    0.05000000    0.05000000
   17.25222206  145.11900330    0.05000000    0.05000000
   17.25555611  143.21400452    0.05000000    0.05000000
   17.25888824  146.33799744    0.05000000    0.05000000
   17.26194382  145.33599854    0.05000000    0.05000000
   17.26527786  146.62100220    0.05000000    0.05000000
   17.27138901  146.62100220    0.05000000    0.05000000
   17.27555466  150.19400024    0.05000000    0.05000000
   17.27861023  146.98399353    0.05000000    0.05000000
   17.27972221  145.96600342    0.05000000    0.05000000
   17.28249931  148.05499268    0.05000000    0.05000000
   17.28555489  145.07099915    0.05000000    0.05000000
   17.28888893  146.94000244    0.05000000    0.05000000
   17.29194450  144.05400085    0.05000000    0.05000000
   17.29527664  145.87399292    0.05000000    0.05000000
   17.29861069  145.03199768    0.05000000    0.05000000
   17.30166626  148.67700195    0.05000000    0.05000000
   17.30499840  146.69500732    0.05000000    0.05000000
   17.30833244  148.01400757    0.05000000    0.05000000
   17.31416512  148.01400757    0.05000000    0.05000000
   17.31833458  152.75399780    0.05000000    0.05000000
   17.32166672  147.81199646    0.05000000    0.05000000
   17.32472229  146.66099548    0.05000000    0.05000000
   17.32805634  145.73699951    0.05000000    0.05000000
   17.33111191  145.21499634    0.05000000    0.05000000
   17.33444595  148.40499878    0.05000000    0.05000000
   17.33777809  144.26300049    0.05000000    0.05000000
   17.34083366  148.94599915    0.05000000    0.05000000
   17.34416771  146.39999390    0.05000000    0.05000000
   17.34638977  146.37300110    0.05000000    0.05000000
   17.34777832  145.69400024    0.05000000    0.05000000
   17.35083389  149.78399658    0.05000000    0.05000000
   17.35694504  149.78399658    0.05000000    0.05000000
   17.36111069  149.26400757    0.05000000    0.05000000
   17.36444473  145.85299683    0.05000000    0.05000000
   17.36777878  148.17199707    0.05000000    0.05000000
   17.37083435  150.68499756    0.05000000    0.05000000
   17.37416649  147.83900452    0.05000000    0.05000000
   17.37722206  151.98300171    0.05000000    0.05000000
   17.37972260  149.27099609    0.05000000    0.05000000
   17.38111115  148.79899597    0.05000000    0.05000000
   17.38416672  149.51899719    0.05000000    0.05000000
   17.38750076  142.68400574    0.05000000    0.05000000
   17.39083290  144.43200684    0.05000000    0.05000000
   17.39388847  144.33700562    0.05000000    0.05000000
   17.39999962  144.33700562    0.05000000    0.05000000
   17.40388870  143.76400757    0.05000000    0.05000000
   17.40722275  150.08999634    0.05000000    0.05000000
   17.41055489  152.74299622    0.05000000    0.05000000
   17.41305542  149.25700378    0.05000000    0.05000000
   17.41416550  147.73100281    0.05000000    0.05000000
   17.41722107  147.20899963    0.05000000    0.05000000
   17.42055511  152.45700073    0.05000000    0.05000000
   17.42388916  151.16600037    0.05000000    0.05000000
   17.42694473  145.46099854    0.05000000    0.05000000
   17.43027687  152.38999939    0.05000000    0.05000000
   17.43333244  149.30999756    0.05000000    0.05000000
   17.43666649  145.39500427    0.05000000    0.05000000
   17.44277763  145.39500427    0.05000000    0.05000000
   17.44694328  149.67300415    0.05000000    0.05000000
   17.45000076  149.65600586    0.05000000    0.05000000
   17.45333481  147.37399292    0.05000000    0.05000000
   17.45666695  147.67100525    0.05000000    0.05000000
   17.45972252  154.18299866    0.05000000    0.05000000
   17.46305656  149.24499512    0.05000000    0.05000000
