    HOUR (UT)   FLARE FACTOR    SKY TESTER    SUN TESTER
   11.31416702   -1.00000000   -1.00000000   -1.00000000
   11.33500004  326.58700562    4.90999985    1.61000001
   11.34000015  317.43899536    4.90999985    1.61000001
   11.34388828  314.48498535    4.90999985    1.61000001
   11.34694386  304.31900024    4.90999985    1.61000001
   11.35027790  320.95800781    4.90999985    1.63000000
   11.35333347  324.82501221    4.90999985    1.63000000
   11.35666752  345.86898804    4.90999985    1.63000000
   11.36000061  304.13699341    4.90999985    1.63000000
   11.36305618  314.06900024    4.90999985    1.63000000
   11.36638927  342.00900269    4.90999985    1.64999998
   11.36833382  332.36499023    4.90999985    1.64999998
   11.36999989  309.83801270    4.90999985    1.64999998
   11.37333393  292.14898682    4.90999985    1.64999998
   11.37666702  310.99499512    4.90999985    1.64999998
   11.37972260  298.82101440    4.90999985    1.66999996
   11.38305569  307.54400635    4.90999985    1.66999996
   11.38638878  308.12399292    4.90999985    1.66999996
   11.38944435  291.98498535    4.90999985    1.69000006
   11.39277744  305.05999756    4.90999985    1.71000004
   11.39583302  292.39498901    4.90999985    1.69000006
   11.39916611  339.20999146    4.90999985    1.69000006
   11.40166664  324.65499878    4.90999985    1.71000004
   11.40277767  312.86801147    4.90999985    1.71000004
   11.40611076  314.93099976    4.90999985    1.71000004
   11.40944386  272.60000610    4.90999985    1.71000004
   11.41249943  302.02200317    4.90999985    1.71000004
   11.41583252  290.96701050    4.90999985    1.73000002
   11.41916656  291.48199463    4.90999985    1.73000002
   11.42222214  290.35299683    4.90999985    1.73000002
   11.42555618  297.57699585    4.90999985    1.73000002
   11.42888927  285.09698486    4.90999985    1.73000002
   11.43194485  281.77801514    4.90999985    1.75000000
   11.43500042  283.57000732    4.90999985    1.75000000
   11.43555546  280.17498779    4.90999985    1.75000000
   11.43888855  281.25299072    4.90999985    1.76999998
   11.44222260  278.08999634    4.90999985    1.76999998
   11.44527817  258.10501099    4.90999985    1.76999998
   11.44861126  254.14799500    4.90999985    1.76999998
   11.45194435  258.60198975    4.90999985    1.76999998
   11.45499992  242.36300659    4.90999985    1.78999996
   11.45833302  240.15899658    4.90999985    1.78999996
   11.46138859  251.74400330    4.90999985    1.78999996
   11.46472168  251.11199951    4.90999985    1.80999994
   11.46805477  244.58099365    4.90999985    1.80999994
   11.46861076  240.33799744    4.90999985    1.80999994
   11.47166634  220.64999390    4.90999985    1.80999994
   11.47499943  229.43699646    1.76999998    1.80999994
   11.47833252  243.67300415    1.73000002    1.78999996
   11.48138809  234.99600220    1.73000002    1.80999994
   11.48472214  230.80099487    1.73000002    1.80999994
   11.48777771  237.74000549    1.73000002    1.80999994
   11.49111176  237.31300354    1.71000004    1.83000004
   11.49444485  232.60200500    1.71000004    1.80999994
   11.49750042  226.52799988    1.71000004    1.83000004
   11.50083351  242.33399963    1.71000004    1.85000002
   11.50194454  234.77799988    1.71000004    1.85000002
   11.50444412  226.14999390    1.69000006    1.85000002
   11.50777817  226.02799988    1.69000006    1.85000002
   11.51111126  252.97500610    1.69000006    1.85000002
   11.51416683  222.90400696    1.69000006    1.86000001
   11.51749992  217.28300476    1.69000006    1.85000002
   11.52055550  247.56500244    1.69000006    1.85000002
   11.52388859  221.50900269    1.69000006    1.85000002
   11.52722168  211.04800415    1.66999996    1.86000001
   11.53027725  215.72700500    1.66999996    1.86000001
   11.53361130  213.65199280    1.66999996    1.86000001
   11.53527832  257.09399414    1.66999996    1.86000001
   11.53722286  211.79800415    1.66999996    1.86000001
   11.54055595  238.55700684    1.64999998    1.88000000
   11.54388905  219.21600342    1.64999998    1.88000000
   11.54694462  226.77400208    1.64999998    1.88000000
   11.55027771  211.64300537    1.63000000    1.88000000
   11.55361176  228.05299377    1.63000000    1.88000000
   11.55666733  230.95899963    1.60000002    1.88000000
   11.56000042  217.96000671    1.60000002    1.89999998
   11.56305599  244.48599243    1.58000004    1.89999998
   11.56638908  241.59199524    1.58000004    1.89999998
   11.56861115  242.71000671    1.55999994    1.89999998
   11.56999969  217.77900696    1.55999994    1.89999998
   11.57333374  249.85800171    1.58000004    1.89999998
   11.57666683  253.74299622    1.55999994    1.91999996
   11.57972240  235.24899292    1.51999998    1.91999996
   11.58305550  243.12399292    1.51999998    1.94000006
   11.58638859  226.08000183    1.50000000    1.94000006
   11.58972168  238.46000671    1.48000002    1.91999996
   11.59277725  248.88499451    1.46000004    1.94000006
   11.59611034  227.65699768    1.44000006    1.94000006
   11.59916592  236.43400574    1.44000006    1.94000006
   11.60194492  250.22399902    1.44000006    1.94000006
   11.60277843  243.41799927    1.41999996    1.94000006
   11.60611153  235.03399658    1.41999996    1.94000006
   11.60944462  238.77200317    1.39999998    1.96000004
   11.61250019  241.32699585    1.39999998    1.96000004
   11.61583328  241.90199280    1.38000000    1.96000004
   11.61916637  220.10400391    1.38000000    1.98000002
   11.62222195  213.26499939    1.38000000    1.98000002
   11.62555599  234.11000061    1.38000000    1.96000004
   11.62861156  216.21800232    1.38000000    1.96000004
   11.63194466  206.41299438    1.38000000    1.96000004
   11.63527775  210.95100403    1.39999998    1.96000004
   11.63583279  208.39100647    1.39999998    1.96000004
   11.63916683  210.38600159    1.39999998    1.98000002
   11.64222240  220.22700500    1.39999998    1.96000004
   11.64555550  193.07800293    1.39999998    1.96000004
   11.64861107  192.49299622    1.39999998    1.98000002
   11.65194416  196.53399658    1.39999998    1.98000002
   11.65527725  191.96499634    1.41999996    2.00000000
   11.65833282  198.56199646    1.41999996    1.98000002
   11.66166592  202.17799377    1.41999996    1.98000002
   11.66499996  196.01499939    1.41999996    2.00000000
   11.66805553  188.50900269    1.39999998    2.00000000
   11.66861153  188.40899658    1.39999998    2.00000000
   11.67166710  203.84700012    1.39999998    2.00000000
   11.67500019  200.76300049    1.39999998    2.00000000
   11.67805576  204.75500488    1.39999998    2.00000000
   11.68138885  202.42199707    1.36000001    2.01999998
   11.68444443  194.65800476    1.36000001    2.01999998
   11.68777752  213.19200134    1.34000003    2.01999998
   11.69111156  195.09599304    1.34000003    2.01999998
   11.69416714  196.47700500    1.30999994    2.01999998
   11.69750023  230.83299255    1.33000004    2.03999996
   11.70083332  242.50300598    1.30999994    2.01999998
   11.70194435  214.39700317    1.30999994    2.01999998
   11.70444393  208.83999634    1.30999994    2.03999996
   11.70777798  207.36599731    1.28999996    2.03999996
   11.71083355  216.86199951    1.28999996    2.03999996
   11.71416664  215.36399841    1.30999994    2.03999996
   11.71749973  242.27999878    1.26999998    2.03999996
   11.72055531  190.53599548    1.26999998    2.03999996
   11.72388840  223.72399902    1.26999998    2.05999994
   11.72694397  216.02900696    1.26999998    2.05999994
   11.73027706  229.08700562    1.26999998    2.05999994
   11.73361111  246.74800110    1.26999998    2.05999994
   11.73527813  225.90499878    1.25000000    2.05999994
   11.73722267  232.07400513    1.25000000    2.05999994
   11.74055576  223.19999695    1.25000000    2.05999994
   11.74361134  267.37298584    1.21000004    2.07999992
   11.74694443  246.00300598    1.21000004    2.07999992
   11.75027752  240.49499512    1.21000004    2.07999992
   11.75333309  243.10899353    1.21000004    2.07999992
   11.75666714  221.50599670    1.19000006    2.09999990
   11.75972176  245.81300354    1.19000006    2.07999992
   11.76305580  263.06698608    1.19000006    2.09999990
   11.76638889  276.79901123    1.19000006    2.07999992
   11.76861095  236.94599915    1.19000006    2.09999990
   11.76999950  266.24700928    1.19000006    2.09999990
   11.77333355  254.60800171    1.19000006    2.09999990
   11.77638817  237.89399719    1.19000006    2.07999992
   11.77972221  213.92700195    1.19000006    2.09999990
   11.78277779  223.40699768    1.19000006    2.09999990
   11.78611183  225.98199463    1.19000006    2.09999990
   11.78944492  210.77000427    1.21000004    2.09999990
   11.79250050  234.36999512    1.19000006    2.09999990
   11.79583359  213.55099487    1.21000004    2.09999990
   11.79916668  252.81500244    1.21000004    2.09999990
   11.80194473  242.01600647    1.21000004    2.09999990
   11.80277824  231.28999329    1.21000004    2.09999990
   11.80611134  248.20300293    1.21000004    2.09999990
   11.80916691  344.36999512    1.21000004    2.11999989
   11.81250000  314.78500366    1.19000006    2.11999989
   11.81555557  234.37399292    1.16999996    2.11999989
   11.81888866  269.78399658    1.16999996    2.11999989
   11.82222176  292.35501099    1.16999996    2.11999989
   11.82527733  248.30099487    1.14999998    2.11999989
   11.82861137  260.28399658    1.14999998    2.11999989
   11.83194447  232.45500183    1.19000006    2.13000011
   11.83500004  212.61999512    1.21000004    2.13000011
   11.83555508  226.52900696    1.21000004    2.13000011
   11.83888817  230.27799988    1.19000006    2.13000011
   11.84222221  197.44700623    1.19000006    2.13000011
   11.84527779  221.72700500    1.19000006    2.13000011
   11.84861088  209.39799500    1.14999998    2.15000010
   11.85194492  225.74400330    1.14999998    2.13000011
   11.85500050  223.53399658    1.13000000    2.15000010
   11.85833359  206.20899963    1.13000000    2.15000010
   11.86138916  233.99099731    1.13000000    2.15000010
   11.86472225  225.91799927    1.13000000    2.15000010
   11.86805534  202.41400146    1.11000001    2.15000010
   11.86888885  203.31399536    1.11000001    2.15000010
   11.87166691  203.67599487    1.11000001    2.15000010
   11.87500000  201.69599915    1.11000001    2.15000010
   11.87805557  185.36000061    1.09000003    2.15000010
   11.88138866  211.02900696    1.09000003    2.15000010
   11.88472176  199.78399658    1.09000003    2.15000010
   11.88777733  203.97399902    1.09000003    2.17000008
   11.89111137  195.44700623    1.09000003    2.15000010
   11.89416695  225.55599976    1.09000003    2.17000008
   11.89750004  208.83599854    1.07000005    2.17000008
   11.90083313  202.67399597    1.07000005    2.17000008
   11.90222168  223.96600342    1.07000005    2.17000008
   11.90444374  210.22700500    1.07000005    2.17000008
   11.90777779  188.62399292    1.07000005    2.17000008
   11.91083336  203.37300110    1.05999994    2.17000008
   11.91416645  201.38900757    1.05999994    2.17000008
   11.91750050  199.34199524    1.05999994    2.17000008
   11.92055607  193.85299683    1.05999994    2.17000008
   11.92388916  202.57400513    1.05999994    2.19000006
   11.92722225  194.97000122    1.05999994    2.19000006
   11.93027782  191.46800232    1.05999994    2.19000006
   11.93361092  191.17999268    1.05999994    2.19000006
   11.93555546  186.05599976    1.05999994    2.21000004
   11.93722248  186.54100037    1.05999994    2.21000004
   11.94055557  207.46800232    1.05999994    2.21000004
   11.94361115  190.56599426    1.05999994    2.21000004
   11.94694424  187.53700256    1.05999994    2.19000006
   11.95027733  214.87600708    1.05999994    2.21000004
   11.95333290  193.77200317    1.05999994    2.19000006
   11.95666695  190.36199951    1.05999994    2.21000004
   11.96000004  188.54499817    1.05999994    2.19000006
   11.96305561  178.46499634    1.05999994    2.21000004
   11.96638870  197.87500000    1.05999994    2.21000004
   11.96888828  204.52600098    1.05999994    2.21000004
   11.96999931  190.12899780    1.05999994    2.21000004
   11.97333336  197.95700073    1.07000005    2.21000004
   11.97638798  202.23699951    1.07000005    2.23000002
   11.97972202  200.50399780    1.09000003    2.23000002
   11.98305511  186.73500061    1.09000003    2.23000002
   11.98611164  205.08399963    1.09000003    2.23000002
   11.98944473  199.04899597    1.09000003    2.21000004
   11.99277782  184.78999329    1.09000003    2.21000004
   11.99583340  192.59100342    1.09000003    2.23000002
   11.99916649  194.60400391    1.09000003    2.23000002
   12.00222206  198.63600159    1.09000003    2.23000002
   12.00277805  214.12199402    1.09000003    2.23000002
   12.00611115  206.33599854    1.09000003    2.23000002
   12.00916672  197.40400696    1.09000003    2.23000002
   12.01249981  209.92700195    1.09000003    2.23000002
   12.01583290  206.44799805    1.05999994    2.25000000
   12.01888847  195.06599426    1.05999994    2.25000000
   12.02222157  185.58299255    1.05999994    2.25000000
   12.02555561  193.29600525    1.03999996    2.25000000
   12.02861118  216.82499695    1.03999996    2.25000000
   12.03194427  237.26300049    1.03999996    2.25000000
   12.03500080  216.83099365    1.03999996    2.25000000
   12.03583336  231.36300659    1.03999996    2.25000000
   12.03861141  241.07699585    1.03999996    2.25000000
   12.04194450  205.42599487    1.03999996    2.25000000
   12.04500008  235.82299805    1.03999996    2.25000000
   12.04833412  268.86401367    1.03999996    2.25000000
   12.05166721  252.94000244    1.05999994    2.25000000
   12.05472279  270.93200684    1.03999996    2.25000000
   12.05805588  239.94900513    1.05999994    2.26999998
   12.06138897  256.94000244    1.05999994    2.25000000
   12.06444454  224.42700195    1.05999994    2.26999998
   12.06777763  238.14500427    1.05999994    2.26999998
   12.06916618  246.11399841    1.05999994    2.26999998
   12.07138920  263.69699097    1.05999994    2.26999998
   12.07472229  296.85900879    1.07000005    2.26999998
   12.07805538  292.10598755    1.07000005    2.25000000
   12.08111095  239.91600037    1.09000003    2.26999998
   12.08444405  219.92799377    1.09000003    2.26999998
   12.08749962  194.93800354    1.11000001    2.26999998
   12.09083271  202.61000061    1.11000001    2.26999998
   12.09416676  190.29200745    1.11000001    2.26999998
   12.09722233  189.67399597    1.11000001    2.26999998
   12.10055637  189.16499329    1.13000000    2.26999998
   12.10249996  194.19099426    1.13000000    2.26999998
   12.10416698  181.24600220    1.13000000    2.26999998
   12.10750008  193.62500000    1.13000000    2.26999998
   12.11055565  181.84599304    1.14999998    2.26999998
   12.11388969  181.28999329    1.13000000    2.26999998
   12.11722279  182.43800354    1.13000000    2.28999996
   12.12027836  201.06300354    1.13000000    2.28999996
   12.12361145  174.42799377    1.13000000    2.28999996
   12.12694454  169.13299561    1.09000003    2.28999996
   12.13000011  181.91700745    1.09000003    2.28999996
   12.13333321  180.79899597    1.09000003    2.28999996
   12.13583279  172.60899353    1.07000005    2.28999996
   12.13694477  208.64700317    1.07000005    2.28999996
   12.14027786  199.22399902    1.07000005    2.30999994
   12.14361095  178.48800659    1.05999994    2.28999996
   12.14666653  177.44400024    1.05999994    2.28999996
   12.14999962  194.56199646    1.03999996    2.28999996
   12.15305519  187.07499695    1.01999998    2.28999996
   12.15638828  161.05499268    1.00000000    2.30999994
   12.15972137  166.37600708    1.01999998    2.30999994
   12.16277695  188.78300476    1.01999998    2.30999994
   12.16611099  178.65800476    1.00000000    2.30999994
   12.16916656  170.10899353    0.98000002    2.30999994
   12.16972256  171.78900146    0.98000002    2.30999994
   12.17305565  203.10899353    1.00000000    2.30999994
   12.17611122  196.33399963    1.00000000    2.30999994
   12.17944431  171.82600403    1.00000000    2.32999992
   12.18277836  195.47999573    1.00000000    2.32999992
   12.18583298  186.65499878    0.98000002    2.32999992
   12.18916702  199.05299377    0.98000002    2.30999994
   12.19250011  184.97599792    0.98000002    2.32999992
   12.19555569  192.52099609    0.98000002    2.32999992
   12.19888878  188.86799622    0.98000002    2.32999992
   12.20194435  201.48699951    0.98000002    2.32999992
   12.20249939  179.63099670    0.98000002    2.32999992
   12.20583344  187.40299988    0.95999998    2.32999992
   12.20916653  199.12699890    0.95999998    2.32999992
   12.21222210  188.29699707    0.98000002    2.30999994
   12.21555519  195.97900391    0.95999998    2.32999992
   12.21888828  199.35800171    0.98000002    2.32999992
   12.22194386  183.11099243    0.98000002    2.32999992
   12.22527695  211.33000183    0.98000002    2.32999992
   12.22861099  195.63000488    1.00000000    2.32999992
   12.23166656  175.03599548    1.01999998    2.32999992
   12.23500061  167.27900696    1.07000005    2.32999992
   12.23583317  181.31900024    1.07000005    2.32999992
   12.23861122  195.27900696    1.07000005    2.32999992
   12.24194431  182.55200195    1.07000005    2.34999990
   12.24499989  180.03500366    1.07000005    2.32999992
   12.25749969  173.28199768    0.00000000    0.00000000
   12.26083374  171.81500244    1.09000003    2.34999990
   12.27333355  168.52900696    0.00000000    0.00000000
   12.27388859  174.77200317    1.09000003    2.34999990
   12.27666664  177.96200562    1.09000003    2.34999990
   12.27999973  176.83799744    1.09000003    2.34999990
   12.28333378  192.69200134    1.09000003    2.34999990
   12.29527855  188.97799683    0.00000000    0.00000000
   12.29861164  188.67599487    1.09000003    2.34999990
   12.30194473  205.19700623    1.11000001    2.36999989
   12.30500031  243.48500061    1.13000000    2.34999990
   12.30833340  220.23399353    1.14999998    2.34999990
   12.32861137  218.88600159    1.16999996    2.36999989
   12.32972240  213.88600159    1.16999996    2.36999989
   12.33305550  233.88800049    1.16999996    2.34999990
   12.33611107  193.55900574    1.16999996    2.34999990
   12.33944416  190.25300598    1.16999996    2.34999990
   12.34277725  194.43800354    1.16999996    2.36999989
   12.34444427  178.58000183    1.16999996    2.36999989
   12.36361122  170.80499268    1.13000000    2.36999989
   12.36694431  185.43800354    1.11000001    2.36999989
   12.37027836  175.28599548    1.09000003    2.39000010
   12.37333393  182.24800110    1.07000005    2.39000010
   12.37666702  184.88999939    1.05999994    2.39000010
   12.37777805  178.87100220    1.05999994    2.39000010
   12.38027763  203.84500122    1.05999994    2.39000010
   12.38361073  174.10200500    1.00000000    2.39000010
   12.39527798  180.32400513    0.00000000    0.00000000
   12.39861107  192.68200684    1.00000000    2.39000010
   12.40194416  191.66900635    1.00000000    2.40000010
   12.40499973  172.09300232    1.00000000    2.40000010
   12.40833282  180.14399719    1.00000000    2.40000010
   12.41111088  169.61999512    1.00000000    2.40000010
   12.41194439  171.73800659    1.00000000    2.40000010
   12.41527748  174.03599548    1.00000000    2.39000010
   12.41833401  168.92500305    1.01999998    2.39000010
   12.42194462  185.78999329    1.00000000    2.39000010
   12.42500019  197.00999451    1.00000000    2.39000010
   12.42833328  183.52699280    0.98000002    2.39000010
   12.43166733  173.24200439    0.98000002    2.40000010
   12.44166660  179.13400269    0.00000000    0.00000000
   12.44444466  200.86900330    1.00000000    2.40000010
   12.44527817  204.68499756    1.03999996    2.40000010
   12.44861126  206.92199707    1.03999996    2.40000010
   12.45166683  200.92599487    1.03999996    2.40000010
   12.45499992  214.69599915    1.03999996    2.40000010
   12.45833302  232.07899475    1.07000005    2.40000010
   12.46138859  253.51400757    1.07000005    2.40000010
   12.46472168  252.76800537    1.07000005    2.40000010
   12.46805477  303.21099854    1.07000005    2.40000010
   12.47138882  287.96398926    1.09000003    2.40000010
   12.47444439  296.12799072    1.07000005    2.40000010
   12.47777748  292.46899414    1.07000005    2.40000010
   12.47833252  263.46899414    1.09000003    2.40000010
   12.48166656  271.96701050    1.09000003    2.40000010
   12.48472214  274.61999512    1.09000003    2.40000010
   12.48805618  266.79400635    1.09000003    2.40000010
   12.49972248  271.51599121    0.00000000    0.00000000
   12.50305557  271.02700806    1.03999996    2.40000010
   12.50638866  237.55999756    0.98000002    2.42000008
   12.50944424  250.49699402    0.98000002    2.42000008
   12.51277733  236.78500366    0.98000002    2.42000008
   12.51555538  239.65600586    0.98000002    2.42000008
   12.51666641  236.22799683    0.98000002    2.42000008
   12.51972198  228.92300415    0.95999998    2.42000008
   12.52305508  219.41499329    0.95999998    2.42000008
   12.52611065  234.79899597    0.94000000    2.42000008
   12.52944374  226.74000549    0.94000000    2.42000008
   12.53277779  241.61500549    0.95999998    2.42000008
   12.53583336  236.19799805    0.95999998    2.42000008
   12.53916740  197.01800537    0.94000000    2.44000006
   12.54250050  221.15800476    0.94000000    2.44000006
   12.54555607  226.44099426    0.94000000    2.44000006
   12.54888916  213.89599609    0.94000000    2.44000006
   12.54944515  207.73800659    0.94000000    2.44000006
   12.55249977  208.50500488    0.94000000    2.44000006
   12.55583382  185.93699646    0.94000000    2.44000006
   12.55888939  204.41299438    0.94000000    2.44000006
   12.56222248  220.10699463    0.94000000    2.44000006
   12.56555557  202.94700623    0.94000000    2.44000006
   12.56861115  195.09399414    0.92000002    2.44000006
   12.57194424  212.47599792    0.92000002    2.44000006
   12.57527733  229.85299683    0.92000002    2.46000004
   12.57833290  201.11700439    0.92000002    2.46000004
   12.58166695  209.00000000    0.94000000    2.44000006
   12.58222198  205.11099243    0.94000000    2.44000006
   12.58527756  199.84100342    0.95999998    2.44000006
   12.58833313  185.64300537    0.95999998    2.44000006
   12.59166622  189.28799438    0.95999998    2.44000006
   12.59472179  182.09100342    0.95999998    2.44000006
   12.59805489  196.26400757    0.95999998    2.44000006
   12.60138893  183.06399536    0.95999998    2.44000006
   12.60444450  203.91200256    0.95999998    2.46000004
   12.60777855  193.57499695    0.94000000    2.44000006
   12.61111164  197.52099609    0.94000000    2.46000004
   12.61444473  174.71800232    0.94000000    2.46000004
   12.61555576  183.38400269    0.94000000    2.46000004
   12.61805534  183.63099670    0.94000000    2.46000004
   12.62111092  193.25300598    0.92000002    2.46000004
   12.62444496  174.28399658    0.89999998    2.46000004
   12.62777805  187.13200378    0.89999998    2.46000004
   12.63083363  178.05200195    0.89999998    2.46000004
   12.63416672  174.24200439    0.89999998    2.46000004
   12.63722229  180.26300049    0.89999998    2.46000004
   12.64055538  189.19999695    0.88000000    2.46000004
   12.64388847  171.46099854    0.88000000    2.46000004
   12.64694405  173.22599792    0.88000000    2.46000004
   12.64888859  180.15499878    0.88000000    2.46000004
   12.65083313  189.17799377    0.88000000    2.46000004
   12.65388870  174.11099243    0.88000000    2.46000004
   12.65722179  170.31100464    0.88000000    2.46000004
   12.66055489  181.21499634    0.88000000    2.46000004
   12.66361046  174.09199524    0.88000000    2.46000004
   12.66694450  180.11000061    0.88000000    2.46000004
   12.67027855  181.44799805    0.88000000    2.46000004
   12.67333412  183.23399353    0.88000000    2.46000004
   12.67666721  180.08099365    0.88000000    2.48000002
   12.67972279  185.14300537    0.88000000    2.48000002
   12.68222237  166.66099548    0.89999998    2.46000004
   12.68361092  173.74200439    0.89999998    2.46000004
   12.68666649  171.18499756    0.89999998    2.48000002
   12.69000053  171.63000488    0.89999998    2.46000004
   12.69333363  175.73399353    0.89999998    2.48000002
   12.69638920  174.49600220    0.89999998    2.48000002
   12.69972229  176.17199707    0.89999998    2.48000002
   12.70277786  179.89900208    0.92000002    2.48000002
   12.70611095  175.24699402    0.92000002    2.48000002
   12.70944405  171.76499939    0.92000002    2.46000004
   12.71277714  177.73500061    0.89999998    2.46000004
   12.71555519  159.57099915    0.89999998    2.48000002
   12.71638870  171.47399902    0.89999998    2.48000002
   12.71944427  160.14399719    0.89999998    2.48000002
   12.72277737  168.32800293    0.89999998    2.48000002
   12.72611046  158.53500366    0.89999998    2.48000002
   12.72916603  172.27499390    0.89999998    2.48000002
   12.73249912  169.55700684    0.88000000    2.48000002
   12.73583317  162.74099731    0.88000000    2.48000002
   12.73888874  157.85299683    0.88000000    2.48000002
   12.74222279  160.53500366    0.88000000    2.48000002
   12.74527836  157.95100403    0.83999997    2.48000002
   12.74861145  164.81900024    0.83999997    2.50000000
   12.74916649  176.73399353    0.83999997    2.50000000
   12.75249958  166.81300354    0.83999997    2.48000002
   12.75555515  155.98599243    0.81999999    2.50000000
   12.75888920  169.76499939    0.80000001    2.50000000
   12.76222229  165.49699402    0.79000002    2.48000002
   12.76527786  157.72099304    0.79000002    2.50000000
   12.76861095  158.97399902    0.80000001    2.50000000
   12.77166653  167.58500671    0.80000001    2.50000000
   12.77499962  153.81599426    0.80000001    2.50000000
   12.77833271  170.13800049    0.80000001    2.48000002
   12.78138828  185.62399292    0.80000001    2.50000000
   12.78249931  165.19400024    0.80000001    2.50000000
   12.78527832  165.85000610    0.80000001    2.50000000
   12.78833389  180.11300659    0.79000002    2.50000000
   12.79166698  173.20799255    0.79000002    2.50000000
   12.79500008  168.93800354    0.79000002    2.50000000
   12.79805565  178.94400024    0.79000002    2.50000000
   12.80138874  165.96400452    0.79000002    2.50000000
   12.80444431  155.12399292    0.80000001    2.50000000
   12.80777836  154.16200256    0.80000001    2.50000000
   12.81111145  141.85000610    0.80000001    2.50000000
   12.81416702  159.94999695    0.81999999    2.50000000
   12.81583309  147.30599976    0.81999999    2.50000000
   12.81805515  149.88600159    0.80000001    2.50000000
   12.82111073  158.99499512    0.80000001    2.50000000
   12.82444477  151.65100098    0.83999997    2.51999998
   12.82777786  154.52200317    0.83999997    2.50000000
   12.83083344  148.44999695    0.83999997    2.51999998
   12.83416653  143.25100708    0.83999997    2.50000000
   12.83749962  146.41799927    0.83999997    2.50000000
   12.84083271  158.24099731    0.86000001    2.50000000
   12.84388828  163.73800659    0.83999997    2.50000000
   12.84722233  153.80900574    0.83999997    2.50000000
   12.84916592  155.85899353    0.83999997    2.50000000
   12.85083389  152.17300415    0.83999997    2.50000000
   12.85388947  153.96400452    0.83999997    2.50000000
   12.85722256  152.77499390    0.83999997    2.50000000
   12.86055565  147.63099670    0.83999997    2.50000000
   12.86361122  155.13499451    0.81999999    2.50000000
   12.86694431  152.71899414    0.81999999    2.50000000
   12.87027836  160.34300232    0.83999997    2.51999998
   12.87333393  155.50399780    0.81999999    2.50000000
   12.87666702  152.52600098    0.79000002    2.51999998
   12.88861084  157.56399536    0.00000000    0.00000000
   12.88916683  167.70899963    0.79000002    2.51999998
   12.89222240  165.52000427    0.79000002    2.51999998
   12.89555550  152.20599365    0.76999998    2.51999998
   12.89888859  145.35000610    0.79000002    2.51999998
   12.91083336  150.62300110    0.00000000    0.00000000
   12.91416645  155.47999573    0.79000002    2.51999998
   12.91750050  151.39599609    0.76999998    2.51999998
   12.92055607  154.54699707    0.76999998    2.51999998
   12.92388916  150.05999756    0.79000002    2.51999998
   12.92666721  159.25399780    0.80000001    2.51999998
   12.92777824  155.14399719    0.80000001    2.51999998
   12.93083382  163.38499451    0.81999999    2.51999998
   12.93416691  159.01400757    0.83999997    2.51999998
   12.93750000  159.91499329    0.81999999    2.51999998
   12.94083309  159.32699585    0.83999997    2.51999998
   12.94416714  153.76499939    0.83999997    2.51999998
   12.94722271  157.18699646    0.83999997    2.51999998
   12.95055580  148.75599670    0.86000001    2.53999996
   12.95388889  158.13000488    0.86000001    2.51999998
   12.95694447  146.48100281    0.86000001    2.53999996
   12.96000004  157.37199402    0.88000000    2.51999998
   12.96083355  163.79800415    0.86000001    2.51999998
   12.96388912  159.41200256    0.83999997    2.51999998
   12.96722221  157.52799988    0.83999997    2.53999996
   12.97055531  150.55799866    0.83999997    2.51999998
   12.97361088  146.13499451    0.83999997    2.53999996
   12.97694397  149.77200317    0.83999997    2.53999996
   12.98027706  152.92199707    0.81999999    2.51999998
   12.98333359  154.01199341    0.81999999    2.53999996
   12.98666668  148.89199829    0.81999999    2.53999996
   12.98972225  150.05000305    0.80000001    2.53999996
   12.99305534  154.74600220    0.80000001    2.53999996
   12.99361134  157.73300171    0.80000001    2.53999996
   12.99694443  157.13600159    0.79000002    2.53999996
   13.10888958   -1.00000000   -1.00000000   -1.00000000
   13.21305561   -1.00000000   -1.00000000   -1.00000000
   13.32416630   -1.00000000   -1.00000000   -1.00000000
   13.35333347   90.34449768    0.69000000    2.59999990
   13.35666752  151.27699280    0.69000000    2.59999990
   13.35972214  154.69500732    0.70999998    2.59999990
   13.36444473  154.69500732    0.70999998    2.59999990
   13.36861134  142.03100586    0.73000002    2.59999990
   13.37194443  149.19799805    0.73000002    2.59999990
   13.37500000  155.79699707    0.73000002    2.59999990
   13.37888908  154.36000061    0.73000002    2.57999992
   13.38000011  156.07000732    0.73000002    2.59999990
   13.38333321  165.45100403    0.73000002    2.59999990
   13.38666630  164.52900696    0.73000002    2.59999990
   13.38972187  161.86599731    0.73000002    2.57999992
   13.39305496  151.56500244    0.70999998    2.59999990
   13.39611053  171.31900024    0.70999998    2.59999990
   13.40861034  158.45799255    0.00000000    0.00000000
   13.41277695  158.45799255    0.69000000    2.59999990
   13.41694450  157.83599854    0.69000000    2.59999990
   13.42027855  147.66200256    0.69000000    2.61999989
   13.42361164  145.85899353    0.69000000    2.61999989
   13.42666721  149.25999451    0.69000000    2.61999989
   13.43000031  144.82200623    0.69000000    2.61999989
   13.43333340  164.84199524    0.69000000    2.59999990
   13.43638897  153.84399414    0.69000000    2.59999990
   13.43972206  138.73699951    0.70999998    2.61999989
   13.44277763  155.46899414    0.69000000    2.59999990
   13.44416714  158.54699707    0.69000000    2.59999990
   13.44666672  144.51800537    0.69000000    2.61999989
   13.45249939  151.07400513    0.69000000    2.61999989
   13.45666695  151.07400513    0.69000000    2.61999989
   13.46972179  158.99499512    0.00000000    0.00000000
   13.47305489  147.14500427    0.70999998    2.61999989
   13.47638798  142.40600586    0.70999998    2.61999989
   13.47944355  145.23199463    0.69000000    2.61999989
   13.48277760  148.47900391    0.69000000    2.61999989
   13.48555565  159.98699951    0.70999998    2.61999989
   13.48666668  156.07099915    0.70999998    2.61999989
   13.48972225  147.35800171    0.70999998    2.61999989
   13.49305534  155.37600708    0.70999998    2.61999989
   13.50888920  155.37600708    0.70999998    2.59999990
   13.52194405  162.23599243    0.00000000    0.00000000
   13.52444458  193.51400757    0.69000000    2.61999989
   13.52583313  175.26100159    0.69000000    2.61999989
   13.52916622  180.26499939    0.69000000    2.61999989
   13.53249931  163.24200439    0.69000000    2.61999989
   13.53611183  171.68200684    0.69000000    2.61999989
   13.53916740  179.62500000    0.67000002    2.61999989
   13.54250050  175.67700195    0.67000002    2.64000010
   13.55444431  177.90800476    0.00000000    0.00000000
   13.55861092  177.90800476    0.64999998    2.61999989
   13.56277752  148.59899902    0.67000002    2.64000010
   13.56583309  143.38200378    0.64999998    2.64000010
   13.56944466  151.70199585    0.64999998    2.64000010
   13.58083344  151.48599243    0.00000000    0.00000000
   13.58416653  143.30000305    0.70999998    2.64000010
   13.58749962  152.15499878    0.70999998    2.61999989
   13.59055519  146.19200134    0.70999998    2.64000010
   13.59388828  148.61700439    0.70999998    2.64000010
   13.59666634  148.47099304    0.70999998    2.61999989
   13.59777737  148.47000122    0.70999998    2.61999989
   13.60111141  155.78999329    0.67000002    2.64000010
   13.60416698  145.48100281    0.67000002    2.64000010
   13.61777782  145.48100281    0.63000000    2.64000010
   13.62194443  161.16700745    0.63000000    2.64000010
   13.62500000  162.13699341    0.61000001    2.64000010
   13.62833309  177.15800476    0.61000001    2.64000010
   13.63166714  168.99600220    0.61000001    2.64000010
   13.63333321  168.72399902    0.61000001    2.64000010
   13.63527775  193.61500549    0.61000001    2.64000010
   13.63861084  175.05900574    0.61000001    2.64000010
   13.64166641  174.35200500    0.61000001    2.64000010
   13.64499950  177.35299683    0.61000001    2.61999989
   13.65138817  177.35299683    0.63000000    2.64000010
   13.65749931  175.79899597    0.63000000    2.64000010
   13.66055489  183.31199646    0.63000000    2.64000010
   13.66444397  171.40600586    0.63000000    2.64000010
   13.66666698  170.34100342    0.64999998    2.64000010
   13.66805553  190.60000610    0.64999998    2.64000010
   13.67138958  167.52200317    0.67000002    2.64000010
   13.67527771  171.74800110    0.67000002    2.64000010
   13.67833328  156.08999634    0.67000002    2.64000010
   13.68166733  163.98599243    0.69000000    2.61999989
   13.68500042  161.11399841    0.69000000    2.64000010
   13.68805599  139.72200012    0.67000002    2.64000010
   13.69416714  139.72200012    0.67000002    2.64000010
   13.69833374  146.47900391    0.67000002    2.64000010
   13.69999981  141.19200134    0.67000002    2.64000010
   13.70222187  146.05799866    0.67000002    2.64000010
   13.70555496  133.46899414    0.67000002    2.64000010
   13.71749973  137.05099487    0.00000000    0.00000000
   13.72083282  148.28799438    0.64999998    2.64000010
   13.72416592  150.21099854    0.64999998    2.64000010
   13.72722149  145.82200623    0.64999998    2.64000010
   13.73055553  146.58399963    0.64999998    2.66000009
   13.73388958  138.69299316    0.64999998    2.64000010
   13.73472214  152.85899353    0.64999998    2.64000010
   13.73777771  152.09899902    0.64999998    2.64000010
   13.74111176  149.35600281    0.64999998    2.64000010
   13.74527836  149.35600281    0.63000000    2.64000010
   13.74944496  157.89399719    0.63000000    2.64000010
   13.75249958  149.73699951    0.63000000    2.64000010
   13.76027775  143.87899780    0.63000000    2.64000010
   13.76361084  155.72500610    0.63000000    2.64000010
   13.76749992  162.14199829    0.63000000    2.64000010
   13.76805496  155.73399353    0.63000000    2.64000010
   13.77138901  161.33999634    0.63000000    2.64000010
   13.77444458  149.00399780    0.64999998    2.64000010
   13.77805519  146.34500122    0.67000002    2.64000010
   13.78138828  141.04299927    0.67000002    2.64000010
   13.78805637  141.04299927    0.69000000    2.64000010
   13.79222298  154.35499573    0.70999998    2.64000010
   13.79555607  145.27499390    0.70999998    2.64000010
   13.79861164  154.56599426    0.70999998    2.64000010
   13.80027771  142.47000122    0.70999998    2.64000010
   13.80222225  147.86900330    0.70999998    2.66000009
   13.80555534  130.68400574    0.70999998    2.64000010
   13.80861092  153.42199707    0.70999998    2.64000010
   13.81194496  144.20799255    0.70999998    2.66000009
   13.81527805  149.50500488    0.67000002    2.66000009
   13.81833363  147.99200439    0.64999998    2.66000009
   13.82166672  133.25900269    0.64999998    2.66000009
   13.82499981  148.49899292    0.64999998    2.66000009
   13.83083344  148.49899292    0.64999998    2.66000009
   13.83500004  138.93200684    0.67000002    2.67000008
   13.83833313  140.23800659    0.64999998    2.66000009
   13.84138870  138.60200500    0.64999998    2.66000009
   13.84472179  137.72200012    0.64999998    2.66000009
   13.84833336  146.33099365    0.64999998    2.64000010
   13.85138893  140.28999329    0.64999998    2.66000009
   13.85472298  142.73699951    0.64999998    2.66000009
   13.85805607  140.01400757    0.64999998    2.66000009
   13.86111164  136.59599304    0.67000002    2.66000009
   13.86444473  140.99200439    0.67000002    2.66000009
   13.86694431  150.63499451    0.67000002    2.66000009
   13.86805534  142.51600647    0.67000002    2.66000009
   13.87388897  142.51600647    0.67000002    2.66000009
   13.87777805  136.61500549    0.67000002    2.66000009
   13.88111115  141.93400574    0.67000002    2.66000009
   13.88444424  132.16000366    0.67000002    2.66000009
   13.88777733  137.89900208    0.69000000    2.66000009
   13.89138889  135.58399963    0.69000000    2.66000009
   13.89472198  140.13699341    0.67000002    2.66000009
   13.89777756  143.37399292    0.69000000    2.66000009
   13.90027714  149.13800049    0.67000002    2.66000009
   13.90138817  137.56900024    0.67000002    2.66000009
   13.90472221  144.05299377    0.67000002    2.67000008
   13.90805531  145.06799316    0.64999998    2.66000009
   13.91111088  139.40299988    0.67000002    2.66000009
   13.91833401  139.40299988    0.64999998    2.66000009
   13.92250061  147.76400757    0.63000000    2.66000009
   13.93444443  143.87899780    0.00000000    0.00000000
   13.93500042  134.44000244    0.61000001    2.66000009
   13.93777752  147.40100098    0.61000001    2.66000009
   13.94111156  141.23300171    0.58999997    2.67000008
   13.94444466  143.59300232    0.56999999    2.66000009
   13.95166683  137.64900208    0.56999999    2.66000009
   13.95499992  146.04899597    0.55000001    2.67000008
   13.95805550  144.59199524    0.56999999    2.67000008
   13.96222210  144.59199524    0.55000001    2.67000008
   13.96638870  135.08700562    0.52999997    2.67000008
   13.96833324  140.08399963    0.52999997    2.69000006
   13.96999931  143.89399719    0.55000001    2.67000008
   13.97333336  139.29699707    0.52999997    2.67000008
   13.97666645  143.27499390    0.52999997    2.67000008
   13.97999954  145.42500305    0.52999997    2.67000008
   13.98333359  152.09199524    0.55000001    2.66000009
   13.98666668  136.04600525    0.55000001    2.67000008
   13.98972225  131.28500366    0.55000001    2.67000008
   13.99305534  131.26899719    0.55000001    2.67000008
   13.99638939  131.24299622    0.55000001    2.67000008
   13.99944496  137.08399963    0.55000001    2.67000008
   14.00500011  137.08399963    0.56999999    2.67000008
   14.00916672  144.15100098    0.56999999    2.67000008
   14.01249981  138.88999939    0.58999997    2.66000009
   14.01583290  148.18400574    0.61000001    2.67000008
   14.01888847  144.98599243    0.61000001    2.67000008
   14.02222157  145.32600403    0.61000001    2.67000008
   14.02555561  151.90400696    0.61000001    2.67000008
   14.03444481  143.87399292    0.58999997    2.67000008
   14.03611183  134.92700195    0.58999997    2.67000008
   14.03805637  139.10600281    0.58999997    2.67000008
   14.04138947  143.91999817    0.58999997    2.69000006
   14.04916668  143.91999817    0.56999999    2.67000008
   14.05333328  139.61399841    0.56999999    2.67000008
   14.05666733  135.83999634    0.56999999    2.67000008
   14.06000042  133.78700256    0.56999999    2.67000008
   14.06305599  138.86500549    0.55000001    2.67000008
   14.06638908  134.08299255    0.55000001    2.67000008
   14.06944466  144.01699829    0.55000001    2.67000008
   14.06999969  142.84599304    0.55000001    2.67000008
   14.07333374  152.55999756    0.52999997    2.69000006
   14.07666683  135.40800476    0.52999997    2.69000006
   14.07972240  140.39500427    0.55000001    2.67000008
   14.08333302  144.38699341    0.56999999    2.67000008
   14.08666611  132.43699646    0.61000001    2.67000008
   14.09111118  132.43699646    0.61000001    2.67000008
   14.10444450  140.98599243    0.00000000    0.00000000
   14.10500050  139.10000610    0.58999997    2.67000008
   14.10777855  137.52799988    0.61000001    2.67000008
   14.11111164  132.68899536    0.63000000    2.67000008
   14.11416721  144.57499695    0.63000000    2.67000008
   14.11750031  136.22500610    0.63000000    2.67000008
   14.12083340  140.11500549    0.63000000    2.69000006
   14.12416649  135.99600220    0.63000000    2.67000008
   14.12750053  141.71499634    0.61000001    2.67000008
   14.13361073  141.71499634    0.58999997    2.67000008
   14.13777733  136.76100159    0.61000001    2.67000008
   14.13833332  141.48100281    0.61000001    2.67000008
   14.14138889  132.34599304    0.58999997    2.69000006
   14.14527798  142.86799622    0.58999997    2.69000006
   14.14833355  151.54899597    0.56999999    2.67000008
   14.15166664  139.25100708    0.56999999    2.69000006
   14.15472221  150.44599915    0.55000001    2.69000006
   14.15805531  148.63999939    0.55000001    2.67000008
   14.17000008  140.95799255    0.00000000    0.00000000
   14.17166710  158.54200745    0.52999997    2.69000006
   14.17361164  140.32099915    0.52999997    2.69000006
   14.17944431  140.32099915    0.52999997    2.69000006
   14.19222260  142.98699951    0.00000000    0.00000000
   14.19527817  162.27000427    0.52999997    2.69000006
   14.19861126  155.29899597    0.55000001    2.69000006
   14.20166683  138.09500122    0.55000001    2.67000008
   14.20499992  165.01600647    0.55000001    2.69000006
   14.20777798  154.04100037    0.55000001    2.69000006
   14.20888901  147.43400574    0.55000001    2.69000006
   14.21194458  156.32899475    0.55000001    2.69000006
   14.21555519  165.73800659    0.55000001    2.69000006
   14.22388840  165.73800659    0.55000001    2.69000006
   14.22805500  158.68899536    0.56999999    2.69000006
   14.24000072  159.60600281    0.00000000    0.00000000
   14.24111176  156.50700378    0.56999999    2.69000006
   14.24361134  165.19500732    0.56999999    2.69000006
   14.24666691  148.76199341    0.55000001    2.69000006
   14.25000000  128.72300720    0.55000001    2.69000006
   14.25361156  150.15699768    0.55000001    2.69000006
   14.25694466  142.78199768    0.55000001    2.69000006
   14.26000023  142.20300293    0.55000001    2.69000006
   14.26333332  135.23800659    0.56999999    2.69000006
   14.26749992  135.23800659    0.56999999    2.69000006
   14.27166653  142.29200745    0.58999997    2.69000006
   14.27444458  142.71200562    0.58999997    2.69000006
   14.27527714  135.97300720    0.61000001    2.69000006
   14.27833271  133.30299377    0.61000001    2.69000006
   14.28166676  139.36999512    0.61000001    2.69000006
   14.28500080  137.87899780    0.61000001    2.69000006
   14.28916740  145.74899292    0.58999997    2.69000006
   14.29250050  139.30000305    0.58999997    2.69000006
   14.29555607  138.28799438    0.61000001    2.71000004
   14.29888916  137.25100708    0.58999997    2.71000004
   14.30222225  138.80999756    0.58999997    2.69000006
   14.30555534  137.54899597    0.56999999    2.69000006
   14.31888866  137.54899597    0.55000001    2.69000006
   14.32305527  137.88999939    0.55000001    2.69000006
   14.32611084  140.75700378    0.56999999    2.69000006
   14.32944393  131.34899902    0.55000001    2.69000006
   14.33305550  131.20300293    0.55000001    2.71000004
   14.33611107  136.54499817    0.55000001    2.69000006
   14.33944416  144.94000244    0.55000001    2.69000006
   14.34111118  136.23699951    0.56999999    2.69000006
   14.34305477  124.27700043    0.56999999    2.69000006
   14.34638882  135.60200500    0.55000001    2.69000006
   14.35333347  135.60200500    0.55000001    2.69000006
   14.35750008  142.67399597    0.55000001    2.69000006
   14.36083412  125.69400024    0.51999998    2.71000004
   14.36416721  135.31599426    0.51999998    2.71000004
   14.36722279  134.15800476    0.50000000    2.71000004
   14.37055588  130.31300354    0.50000000    2.71000004
   14.38944435  138.72300720    0.50000000    2.71000004
   14.39027786  142.34800720    0.50000000    2.71000004
   14.39638901  142.34800720    0.51999998    2.71000004
   14.40111065  137.64599609    0.51999998    2.71000004
   14.40416622  131.22300720    0.51999998    2.69000006
   14.40749931  128.17300415    0.51999998    2.71000004
   14.41222191  133.79499817    0.51999998    2.71000004
   14.41527748  138.89799500    0.51999998    2.69000006
   14.41861153  138.69799805    0.51999998    2.71000004
   14.42333412  129.64100647    0.52999997    2.71000004
   14.42388916  122.79000092    0.52999997    2.71000004
   14.42694473  130.16200256    0.51999998    2.71000004
   14.43000031  136.15600586    0.51999998    2.71000004
   14.43333340  137.29100037    0.51999998    2.71000004
   14.43972206  137.29100037    0.51999998    2.71000004
   14.45194435  128.24099731    0.00000000    0.00000000
   14.45499992  129.65800476    0.50000000    2.71000004
   14.45722198  125.22200012    0.50000000    2.71000004
   14.45888901  130.42999268    0.50000000    2.71000004
   14.46194458  130.41400146    0.51999998    2.71000004
   14.46527767  129.22399902    0.51999998    2.71000004
   14.46861076  127.01300049    0.55000001    2.71000004
   14.47166634  134.02799988    0.55000001    2.71000004
   14.47499943  132.08500671    0.55000001    2.71000004
   14.47833252  126.65200043    0.55000001    2.69000006
   14.48249912  126.65200043    0.52999997    2.71000004
   14.48666668  128.63999939    0.51999998    2.71000004
   14.49000072  129.18099976    0.51999998    2.71000004
   14.49055576  125.53600311    0.51999998    2.71000004
   14.49361134  137.22900391    0.51999998    2.71000004
   14.49694443  121.25800323    0.52999997    2.71000004
   14.50000000  132.68800354    0.51999998    2.71000004
   14.50333309  128.12899780    0.51999998    2.71000004
   14.50638866  130.19999695    0.50000000    2.71000004
   14.50972176  133.82099915    0.50000000    2.71000004
   14.51305580  132.94000244    0.50000000    2.71000004
   14.51611137  136.95899963    0.50000000    2.71000004
   14.51944447  132.94900513    0.50000000    2.71000004
   14.52555561  132.94900513    0.50000000    2.71000004
   14.52944374  141.35800171    0.47999999    2.71000004
   14.53277779  140.06599426    0.47999999    2.73000002
   14.53611183  140.13800049    0.46000001    2.71000004
   14.53916740  144.54600525    0.46000001    2.71000004
   14.54250050  135.26899719    0.47999999    2.71000004
   14.54583359  134.77799988    0.50000000    2.71000004
   14.54888916  141.19999695    0.50000000    2.71000004
   14.55222225  136.78900146    0.50000000    2.71000004
   14.55527782  137.67900085    0.51999998    2.69000006
   14.55749989  132.88400269    0.51999998    2.69000006
   14.55944443  138.97099304    0.50000000    2.71000004
   14.56277752  139.50399780    0.50000000    2.71000004
   14.56833363  139.50399780    0.50000000    2.71000004
   14.57250023  138.20599365    0.50000000    2.71000004
   14.57555580  143.75300598    0.50000000    2.71000004
   14.57888889  143.21299744    0.50000000    2.71000004
   14.58222198  141.71699524    0.50000000    2.71000004
   14.58527756  132.10299683    0.50000000    2.71000004
   14.58861065  133.79899597    0.51999998    2.71000004
   14.59055519  134.72799683    0.51999998    2.71000004
   14.59222221  137.24299622    0.51999998    2.71000004
   14.59555531  132.38000488    0.51999998    2.71000004
   14.59888840  137.45500183    0.51999998    2.71000004
   14.60194492  134.96899414    0.51999998    2.71000004
   14.60527802  130.02000427    0.52999997    2.71000004
   14.61138916  130.02000427    0.51999998    2.71000004
   14.61611176  131.30200195    0.51999998    2.73000002
   14.61944485  128.12699890    0.50000000    2.71000004
   14.62277794  133.47599792    0.50000000    2.73000002
   14.62388897  136.46400452    0.50000000    2.73000002
   14.62638855  132.35800171    0.47999999    2.73000002
   14.62972260  137.74699402    0.47999999    2.73000002
   14.63277817  130.63499451    0.47999999    2.71000004
   14.63611126  129.02200317    0.47999999    2.73000002
   14.63916683  136.88000488    0.46000001    2.73000002
   14.64249992  136.44799805    0.46000001    2.73000002
   14.64583302  134.55700684    0.46000001    2.71000004
   14.64888859  139.30599976    0.46000001    2.71000004
   14.65388870  139.30599976    0.44000000    2.73000002
   14.65805531  143.05200195    0.46000001    2.73000002
   14.66138840  127.82299805    0.46000001    2.73000002
   14.66444397  131.37300110    0.46000001    2.71000004
   14.66777802  128.35200500    0.44000000    2.71000004
   14.67111111  124.34799957    0.44000000    2.73000002
   14.67444515  129.38600159    0.44000000    2.73000002
   14.67777824  130.15100098    0.44000000    2.73000002
   14.68083382  131.44400024    0.46000001    2.73000002
   14.68416691  133.25100708    0.46000001    2.73000002
   14.68722248  130.30000305    0.44000000    2.73000002
   14.69055557  129.97599792    0.44000000    2.73000002
   14.69111156  129.89700317    0.44000000    2.73000002
   14.69666672  129.89700317    0.46000001    2.73000002
   14.70083332  124.54900360    0.50000000    2.71000004
   14.70416641  132.02200317    0.50000000    2.71000004
   14.70749950  132.42100525    0.50000000    2.73000002
   14.71055508  125.88500214    0.51999998    2.71000004
   14.71388912  128.43899536    0.56999999    2.71000004
   14.71694374  133.52499390    0.56999999    2.71000004
   14.72027779  132.36099243    0.56999999    2.73000002
   14.72361088  125.08899689    0.56999999    2.73000002
   14.72416592  124.87599945    0.61000001    2.71000004
   14.72722149  136.15899658    0.63000000    2.71000004
   14.73027706  118.76799774    0.63000000    2.71000004
   14.73361111  129.56700134    0.63000000    2.71000004
   14.74888897  129.56700134    0.58999997    2.71000004
   14.75305557  125.76899719    0.58999997    2.73000002
   14.75611115  123.19599915    0.58999997    2.71000004
   14.75944424  132.18600464    0.58999997    2.71000004
   14.76277733  126.69100189    0.56999999    2.71000004
   14.76444435  128.88000488    0.55000001    2.73000002
   14.76638889  129.41799927    0.55000001    2.73000002
   14.76972198  133.51899719    0.52999997    2.73000002
   14.77277756  123.32700348    0.52999997    2.73000002
   14.77611065  138.31700134    0.52999997    2.73000002
   14.78249931  138.31700134    0.51999998    2.73000002
   14.78666687  137.67300415    0.51999998    2.73000002
   14.78972244  123.34999847    0.51999998    2.73000002
   14.79305553  124.49099731    0.51999998    2.71000004
   14.79666710  123.76499939    0.50000000    2.73000002
   14.79777813  128.55700684    0.50000000    2.73000002
   14.80027771  125.82900238    0.50000000    2.73000002
   14.80361176  126.44799805    0.50000000    2.73000002
   14.80666733  124.71700287    0.50000000    2.73000002
   14.81000042  123.37100220    0.47999999    2.71000004
   14.81333351  126.63700104    0.47999999    2.73000002
   14.81638908  129.94200134    0.47999999    2.73000002
   14.81972218  134.62399292    0.47999999    2.73000002
   14.82527733  134.62399292    0.47999999    2.73000002
   14.83083344  123.85099792    0.47999999    2.73000002
   14.83138847  122.17500305    0.47999999    2.73000002
   14.83444405  128.35200500    0.47999999    2.71000004
   14.83749962  116.75000000    0.47999999    2.73000002
   14.84083271  135.32800293    0.47999999    2.73000002
   14.84416676  134.24400330    0.47999999    2.73000002
   14.84722233  126.08399963    0.47999999    2.73000002
   14.85055637  134.06700134    0.47999999    2.73000002
   14.85388947  136.28799438    0.46000001    2.73000002
   14.85694504  137.18699646    0.46000001    2.75000000
   14.86027813  129.31300354    0.46000001    2.73000002
   14.86444473  139.44000244    0.46000001    2.75000000
   14.86861134  139.44000244    0.46000001    2.73000002
   14.87277794  135.10600281    0.46000001    2.73000002
   14.87583351  122.96299744    0.46000001    2.73000002
   14.87916660  130.98899841    0.47999999    2.73000002
   14.88249969  130.75500488    0.47999999    2.73000002
   14.88694477  127.84600067    0.46000001    2.73000002
   14.89027786  128.22200012    0.46000001    2.73000002
   14.89333344  133.44200134    0.46000001    2.73000002
   14.89694405  133.42399597    0.46000001    2.73000002
   14.89944458  123.97399902    0.46000001    2.73000002
   14.90055561  128.73300171    0.46000001    2.73000002
   14.90361118  127.59700012    0.47999999    2.73000002
   14.90694427  127.97899628    0.47999999    2.75000000
   14.91138840  127.97899628    0.47999999    2.73000002
   14.91555500  131.60000610    0.47999999    2.73000002
   14.91888905  137.06199646    0.47999999    2.73000002
   14.92194462  124.69100189    0.47999999    2.73000002
   14.92527771  122.81999969    0.47999999    2.73000002
   14.92861176  133.38499451    0.47999999    2.75000000
   14.94111156  132.39799500    0.00000000    0.00000000
   14.94166660  132.23500061    0.46000001    2.75000000
   14.94472218  133.65800476    0.44000000    2.75000000
   14.94777775  130.13000488    0.44000000    2.75000000
   14.95416641  130.13000488    0.44000000    2.73000002
   14.95833302  132.48199463    0.44000000    2.73000002
   14.96166611  121.67299652    0.46000001    2.73000002
   14.96472168  124.45400238    0.46000001    2.73000002
   14.96805477  135.12600708    0.46000001    2.73000002
   14.97138882  127.19000244    0.47999999    2.75000000
   14.97444439  134.58599854    0.47999999    2.73000002
   14.97499943  133.58599854    0.47999999    2.73000002
   14.97805500  128.71000671    0.47999999    2.73000002
   14.98138809  127.33200073    0.47999999    2.75000000
   14.98444462  128.16000366    0.50000000    2.73000002
   14.98805618  129.06599426    0.51999998    2.73000002
   14.99111176  126.70700073    0.51999998    2.73000002
   14.99722290  126.70700073    0.51999998    2.73000002
   15.00361156  127.03299713    0.51999998    2.73000002
   15.00666714  127.25399780    0.52999997    2.73000002
   15.00833321  127.96199799    0.52999997    2.73000002
   15.01027775  123.00099945    0.52999997    2.73000002
   15.01361084  132.18800354    0.52999997    2.73000002
   15.01666641  126.52300262    0.52999997    2.73000002
   15.01999950  131.83099365    0.51999998    2.73000002
   15.02333355  128.99400330    0.51999998    2.73000002
   15.02638817  130.74299622    0.51999998    2.73000002
   15.02972221  133.54699707    0.51999998    2.73000002
   15.03305531  131.13099670    0.51999998    2.73000002
   15.03611183  139.32099915    0.50000000    2.73000002
   15.04027843  139.32099915    0.51999998    2.75000000
   15.04444504  137.35000610    0.51999998    2.73000002
   15.04777813  127.15399933    0.51999998    2.73000002
   15.05083370  135.47099304    0.47999999    2.73000002
   15.05416679  134.91799927    0.47999999    2.73000002
   15.05749989  132.32699585    0.46000001    2.73000002
   15.06055546  127.89199829    0.47999999    2.75000000
   15.06388950  132.55799866    0.46000001    2.73000002
   15.07666683  127.90399933    0.00000000    0.00000000
   15.07722187  126.17400360    0.44000000    2.73000002
   15.07999992  136.70399475    0.44000000    2.75000000
   15.09583282  136.70399475    0.44000000    2.75000000
   15.10000038  130.82600403    0.44000000    2.73000002
   15.10305595  128.44900513    0.44000000    2.73000002
   15.10638905  125.40799713    0.44000000    2.76999998
   15.10972214  130.85800171    0.44000000    2.76999998
   15.11138916  127.14099884    0.46000001    2.75000000
   15.11333370  126.77500153    0.46000001    2.75000000
   15.11638927  128.89900208    0.44000000    2.75000000
   15.11972237  130.11999512    0.47999999    2.75000000
   15.12305546  121.90100098    0.47999999    2.75000000
   15.12888908  121.90100098    0.47999999    2.75000000
   15.13305569  129.98899841    0.50000000    2.73000002
   15.13611126  124.27799988    0.51999998    2.75000000
   15.13944435  129.24299622    0.52999997    2.75000000
   15.14305496  124.41100311    0.52999997    2.73000002
   15.14472198  131.68800354    0.52999997    2.75000000
   15.14722252  130.64900208    0.52999997    2.75000000
   15.15055561  130.45700073    0.52999997    2.75000000
   15.16305542  135.27799988    0.00000000    0.00000000
   15.16638851  128.72900391    0.56999999    2.75000000
   15.17250061  128.72900391    0.55000001    2.75000000
   15.18527794  118.44200134    0.55000001    2.75000000
   15.18583298  121.66600037    0.58999997    2.75000000
   15.18888855  125.58799744    0.63000000    2.73000002
   15.19222260  113.77999878    0.64999998    2.73000002
   15.19527817  124.81700134    0.64999998    2.75000000
   15.20749950  120.13200378    0.00000000    0.00000000
   15.21083355  128.85800171    0.56999999    2.73000002
   15.21722221  128.85800171    0.56999999    2.75000000
   15.23194408  125.65799713    0.00000000    0.00000000
   15.24138927  118.56600189    0.50000000    2.75000000
   15.24444485  130.36199951    0.50000000    2.75000000
   15.24777794  116.84700012    0.50000000    2.75000000
   15.25083351  123.79900360    0.50000000    2.73000002
   15.26305580  124.52500153    0.00000000    0.00000000
   15.26722240  124.52500153    0.50000000    2.75000000
   15.27138901  127.60299683    0.47999999    2.75000000
   15.27472210  136.29600525    0.47999999    2.75000000
   15.27805519  132.53599548    0.47999999    2.75000000
   15.28111076  120.89099884    0.47999999    2.75000000
   15.28444481  128.09800720    0.46000001    2.75000000
   15.28777790  132.16499329    0.46000001    2.75000000
   15.29222298  133.36300659    0.46000001    2.76999998
   15.29555607  126.90299988    0.44000000    2.75000000
   15.29861164  125.45400238    0.44000000    2.75000000
   15.29944515  127.44300079    0.44000000    2.75000000
   15.30222225  129.59399414    0.44000000    2.75000000
   15.30555534  125.65399933    0.44000000    2.75000000
   15.31027794  125.65399933    0.41999999    2.75000000
   15.31472206  118.30999756    0.41999999    2.75000000
   15.31805515  120.77700043    0.41999999    2.75000000
   15.32138920  118.37999725    0.41999999    2.75000000
   15.32638836  118.44000244    0.44000000    2.75000000
   15.32944393  123.62699890    0.44000000    2.75000000
   15.33277798  115.28900146    0.44000000    2.75000000
   15.33305550  120.84999847    0.44000000    2.75000000
   15.33638859  127.95800018    0.46000001    2.75000000
   15.33944416  131.43299866    0.46000001    2.75000000
   15.34277725  123.29399872    0.46000001    2.75000000
   15.34611034  108.72699738    0.46000001    2.75000000
   15.35861111  118.88700104    0.00000000    0.00000000
   15.36277771  118.88700104    0.51999998    2.75000000
   15.36694431  118.71499634    0.51999998    2.75000000
   15.37027836  113.65799713    0.51999998    2.75000000
   15.37361145  121.83599854    0.51999998    2.75000000
   15.37444496  120.34400177    0.51999998    2.75000000
   15.37722206  127.01799774    0.51999998    2.75000000
   15.38027763  132.85800171    0.50000000    2.75000000
   15.38361073  124.76200104    0.50000000    2.75000000
   15.38666630  126.64800262    0.50000000    2.75000000
   15.39000034  122.81900024    0.47999999    2.75000000
   15.39333344  126.18699646    0.47999999    2.75000000
   15.39638901  124.55599976    0.47999999    2.75000000
   15.39972210  127.26300049    0.46000001    2.75000000
   15.40583324  127.26300049    0.41999999    2.75000000
   15.40999985  125.15899658    0.40000001    2.76999998
   15.41333294  132.60200500    0.40000001    2.76999998
   15.43305588  121.58000183    0.05000000    0.51999998
   15.43611145  124.55300140    0.03000000    0.34000000
   15.43944454  123.61299896    0.03000000    0.05000000
   15.44138908  126.43199921    0.03000000    0.01000000
   15.44333363  117.24700165    0.03000000    0.01000000
   15.44888878  117.24700165    0.03000000    0.01000000
   15.45305538  117.05599976    0.03000000    0.01000000
   15.45611095  122.43900299    0.03000000    0.01000000
   15.45944405  112.24500275    0.03000000    0.01000000
   15.46249962  128.18400574    0.03000000    0.01000000
   15.46583271  116.36900330    0.03000000    0.01000000
   15.46916580  117.48600006    0.03000000    0.01000000
   15.47222137  118.80999756    0.03000000    0.01000000
   15.47472191  113.48600006    0.03000000    0.01000000
   15.48111057  113.15799713    0.03000000    0.01000000
   15.48416710  127.15599823    0.03000000    0.01000000
   15.49666691  117.25499725    0.00000000    0.00000000
   15.50083351  117.25499725    0.03000000    0.01000000
   15.50500011  121.82800293    0.03000000    0.01000000
   15.50833321  127.68299866    0.03000000    0.01000000
   15.51138878  119.86199951    0.03000000    0.01000000
   15.51249981  118.64900208    0.03000000    0.01000000
   15.51500034  119.36799622    0.03000000    0.01000000
   15.51833344  111.78299713    0.03000000    0.01000000
   15.52138901  121.66300201    0.03000000    0.01000000
   15.52472210  119.18399811    0.03000000    0.01000000
   15.52805519  123.42199707    0.03000000    0.01000000
   15.53111076  129.75100708    0.03000000    0.01000000
   15.53444481  120.96800232    0.03000000    0.01000000
   15.53777790  121.29799652    0.03000000    0.01000000
   15.54361153  121.29799652    0.03000000    0.01000000
   15.54777813  123.49700165    0.03000000    0.01000000
   15.55111122  125.17400360    0.03000000    0.01000000
   15.55416679  128.27200317    0.03000000    0.01000000
   15.55749989  126.15200043    0.03000000    0.01000000
   15.56083393  120.80599976    0.03000000    0.01000000
   15.56388950  122.73699951    0.03000000    0.01000000
   15.56722260  124.35199738    0.03000000    0.01000000
   15.57055569  132.02099609    0.03000000    0.01000000
   15.57361126  120.38500214    0.03000000    0.01000000
   15.57694435  132.33200073    0.03000000    0.01000000
   15.57916641  125.82299805    0.03000000    0.01000000
   15.58055592  130.93699646    0.03000000    0.01000000
   15.58749962  130.93699646    0.03000000    0.01000000
   15.59166622  119.23600006    0.03000000    0.01000000
   15.59472179  121.30400085    0.03000000    0.01000000
   15.59805489  125.62799835    0.03000000    0.01000000
   15.60138893  131.92199707    0.03000000    0.01000000
   15.60527802  123.60500336    0.03000000    0.01000000
   15.60833359  132.28199768    0.03000000    0.01000000
   15.61166668  138.23699951    0.03000000    0.01000000
   15.61250019  126.46299744    0.03000000    0.01000000
   15.61527824  127.40599823    0.03000000    0.01000000
   15.62750053  132.49499512    0.00000000    0.00000000
