    HOUR (UT)   FLARE FACTOR    SKY TESTER    SUN TESTER
   12.00666714   -1.00000000   -1.00000000   -1.00000000
   13.28916740  151.55799866    0.00000000    0.00000000
   13.29250050  160.65499878    0.00000000    0.00000000
   13.29583359  145.80299377    0.00000000    0.00000000
   13.29888916  146.13400269    0.00000000    0.00000000
   13.30222225  129.72399902    0.00000000    0.00000000
   13.30555534  134.36599731    0.00000000    0.00000000
   13.30944443  134.36599731    0.00000000    0.00000000
   13.31361103  123.94100189    0.00000000    0.00000000
   13.31694412  134.05299377    0.00000000    0.00000000
   13.31999969  141.52299500    0.00000000    0.00000000
   13.32250023  143.08700562    0.00000000    0.00000000
   13.32361126  135.48599243    0.00000000    0.00000000
   13.32694435  147.94099426    0.00000000    0.00000000
   13.32999992  128.86300659    0.00000000    0.00000000
   13.33333302  121.48000336    0.00000000    0.00000000
   13.33666611  134.99400330    0.00000000    0.00000000
   13.33972168  137.78700256    0.00000000    0.00000000
   13.34305477  133.61399841    0.00000000    0.00000000
   13.34638882  146.75900269    0.00000000    0.00000000
   13.35249996  146.75900269    0.00000000    0.00000000
   13.35638905  141.71499634    2.03999996    0.05000000
   13.35972214  145.51199341    2.03999996    0.05000000
   13.36305618  163.88499451    2.03999996    0.05000000
   13.36638927  167.69099426    2.03999996    0.05000000
   13.36944485  181.02699280    2.03999996    0.05000000
   13.37277794  215.40699768    2.03999996    0.05000000
   13.37583351  234.38600159    2.03999996    0.05000000
   13.37916660  247.16400146    2.03999996    0.05000000
   13.38249969  255.97799683    2.03999996    0.05000000
   14.00027752  135.26199341    2.03999996    0.05000000
   14.00361156  138.24299622    2.03999996    0.05000000
   14.00694466  128.30000305    2.03999996    0.05000000
   14.01000023  124.79499817    2.03999996    0.05000000
   14.01333332  126.18399811    2.03999996    0.05000000
   14.01666641  138.45199585    2.03999996    0.05000000
   14.02055550  138.45199585    2.03999996    0.05000000
   14.02472210  126.50299835    2.03999996    0.05000000
   14.02805519  139.28999329    2.03999996    0.05000000
   14.03138828  133.04299927    2.03999996    0.05000000
   14.03388977  129.24000549    2.03999996    0.05000000
   14.03472233  136.85699463    2.03999996    0.05000000
   14.03805637  134.05700684    2.03999996    0.05000000
   14.04111195  127.13600159    2.03999996    0.05000000
   14.04444504  129.91400146    2.03999996    0.05000000
   14.04777813  131.63400269    2.03999996    0.05000000
   14.05083370  128.80099487    2.03999996    0.05000000
   14.05416679  135.00799561    2.03999996    0.05000000
   14.05749989  135.05000305    2.03999996    0.05000000
   14.06361103  135.05000305    2.03999996    0.05000000
   14.06777763  128.34700012    2.03999996    0.05000000
   14.07083321  129.10600281    2.03999996    0.05000000
   14.07416630  125.98799896    2.03999996    0.05000000
   14.07722187  130.48300171    2.03999996    0.05000000
   14.08055592  134.30400085    2.03999996    0.05000000
   14.08388901  131.59899902    2.03999996    0.05000000
   14.08694458  132.72300720    2.03999996    0.05000000
   14.09027767  128.87199402    2.03999996    0.05000000
   14.09361076  121.15299988    2.03999996    0.05000000
   14.09666634  129.74899292    2.03999996    0.05000000
   14.10000038  137.64399719    2.03999996    0.05000000
   14.10055637  138.91099548    2.03999996    0.05000000
   14.10638905  138.91099548    2.03999996    0.05000000
   14.11055565  131.96000671    2.03999996    0.05000000
   14.11361122  140.66499329    2.03999996    0.05000000
   14.11694431  142.50799561    2.03999996    0.05000000
   14.12027836  140.37399292    2.03999996    0.05000000
   14.12333393  135.50900269    2.03999996    0.05000000
   14.12666702  136.73599243    2.03999996    0.05000000
   14.13000011  135.50000000    2.03999996    0.05000000
   14.13305569  139.51199341    2.03999996    0.05000000
   14.13388920  137.48399353    2.03999996    0.05000000
   14.13666630  135.40400696    2.03999996    0.05000000
   14.14000034  135.25199890    2.03999996    0.05000000
   14.14333344  134.52200317    2.03999996    0.05000000
   14.14916611  134.52200317    2.03999996    0.05000000
   14.15333271  131.18400574    2.03999996    0.05000000
   14.15666676  131.10400391    2.03999996    0.05000000
   14.15972137  137.90899658    2.03999996    0.05000000
   14.16305542  127.57099915    2.03999996    0.05000000
   14.16666698  130.10200500    2.03999996    0.05000000
   14.16722298  126.99500275    2.03999996    0.05000000
   14.17000008  123.92600250    2.03999996    0.05000000
   14.17333412  126.60199738    2.03999996    0.05000000
   14.17666721  122.17400360    2.03999996    0.05000000
   14.17972279  128.90199280    2.03999996    0.05000000
   14.18305588  125.77200317    2.03999996    0.05000000
   14.18638897  114.69999695    2.03999996    0.05000000
   14.19222260  114.69999695    2.03999996    0.05000000
   14.19611073  119.93000031    2.03999996    0.05000000
   14.19944477  131.13699341    2.03999996    0.05000000
   14.20055580  132.59599304    2.03999996    0.05000000
   14.20305538  133.36199951    2.03999996    0.05000000
   14.20638847  132.37399292    2.03999996    0.05000000
   14.20972157  127.67500305    2.03999996    0.05000000
   14.21277714  130.57600403    2.03999996    0.05000000
   14.21611118  132.34399414    2.03999996    0.05000000
   14.21916580  138.60800171    2.03999996    0.05000000
   14.22249985  126.83499908    2.03999996    0.05000000
   14.22583294  123.65599823    2.03999996    0.05000000
   14.22888851  139.38600159    2.03999996    0.05000000
   14.23500061  139.38600159    2.03999996    0.05000000
   14.23916721  126.20700073    2.03999996    0.05000000
   14.24222279  123.46099854    2.03999996    0.05000000
   14.24555588  121.35399628    2.03999996    0.05000000
   14.24888897  120.03900146    2.03999996    0.05000000
   14.25194454  125.41600037    2.03999996    0.05000000
   14.25527763  127.66100311    2.03999996    0.05000000
   14.25833321  124.25800323    2.03999996    0.05000000
   14.26166630  124.29100037    2.03999996    0.05000000
   14.26500034  117.84600067    2.03999996    0.05000000
   14.26722240  122.28600311    2.03999996    0.05000000
   14.26833344  117.96499634    2.03999996    0.05000000
   14.27166653  116.63999939    2.03999996    0.05000000
   14.27777767  116.63999939    2.03999996    0.05000000
   14.28194427  128.41799927    2.03999996    0.05000000
   14.28527832  126.86599731    2.03999996    0.05000000
   14.28833389  129.30400085    2.03999996    0.05000000
   14.29166698  129.86599731    2.03999996    0.05000000
   14.29472256  118.96299744    2.03999996    0.05000000
   14.29805565  121.86799622    2.03999996    0.05000000
   14.30055618  131.95599365    2.03999996    0.05000000
   14.30166721  128.63699341    2.03999996    0.05000000
   14.30500031  132.47399902    2.03999996    0.05000000
   14.30833340  129.23199463    2.03999996    0.05000000
   14.31138897  130.42500305    2.03999996    0.05000000
   14.31472206  129.92500305    2.03999996    0.05000000
   14.32055569  129.92500305    2.03999996    0.05000000
   14.32472229  125.27300262    2.03999996    0.05000000
   14.32805538  130.33200073    2.03999996    0.05000000
   14.33111095  133.47599792    2.03999996    0.05000000
   14.33388901  137.29699707    2.03999996    0.05000000
   14.33472157  132.51199341    2.03999996    0.05000000
   14.33805561  123.05599976    2.03999996    0.05000000
   14.34138870  128.67700195    2.03999996    0.05000000
   14.34444427  121.26200104    2.03999996    0.05000000
   14.34777737  132.57499695    2.03999996    0.05000000
   14.35111141  123.93299866    2.03999996    0.05000000
   14.35416698  123.87200165    2.03999996    0.05000000
   14.35750008  129.48500061    2.03999996    0.05000000
   14.36361122  129.48500061    2.03999996    0.05000000
   14.36750031  132.83500671    2.03999996    0.05000000
   14.37083340  127.05799866    2.03999996    0.05000000
   14.37416649  123.04100037    2.03999996    0.05000000
   14.37722206  127.21800232    2.03999996    0.05000000
   14.38055611  141.54299927    2.03999996    0.05000000
   14.38388920  140.55999756    2.03999996    0.05000000
   14.38694477  125.23400116    2.03999996    0.05000000
   14.39027786  124.30699921    2.03999996    0.05000000
   14.39361095  138.60899353    2.03999996    0.05000000
   14.39666653  132.27499390    2.03999996    0.05000000
   14.39999962  130.78199768    2.03999996    0.05000000
   14.40055561  134.13900757    2.03999996    0.05000000
   14.40638828  134.13900757    2.03999996    0.05000000
   14.41055489  133.96699524    2.03999996    0.05000000
   14.41361046  129.06799316    2.03999996    0.05000000
   14.41694450  134.76300049    2.03999996    0.05000000
   14.42027855  132.41999817    2.03999996    0.05000000
   14.42333412  132.29400635    2.03999996    0.05000000
   14.42666721  135.13900757    2.03999996    0.05000000
   14.42972279  129.97799683    2.03999996    0.05000000
   14.43305588  132.13200378    2.03999996    0.05000000
   14.43388939  128.24699402    2.03999996    0.05000000
   14.43666649  131.97200012    2.03999996    0.05000000
   14.44000053  135.33500671    2.03999996    0.05000000
   14.44333363  136.07000732    2.03999996    0.05000000
   14.44916630  136.07000732    2.03999996    0.05000000
   14.45333290  145.12100220    2.03999996    0.05000000
   14.45638847  123.00000000    2.03999996    0.05000000
   14.45972157  130.36900330    2.03999996    0.05000000
   14.46305561  139.11000061    2.03999996    0.05000000
   14.46611118  132.91400146    2.03999996    0.05000000
   14.46722221  130.65499878    2.03999996    0.05000000
   14.46972179  134.95100403    2.03999996    0.05000000
   14.47305489  135.99499512    2.03999996    0.05000000
   14.47638798  141.73599243    2.03999996    0.05000000
   14.47944355  133.59800720    2.03999996    0.05000000
   14.48277760  129.48199463    2.03999996    0.05000000
   14.48611164  128.90499878    2.03999996    0.05000000
   14.49222279  128.90499878    2.03999996    0.05000000
   14.49638939  133.20199585    2.03999996    0.05000000
   14.49944496  140.34300232    2.03999996    0.05000000
   14.50055599  135.85299683    2.03999996    0.05000000
   14.50333309  135.01699829    2.03999996    0.05000000
   14.50638866  142.10899353    2.03999996    0.05000000
   14.50972176  125.42199707    2.03999996    0.05000000
   14.51277733  137.26400757    2.03999996    0.05000000
   14.51611137  123.50599670    2.03999996    0.05000000
   14.51944447  139.29600525    2.03999996    0.05000000
   14.52250004  135.76899719    2.03999996    0.05000000
   14.52583313  136.52299500    2.03999996    0.05000000
   14.52916622  138.12899780    2.03999996    0.05000000
   14.53472233  138.12899780    2.03999996    0.05000000
   14.53888893  138.85400391    2.03999996    0.05000000
   14.54222298  131.13800049    2.03999996    0.05000000
   14.54555607  127.37500000    2.03999996    0.05000000
   14.54888916  138.90199280    2.03999996    0.05000000
   14.55194473  131.85099792    2.03999996    0.05000000
   14.55527782  130.74200439    2.03999996    0.05000000
   14.55833340  126.62100220    2.03999996    0.05000000
   14.56166649  132.56900024    2.03999996    0.05000000
   14.56500053  134.48699951    2.03999996    0.05000000
   14.56722260  132.28799438    2.03999996    0.05000000
   14.56861115  134.64700317    2.03999996    0.05000000
   14.57166672  132.57800293    2.03999996    0.05000000
   14.57777786  132.57800293    2.03999996    0.05000000
   14.58194447  129.17199707    2.03999996    0.05000000
   14.58500004  132.61700439    2.03999996    0.05000000
   14.58833313  126.92099762    2.03999996    0.05000000
   14.59138870  136.08500671    2.03999996    0.05000000
   14.59472179  136.87399292    2.03999996    0.05000000
   14.59805489  135.25500488    2.03999996    0.05000000
   14.60055637  137.08099365    2.03999996    0.05000000
   14.60166740  131.99600220    2.03999996    0.05000000
   14.60472298  136.08599854    2.03999996    0.05000000
   14.60805607  139.66200256    2.03999996    0.05000000
   14.61138916  141.78199768    2.03999996    0.05000000
   14.61444473  129.70700073    2.03999996    0.05000000
   14.62055588  129.70700073    2.03999996    0.05000000
   14.62472248  138.54699707    2.03999996    0.05000000
   14.62805557  135.59199524    2.03999996    0.05000000
   14.63111115  134.93099976    2.03999996    0.05000000
   14.63388920  140.88299561    2.03999996    0.05000000
   14.63500023  144.44000244    2.03999996    0.05000000
   14.63805580  134.51699829    2.03999996    0.05000000
   14.64138889  137.91200256    2.03999996    0.05000000
   14.64444447  200.88400269    2.03999996    0.05000000
   14.64777756  189.57699585    2.03999996    0.05000000
   14.65111065  137.23399353    2.03999996    0.05000000
   14.65416622  138.56700134    2.03999996    0.05000000
   14.65749931  134.99400330    2.03999996    0.05000000
   14.66333294  134.99400330    2.03999996    0.05000000
   14.66750050  156.38699341    2.03999996    0.05000000
   14.67083359  143.72599792    2.03999996    0.05000000
   14.67388916  146.53100586    2.03999996    0.05000000
   14.67722225  145.74800110    2.03999996    0.05000000
   14.68027782  148.94099426    2.03999996    0.05000000
   14.68361092  139.19400024    2.03999996    0.05000000
   14.68694496  143.83599854    2.03999996    0.05000000
   14.69000053  141.83900452    2.03999996    0.05000000
   14.69333363  137.77499390    2.03999996    0.05000000
   14.69666672  146.03599548    2.03999996    0.05000000
   14.69999981  144.18200684    2.03999996    0.05000000
   14.70055580  139.02499390    2.03999996    0.05000000
   14.70611095  139.02499390    2.03999996    0.05000000
   14.71027756  143.54100037    2.03999996    0.05000000
   14.71361065  149.39500427    2.03999996    0.05000000
   14.71694374  143.63499451    2.03999996    0.05000000
   14.71999931  149.76400757    2.03999996    0.05000000
   14.72333336  147.33900452    2.03999996    0.05000000
   14.72666645  147.17799377    2.03999996    0.05000000
   14.72972202  158.41600037    2.03999996    0.05000000
   14.73305511  138.99000549    2.03999996    0.05000000
   14.73388958  147.27699280    2.03999996    0.05000000
   14.73666668  153.19200134    2.03999996    0.05000000
   14.73972225  166.61099243    2.03999996    0.05000000
   14.74305534  177.28300476    2.03999996    0.05000000
   14.74916649  177.28300476    2.03999996    0.05000000
   14.75305557  152.31900024    2.03999996    0.05000000
   14.75638866  153.18899536    2.03999996    0.05000000
   14.75972176  150.83900452    2.03999996    0.05000000
   14.76277733  158.68299866    2.03999996    0.05000000
   14.76611137  154.57200623    2.03999996    0.05000000
   14.76722240  161.82099915    2.03999996    0.05000000
   14.76972198  157.64900208    2.03999996    0.05000000
   14.77277756  148.97500610    2.03999996    0.05000000
   14.77611065  172.16999817    2.03999996    0.05000000
   14.77916622  157.49899292    2.03999996    0.05000000
   14.78249931  164.31100464    2.03999996    0.05000000
   14.78583336  155.86999512    2.03999996    0.05000000
   14.79194450  155.86999512    2.03999996    0.05000000
   14.79611111  171.92199707    2.03999996    0.05000000
   14.79916668  172.11900330    2.03999996    0.05000000
   14.80055618  179.77099609    2.03999996    0.05000000
   14.80277824  174.73399353    2.03999996    0.05000000
   14.80611134  173.82099915    2.03999996    0.05000000
   14.80944443  173.30499268    2.03999996    0.05000000
   14.81250000  167.49499512    2.03999996    0.05000000
   14.81583309  154.57299805    2.03999996    0.05000000
   14.81916618  164.96600342    2.03999996    0.05000000
   14.82222176  158.63499451    2.03999996    0.05000000
   14.82555580  167.57400513    2.03999996    0.05000000
   14.82861137  148.51199341    2.03999996    0.05000000
   14.83472157  148.51199341    2.03999996    0.05000000
   14.83888817  149.91999817    2.03999996    0.05000000
   14.84222221  147.33599854    2.03999996    0.05000000
   14.84527779  151.07699585    2.03999996    0.05000000
   14.84861088  139.16600037    2.03999996    0.05000000
   14.85194492  159.45399475    2.03999996    0.05000000
   14.85500050  148.38000488    2.03999996    0.05000000
   14.85833359  142.55700684    2.03999996    0.05000000
   14.86166668  143.88699341    2.03999996    0.05000000
   14.86472225  142.95500183    2.03999996    0.05000000
   14.86722279  146.16400146    2.03999996    0.05000000
   14.86833382  146.58700562    2.03999996    0.05000000
   14.87166691  144.30499268    2.03999996    0.05000000
   14.87750053  144.30499268    2.03999996    0.05000000
   14.88166714  147.92999268    2.03999996    0.05000000
   14.88500023  145.16000366    2.03999996    0.05000000
   14.88805580  140.92399597    2.03999996    0.05000000
   14.89138889  141.92599487    2.03999996    0.05000000
   14.89472198  141.64900208    2.03999996    0.05000000
   14.89777756  138.08099365    2.03999996    0.05000000
   14.90055561  143.60699463    2.03999996    0.05000000
   14.90138817  132.47799683    2.03999996    0.05000000
   14.90472221  145.97599792    2.03999996    0.05000000
   14.90805531  146.77799988    2.03999996    0.05000000
   14.91111088  142.86700439    2.03999996    0.05000000
   14.91444397  142.95599365    2.03999996    0.05000000
   14.92055607  142.95599365    2.03999996    0.05000000
   14.92444515  136.68800354    2.03999996    0.05000000
   14.92777824  133.24299622    2.03999996    0.05000000
   14.93111134  135.65899658    2.03999996    0.05000000
   14.93388939  136.67199707    2.03999996    0.05000000
   14.93472195  136.82600403    2.03999996    0.05000000
   14.93777752  136.24699402    2.03999996    0.05000000
   14.94111156  136.85600281    2.03999996    0.05000000
   14.94444466  128.07400513    2.03999996    0.05000000
   14.94750023  130.55700684    2.03999996    0.05000000
   14.95083332  133.70399475    2.03999996    0.05000000
   14.95388889  134.97500610    2.03999996    0.05000000
   14.95722198  133.75399780    2.03999996    0.05000000
   14.96333313  133.75399780    2.03999996    0.05000000
   14.96749973  134.57000732    2.03999996    0.05000000
   14.97055531  133.33500671    2.03999996    0.05000000
   14.97388840  134.13000488    2.03999996    0.05000000
   14.97722149  133.00000000    2.03999996    0.05000000
   14.98027706  137.77099609    2.03999996    0.05000000
   14.98361111  138.32800293    2.03999996    0.05000000
   14.98694515  136.05499268    2.03999996    0.05000000
   14.99000072  134.96400452    2.03999996    0.05000000
   14.99333382  135.31399536    2.03999996    0.05000000
   14.99638939  133.71499634    2.03999996    0.05000000
   14.99972248  141.82099915    2.03999996    0.05000000
   15.00055599  134.41099548    2.03999996    0.05000000
   15.02111053  134.41099548    2.03999996    0.05000000
   15.02527714  137.01499939    2.03999996    0.05000000
   15.02861118  129.26199341    2.03999996    0.05000000
   15.03166676  142.69200134    2.03999996    0.05000000
   15.03388977  133.85899353    2.03999996    0.05000000
   15.03555584  130.67799377    2.03999996    0.05000000
   15.03861141  132.27400208    2.03999996    0.05000000
   15.04194450  136.68200684    2.03999996    0.05000000
   15.04527855  133.32499695    2.03999996    0.05000000
   15.04833412  130.61500549    2.03999996    0.05000000
   15.05166721  138.34899902    2.03999996    0.05000000
   15.05500031  143.17500305    2.03999996    0.05000000
   15.05805588  130.92799377    2.03999996    0.05000000
   15.06388950  130.92799377    2.03999996    0.05000000
   15.06805515  143.50000000    2.03999996    0.05000000
   15.07138920  142.01800537    2.03999996    0.05000000
   15.07444477  137.30000305    2.03999996    0.05000000
   15.07777786  138.65899658    2.03999996    0.05000000
   15.08111095  135.84800720    2.03999996    0.05000000
   15.08416653  138.28399658    2.03999996    0.05000000
   15.08749962  137.50999451    2.03999996    0.05000000
   15.09083271  144.51199341    2.03999996    0.05000000
   15.09388828  144.09199524    2.03999996    0.05000000
   15.09722233  131.68200684    2.03999996    0.05000000
   15.10055637  129.32499695    2.03999996    0.05000000
   15.10083389  129.97700500    2.03999996    0.05000000
   15.10666752  129.97700500    2.03999996    0.05000000
   15.11083412  135.18600464    2.03999996    0.05000000
   15.11416721  128.50999451    2.03999996    0.05000000
   15.11750031  134.86700439    2.03999996    0.05000000
   15.12055588  133.71499634    2.03999996    0.05000000
   15.12388897  128.09500122    2.03999996    0.05000000
   15.12722206  138.53300476    2.03999996    0.05000000
   15.13027763  135.53100586    2.03999996    0.05000000
   15.13361073  129.65899658    2.03999996    0.05000000
   15.13416672  141.07899475    2.03999996    0.05000000
   15.13722229  140.85800171    2.03999996    0.05000000
   15.14027786  130.01499939    2.03999996    0.05000000
   15.14361095  127.08499908    2.03999996    0.05000000
   15.14972210  127.08499908    2.03999996    0.05000000
   15.15388870  130.44900513    2.03999996    0.05000000
   15.15694427  130.44999695    2.03999996    0.05000000
   15.16027737  127.89800262    2.03999996    0.05000000
   15.16333294  127.52100372    2.03999996    0.05000000
   15.16666698  133.11799622    2.03999996    0.05000000
   15.16750050  129.36000061    2.03999996    0.05000000
   15.17027855  135.40600586    2.03999996    0.05000000
   15.17333412  134.88699341    2.03999996    0.05000000
   15.17666721  135.67500305    2.03999996    0.05000000
   15.18000031  135.02699280    2.03999996    0.05000000
   15.18305588  135.47500610    2.03999996    0.05000000
   15.18638897  126.97299957    2.03999996    0.05000000
   15.19250011  126.97299957    2.03999996    0.05000000
   15.19666672  135.40199280    2.03999996    0.05000000
   15.19999981  138.24699402    2.03999996    0.05000000
   15.20083332  142.67999268    2.03999996    0.05000000
   15.20361137  132.44700623    2.03999996    0.05000000
   15.20694447  138.18899536    2.03999996    0.05000000
   15.21000004  135.26899719    2.03999996    0.05000000
   15.21333313  134.31199646    2.03999996    0.05000000
   15.21638870  128.75700378    2.03999996    0.05000000
   15.21972179  133.65400696    2.03999996    0.05000000
   15.22305489  123.31099701    2.03999996    0.05000000
   15.22611046  129.91700745    2.03999996    0.05000000
   15.22944355  125.06500244    2.03999996    0.05000000
   15.23527813  125.06500244    2.03999996    0.05000000
   15.23944473  133.97200012    2.03999996    0.05000000
   15.24277782  137.67300415    2.03999996    0.05000000
   15.24583340  141.44099426    2.03999996    0.05000000
   15.24916649  137.19999695    2.03999996    0.05000000
   15.25249958  132.51400757    2.03999996    0.05000000
   15.25555515  131.92799377    2.03999996    0.05000000
   15.25888920  135.75799561    2.03999996    0.05000000
   15.26222229  129.65499878    2.03999996    0.05000000
   15.26527786  128.97399902    2.03999996    0.05000000
   15.36583328   -1.00000000   -1.00000000   -1.00000000
   15.51472187   -1.00000000   -1.00000000   -1.00000000
   15.68833351   -1.00000000   -1.00000000   -1.00000000
   15.86250019   77.64309692    2.03999996    0.05000000
   15.86611176  149.07699585    2.03999996    0.05000000
   15.86916637  162.30099487    2.03999996    0.05000000
   15.87250042  162.65100098    2.03999996    0.05000000
   15.87583351  166.52600098    2.03999996    0.05000000
   15.87888908  159.00999451    2.03999996    0.05000000
   15.88305569  159.00999451    2.03999996    0.05000000
   15.88722229  157.68400574    2.03999996    0.05000000
   15.89027786  155.12300110    2.03999996    0.05000000
   15.89361095  156.69700623    2.03999996    0.05000000
   15.89583302  155.10099792    2.03999996    0.05000000
   15.89722252  161.17999268    2.03999996    0.05000000
   15.90027714  167.13699341    2.03999996    0.05000000
   15.90361118  184.88200378    2.03999996    0.05000000
   15.90694427  200.66600037    2.03999996    0.05000000
   15.90999985  170.41299438    2.03999996    0.05000000
   15.91333294  164.28799438    2.03999996    0.05000000
   15.91666698  186.70500183    2.03999996    0.05000000
   15.91972256  169.54499817    2.03999996    0.05000000
   15.92583370  169.54499817    2.03999996    0.05000000
   15.93000031  171.95300293    2.03999996    0.05000000
   15.93333340  169.13000488    2.03999996    0.05000000
   15.93638897  166.53599548    2.03999996    0.05000000
   15.93972206  170.01600647    2.03999996    0.05000000
   15.94305515  169.99400330    2.03999996    0.05000000
   15.94611073  162.21299744    2.03999996    0.05000000
   15.94944477  174.98300171    2.03999996    0.05000000
   15.95249939  166.92199707    2.03999996    0.05000000
   15.95583344  165.57800293    2.03999996    0.05000000
   15.95916653  166.71400452    2.03999996    0.05000000
   15.96249962  161.81799316    2.03999996    0.05000000
   15.96277714  164.11000061    2.03999996    0.05000000
   15.96888828  164.11000061    2.03999996    0.05000000
   15.97277737  156.80499268    2.03999996    0.05000000
   15.97611046  153.32899475    2.03999996    0.05000000
   15.97944355  150.56799316    2.03999996    0.05000000
   15.98249912  152.41400146    2.03999996    0.05000000
   15.98583317  159.93699646    2.03999996    0.05000000
   15.98916721  150.36099243    2.03999996    0.05000000
   15.99222279  161.75300598    2.03999996    0.05000000
   15.99555588  158.86599731    2.03999996    0.05000000
   15.99611092  154.61500549    2.03999996    0.05000000
   15.99916649  166.59199524    2.03999996    0.05000000
   16.00250053  154.60800171    2.03999996    0.05000000
   16.00555611  156.12199402    2.03999996    0.05000000
   16.01166725  156.12199402    2.03999996    0.05000000
   16.01583290  153.81900024    2.03999996    0.05000000
   16.01888847  155.54600525    2.03999996    0.05000000
   16.02222252  153.98800659    2.03999996    0.05000000
   16.02527809  157.56100464    2.03999996    0.05000000
   16.02861023  148.06100464    2.03999996    0.05000000
   16.02944374  145.23300171    2.03999996    0.05000000
   16.03222275  146.19999695    2.03999996    0.05000000
   16.03555489  152.42999268    2.03999996    0.05000000
   16.03861046  152.60200500    2.03999996    0.05000000
   16.04194450  149.12199402    2.03999996    0.05000000
   16.04527664  146.69299316    2.03999996    0.05000000
   16.04861069  145.18499756    2.03999996    0.05000000
   16.05444336  145.18499756    2.03999996    0.05000000
   16.05861092  147.60299683    2.03999996    0.05000000
   16.06166649  145.26499939    2.03999996    0.05000000
   16.06277657  149.54600525    2.03999996    0.05000000
   16.06527710  147.33200073    2.03999996    0.05000000
   16.06861115  153.02999878    2.03999996    0.05000000
   16.07166672  148.62699890    2.03999996    0.05000000
   16.07500076  141.48899841    2.03999996    0.05000000
   16.07833481  141.22799683    2.03999996    0.05000000
   16.08139038  143.49499512    2.03999996    0.05000000
   16.08472252  142.55999756    2.03999996    0.05000000
   16.08805656  144.09899902    2.03999996    0.05000000
   16.09111214  148.77200317    2.03999996    0.05000000
   16.09722328  148.77200317    2.03999996    0.05000000
   16.10138893  140.63600159    2.03999996    0.05000000
   16.10472298  146.02000427    2.03999996    0.05000000
   16.10777855  150.55999756    2.03999996    0.05000000
   16.11111069  149.51600647    2.03999996    0.05000000
   16.11444473  148.96800232    2.03999996    0.05000000
   16.11750031  150.55999756    2.03999996    0.05000000
   16.12083435  146.85000610    2.03999996    0.05000000
   16.12416649  142.67799377    2.03999996    0.05000000
   16.12722206  144.05900574    2.03999996    0.05000000
   16.12944412  139.01300049    2.03999996    0.05000000
   16.13083267  143.39700317    2.03999996    0.05000000
   16.13416672  140.23500061    2.03999996    0.05000000
   16.14027786  140.23500061    2.03999996    0.05000000
   16.14416695  149.99000549    2.03999996    0.05000000
   16.14749908  140.91499329    2.03999996    0.05000000
   16.15083313  142.29499817    2.03999996    0.05000000
   16.15388870  140.39199829    2.03999996    0.05000000
   16.15722275  149.10499573    2.03999996    0.05000000
   16.16055489  142.39100647    2.03999996    0.05000000
   16.16277695  144.28599548    2.03999996    0.05000000
   16.16416550  147.79299927    2.03999996    0.05000000
   16.16722107  149.17300415    2.03999996    0.05000000
   16.17055511  153.99000549    2.03999996    0.05000000
   16.17388916  155.69000244    2.03999996    0.05000000
   16.17694473  156.28799438    2.03999996    0.05000000
   16.18305397  156.28799438    2.03999996    0.05000000
   16.18722153  159.12399292    2.03999996    0.05000000
   16.19027710  150.62800598    2.03999996    0.05000000
   16.19361115  160.79899597    2.03999996    0.05000000
   16.19610977  146.86399841    2.03999996    0.05000000
   16.19722176  160.00599670    2.03999996    0.05000000
   16.20055580  154.02400208    2.03999996    0.05000000
   16.20388985  148.70100403    2.03999996    0.05000000
   16.20694542  154.47799683    2.03999996    0.05000000
   16.21027946  151.10299683    2.03999996    0.05000000
   16.21333504  152.85899353    2.03999996    0.05000000
   16.21666718  142.95700073    2.03999996    0.05000000
   16.22000122  141.94200134    2.03999996    0.05000000
   16.22583389  141.94200134    2.03999996    0.05000000
   16.23000145  139.97700500    2.03999996    0.05000000
   16.23305511  141.84399414    2.03999996    0.05000000
   16.23638916  143.63900757    2.03999996    0.05000000
   16.23972321  139.52499390    2.03999996    0.05000000
   16.24277878  146.07499695    2.03999996    0.05000000
   16.24611092  140.96499634    2.03999996    0.05000000
   16.24944496  158.72099304    2.03999996    0.05000000
   16.25250053  156.09399414    2.03999996    0.05000000
   16.25583267  147.69599915    2.03999996    0.05000000
   16.25888824  163.48899841    2.03999996    0.05000000
   16.26250076  154.65499878    2.03999996    0.05000000
   16.26277733  152.47700500    2.03999996    0.05000000
   16.26861000  152.47700500    2.03999996    0.05000000
   16.27277756  167.56799316    2.03999996    0.05000000
   16.27611160  168.47599792    2.03999996    0.05000000
   16.27916718  152.51899719    2.03999996    0.05000000
   16.28249931  146.91799927    2.03999996    0.05000000
   16.28583336  153.88499451    2.03999996    0.05000000
   16.28888893  155.00399780    2.03999996    0.05000000
   16.29222107  137.66799927    2.03999996    0.05000000
   16.29527664  156.98300171    2.03999996    0.05000000
   16.29638863  149.90100098    2.03999996    0.05000000
   16.29916573  150.71499634    2.03999996    0.05000000
   16.30249977  150.69900513    2.03999996    0.05000000
   16.30555534  140.64900208    2.03999996    0.05000000
   16.31138802  140.64900208    2.03999996    0.05000000
   16.31555557  145.21699524    2.03999996    0.05000000
   16.31888962  138.19000244    2.03999996    0.05000000
   16.32222366  150.53399658    2.03999996    0.05000000
   16.32527924  140.60200500    2.03999996    0.05000000
   16.32861137  145.40899658    2.03999996    0.05000000
   16.32972336  138.36099243    2.03999996    0.05000000
   16.33222389  149.01600647    2.03999996    0.05000000
   16.33555603  136.28599548    2.03999996    0.05000000
   16.33861160  145.16400146    2.03999996    0.05000000
   16.34194565  150.81599426    2.03999996    0.05000000
   16.34527779  141.07699585    2.03999996    0.05000000
   16.34833336  146.57600403    2.03999996    0.05000000
   16.35444450  146.57600403    2.03999996    0.05000000
   16.35861206  143.59399414    2.03999996    0.05000000
   16.36166763  149.99400330    2.03999996    0.05000000
   16.36305618  146.56300354    2.03999996    0.05000000
   16.36527824  136.16299438    2.03999996    0.05000000
   16.36861038  140.05299377    2.03999996    0.05000000
   16.37166595  135.61099243    2.03999996    0.05000000
   16.37500000  140.38600159    2.03999996    0.05000000
   16.37833405  144.27699280    2.03999996    0.05000000
   16.38166618  139.90100098    2.03999996    0.05000000
   16.38472176  140.96699524    2.03999996    0.05000000
   16.38805580  140.29499817    2.03999996    0.05000000
   16.39111137  144.02699280    2.03999996    0.05000000
   16.39722252  144.02699280    2.03999996    0.05000000
   16.40138817  142.45300293    2.03999996    0.05000000
   16.40444374  151.87699890    2.03999996    0.05000000
   16.40777779  155.05499268    2.03999996    0.05000000
   16.41110992  144.60600281    2.03999996    0.05000000
   16.41416550  144.10600281    2.03999996    0.05000000
   16.41749954  142.89999390    2.03999996    0.05000000
   16.42083359  144.02799988    2.03999996    0.05000000
   16.42388916  151.26899719    2.03999996    0.05000000
   16.42722130  141.19299316    2.03999996    0.05000000
   16.42944336  142.11900330    2.03999996    0.05000000
   16.43083191  147.81300354    2.03999996    0.05000000
   16.43416595  142.49899292    2.03999996    0.05000000
   16.43999863  142.49899292    2.03999996    0.05000000
   16.44416618  157.64599609    2.03999996    0.05000000
   16.44749832  140.06100464    2.03999996    0.05000000
   16.45055580  144.58299255    2.03999996    0.05000000
   16.45388985  142.35299683    2.03999996    0.05000000
   16.45722389  132.13200378    2.03999996    0.05000000
   16.46027946  146.41400146    2.03999996    0.05000000
   16.46305656  147.91700745    2.03999996    0.05000000
   16.46389008  139.51699829    2.03999996    0.05000000
   16.46722221  142.08999634    2.03999996    0.05000000
   16.47027779  147.58200073    2.03999996    0.05000000
   16.47361183  131.10099792    2.03999996    0.05000000
   16.47694588  135.18499756    2.03999996    0.05000000
   16.48277855  135.18499756    2.03999996    0.05000000
   16.48694420  138.36900330    2.03999996    0.05000000
   16.49027824  142.25500488    2.03999996    0.05000000
   16.49361229  145.72500610    2.03999996    0.05000000
   16.49638939  137.24200439    2.03999996    0.05000000
   16.49694443  138.94700623    2.03999996    0.05000000
   16.50027847  138.21899414    2.03999996    0.05000000
   16.50361061  142.12199402    2.03999996    0.05000000
   16.50666618  146.66700745    2.03999996    0.05000000
   16.51000023  141.53199768    2.03999996    0.05000000
   16.51305580  143.53399658    2.03999996    0.05000000
   16.51638794  144.10600281    2.03999996    0.05000000
   16.51972198  145.46200562    2.03999996    0.05000000
   16.52583313  145.46200562    2.03999996    0.05000000
   16.53000069  140.52499390    2.03999996    0.05000000
   16.53305435  139.96299744    2.03999996    0.05000000
   16.53638840  142.96600342    2.03999996    0.05000000
   16.53944397  141.88800049    2.03999996    0.05000000
   16.54277802  139.92300415    2.03999996    0.05000000
   16.54611015  146.08999634    2.03999996    0.05000000
   16.54916573  141.54400635    2.03999996    0.05000000
   16.55249977  139.14300537    2.03999996    0.05000000
   16.55583191  147.27600098    2.03999996    0.05000000
   16.55888748  149.23800659    2.03999996    0.05000000
   16.56222153  153.11099243    2.03999996    0.05000000
   16.56333351  145.01300049    2.03999996    0.05000000
   16.56861115  145.01300049    2.03999996    0.05000000
   16.57277870  139.22799683    2.03999996    0.05000000
   16.57611275  138.58399963    2.03999996    0.05000000
   16.57916832  143.63800049    2.03999996    0.05000000
   16.58250046  151.20300293    2.03999996    0.05000000
   16.58583450  136.54200745    2.03999996    0.05000000
   16.58889008  132.21299744    2.03999996    0.05000000
   16.59222221  140.49499512    2.03999996    0.05000000
   16.59583473  137.86300659    2.03999996    0.05000000
   16.59638977  142.65199280    2.03999996    0.05000000
   16.59916687  136.56199646    2.03999996    0.05000000
   16.60250092  144.80599976    2.03999996    0.05000000
   16.60583305  139.35000610    2.03999996    0.05000000
   16.61138916  139.35000610    2.03999996    0.05000000
   16.61555672  143.13200378    2.03999996    0.05000000
   16.61888885  141.57400513    2.03999996    0.05000000
   16.62194443  143.05799866    2.03999996    0.05000000
   16.62527847  139.57000732    2.03999996    0.05000000
   16.62861061  139.40299988    2.03999996    0.05000000
   16.62972260  141.78599548    2.03999996    0.05000000
   16.63222313  141.48899841    2.03999996    0.05000000
   16.63527679  136.45199585    2.03999996    0.05000000
   16.63861084  139.57400513    2.03999996    0.05000000
   16.64194489  136.33900452    2.03999996    0.05000000
   16.64500046  136.40400696    2.03999996    0.05000000
   16.64833260  132.12800598    2.03999996    0.05000000
   16.65416718  132.12800598    2.03999996    0.05000000
   16.65833282  139.42599487    2.03999996    0.05000000
   16.66166687  143.69900513    2.03999996    0.05000000
   16.66305542  137.66799927    2.03999996    0.05000000
   16.66527748  146.83500671    2.03999996    0.05000000
   16.66860962  139.93200684    2.03999996    0.05000000
   16.67194366  141.59500122    2.03999996    0.05000000
   16.67499924  136.61599731    2.03999996    0.05000000
   16.67833328  138.94400024    2.03999996    0.05000000
   16.68166542  141.00000000    2.03999996    0.05000000
   16.68472099  137.68099976    2.03999996    0.05000000
   16.68805504  132.86199951    2.03999996    0.05000000
   16.69138718  140.88400269    2.03999996    0.05000000
   16.69722176  140.88400269    2.03999996    0.05000000
   16.70138931  150.28100586    2.03999996    0.05000000
   16.70444489  142.58999634    2.03999996    0.05000000
   16.70777893  152.53300476    2.03999996    0.05000000
   16.71111107  140.02200317    2.03999996    0.05000000
   16.71416664  150.02999878    2.03999996    0.05000000
   16.71750069  148.56500244    2.03999996    0.05000000
   16.72055626  143.00300598    2.03999996    0.05000000
   16.72389030  158.51699829    2.03999996    0.05000000
   16.72722244  144.77699280    2.03999996    0.05000000
   16.72972298  160.98199463    2.03999996    0.05000000
   16.73055649  166.42300415    2.03999996    0.05000000
   16.73388863  166.03300476    2.03999996    0.05000000
   16.73999977  166.03300476    2.03999996    0.05000000
   16.74416733  163.48699951    2.03999996    0.05000000
   16.74749947  170.63299561    2.03999996    0.05000000
   16.75055504  169.31599426    2.03999996    0.05000000
   16.75388908  162.69099426    2.03999996    0.05000000
   16.75694466  165.12199402    2.03999996    0.05000000
   16.76027870  169.82800293    2.03999996    0.05000000
   16.76305580  166.12300110    2.03999996    0.05000000
   16.76388931  163.97999573    2.03999996    0.05000000
   16.76722145  164.82800293    2.03999996    0.05000000
   16.77055550  171.01199341    2.03999996    0.05000000
   16.77361107  167.20799255    2.03999996    0.05000000
   16.77694511  158.07099915    2.03999996    0.05000000
   16.78277779  158.07099915    2.03999996    0.05000000
   16.78694344  161.08999634    2.03999996    0.05000000
   16.79027748  155.89300537    2.03999996    0.05000000
   16.79333305  163.05799866    2.03999996    0.05000000
   16.79638863  154.39700317    2.03999996    0.05000000
   16.79694366  159.32400513    2.03999996    0.05000000
   16.80027771  151.86000061    2.03999996    0.05000000
   16.80360985  162.03300476    2.03999996    0.05000000
   16.80666542  151.54299927    2.03999996    0.05000000
   16.80999947  164.32899475    2.03999996    0.05000000
   16.81333351  153.19400024    2.03999996    0.05000000
   16.81638718  143.97999573    2.03999996    0.05000000
   16.81972313  154.95599365    2.03999996    0.05000000
   16.82555580  154.95599365    2.03999996    0.05000000
   16.82972336  149.94299316    2.03999996    0.05000000
   16.83305550  154.05799866    2.03999996    0.05000000
   16.83638954  147.58500671    2.03999996    0.05000000
   16.83944511  143.53399658    2.03999996    0.05000000
   16.84277916  155.68899536    2.03999996    0.05000000
   16.84583473  149.65199280    2.03999996    0.05000000
   16.84916687  152.84700012    2.03999996    0.05000000
   16.85250092  154.64300537    2.03999996    0.05000000
   16.85555649  155.98500061    2.03999996    0.05000000
   16.85888863  140.47399902    2.03999996    0.05000000
   16.86222267  156.94400024    2.03999996    0.05000000
   16.86305618  162.33500671    2.03999996    0.05000000
   16.88361168  162.33500671    2.03999996    0.05000000
   16.88777733  160.80599976    2.03999996    0.05000000
   16.89111137  190.36599731    2.03999996    0.05000000
   16.89416695  159.21899414    2.03999996    0.05000000
   16.89638901  154.86999512    2.03999996    0.05000000
   16.89805603  155.53500366    2.03999996    0.05000000
   16.90111160  160.21899414    2.03999996    0.05000000
   16.90444374  160.63499451    2.03999996    0.05000000
   16.90777779  165.51400757    2.03999996    0.05000000
   16.91083336  164.86399841    2.03999996    0.05000000
   16.91416550  152.54600525    2.03999996    0.05000000
   16.91749954  144.39100647    2.03999996    0.05000000
   16.92055511  150.91999817    2.03999996    0.05000000
   16.92638779  150.91999817    2.03999996    0.05000000
   16.93055534  170.25599670    2.03999996    0.05000000
   16.93361092  156.45700073    2.03999996    0.05000000
   16.93694305  177.61099243    2.03999996    0.05000000
   16.94027710  150.48800659    2.03999996    0.05000000
   16.94333267  146.96499634    2.03999996    0.05000000
   16.94666672  146.95199585    2.03999996    0.05000000
   16.95000076  154.99099731    2.03999996    0.05000000
   16.95305634  150.47700500    2.03999996    0.05000000
   16.95639038  159.33200073    2.03999996    0.05000000
   16.95944595  151.87699890    2.03999996    0.05000000
   16.96277809  153.14500427    2.03999996    0.05000000
   16.96333504  139.54100037    2.03999996    0.05000000
   16.96916771  139.54100037    2.03999996    0.05000000
   16.97333336  158.39599609    2.03999996    0.05000000
   16.97666740  149.66000366    2.03999996    0.05000000
   16.97972298  155.00300598    2.03999996    0.05000000
   16.98305511  158.63000488    2.03999996    0.05000000
   16.98638916  152.74099731    2.03999996    0.05000000
   16.98944473  155.68299866    2.03999996    0.05000000
   16.99277878  151.21299744    2.03999996    0.05000000
   16.99611092  142.39500427    2.03999996    0.05000000
   16.99666786  143.24600220    2.03999996    0.05000000
   16.99972153  150.06900024    2.03999996    0.05000000
   17.00277710  147.87800598    2.03999996    0.05000000
   17.00611115  135.07499695    2.03999996    0.05000000
   17.01194382  135.07499695    2.03999996    0.05000000
   17.01611137  149.47599792    2.03999996    0.05000000
   17.01944351  136.96600342    2.03999996    0.05000000
   17.02277756  138.09300232    2.03999996    0.05000000
   17.02583313  134.92199707    2.03999996    0.05000000
   17.02916718  145.60200500    2.03999996    0.05000000
   17.03000069  152.15699768    2.03999996    0.05000000
   17.03277779  146.12699890    2.03999996    0.05000000
   17.03610992  137.52299500    2.03999996    0.05000000
   17.03916550  137.59899902    2.03999996    0.05000000
   17.04249954  150.60800171    2.03999996    0.05000000
   17.04583359  134.84399414    2.03999996    0.05000000
   17.04888916  144.16499329    2.03999996    0.05000000
   17.05499840  144.16499329    2.03999996    0.05000000
   17.05916595  150.24400330    2.03999996    0.05000000
   17.06222153  142.17100525    2.03999996    0.05000000
   17.06333351  145.65100098    2.03999996    0.05000000
   17.06611061  138.21299744    2.03999996    0.05000000
   17.06916809  138.14999390    2.03999996    0.05000000
   17.07250023  148.57699585    2.03999996    0.05000000
   17.07555580  151.34199524    2.03999996    0.05000000
   17.07888985  139.80999756    2.03999996    0.05000000
   17.08222389  141.80400085    2.03999996    0.05000000
   17.08527756  137.72300720    2.03999996    0.05000000
   17.08861160  144.20100403    2.03999996    0.05000000
   17.09194565  145.94500732    2.03999996    0.05000000
   17.09777832  145.94500732    2.03999996    0.05000000
   17.10194397  146.98399353    2.03999996    0.05000000
   17.10555649  140.66200256    2.03999996    0.05000000
   17.10861206  149.50999451    2.03999996    0.05000000
   17.11194420  158.15699768    2.03999996    0.05000000
   17.11499977  151.20399475    2.03999996    0.05000000
   17.11833382  143.50000000    2.03999996    0.05000000
   17.12166595  144.99400330    2.03999996    0.05000000
   17.12472153  141.09800720    2.03999996    0.05000000
   17.12805557  146.39399719    2.03999996    0.05000000
   17.13000107  142.34399414    2.03999996    0.05000000
   17.13166618  143.59899902    2.03999996    0.05000000
   17.13472176  147.63600159    2.03999996    0.05000000
   17.14055634  147.63600159    2.03999996    0.05000000
   17.14472198  150.06700134    2.03999996    0.05000000
   17.14805603  139.93499756    2.03999996    0.05000000
   17.15111160  147.11399841    2.03999996    0.05000000
   17.15444374  154.62199402    2.03999996    0.05000000
   17.15777779  145.47399902    2.03999996    0.05000000
   17.16083336  150.60600281    2.03999996    0.05000000
   17.16333389  145.05700684    2.03999996    0.05000000
   17.16472244  145.06599426    2.03999996    0.05000000
   17.16777802  146.88200378    2.03999996    0.05000000
   17.17111015  150.45399475    2.03999996    0.05000000
   17.17444420  160.30799866    2.03999996    0.05000000
   17.17749977  159.04800415    2.03999996    0.05000000
   17.18333244  159.04800415    2.03999996    0.05000000
   17.18750000  178.00599670    2.03999996    0.05000000
   17.19083214  165.57099915    2.03999996    0.05000000
   17.19388771  168.81199646    2.03999996    0.05000000
   17.19666672  165.82000732    2.03999996    0.05000000
   17.19777679  160.04600525    2.03999996    0.05000000
   17.20083427  169.90400696    2.03999996    0.05000000
   17.20416832  162.56500244    2.03999996    0.05000000
   17.20722389  148.64599609    2.03999996    0.05000000
   17.21055603  158.87600708    2.03999996    0.05000000
   17.21389008  152.08700562    2.03999996    0.05000000
   17.21694565  147.43299866    2.03999996    0.05000000
   17.22027779  142.37899780    2.03999996    0.05000000
   17.22638893  142.37899780    2.03999996    0.05000000
   17.23027802  138.39900208    2.03999996    0.05000000
   17.23361206  139.56799316    2.03999996    0.05000000
   17.23694420  138.24400330    2.03999996    0.05000000
   17.23999977  134.83200073    2.03999996    0.05000000
   17.24333382  144.83500671    2.03999996    0.05000000
   17.24638939  137.96699524    2.03999996    0.05000000
   17.24972153  138.71800232    2.03999996    0.05000000
   17.25305557  143.49400330    2.03999996    0.05000000
   17.25611115  140.25000000    2.03999996    0.05000000
   17.25944519  137.74699402    2.03999996    0.05000000
   17.26277733  144.23899841    2.03999996    0.05000000
   17.26333427  140.65299988    2.03999996    0.05000000
   17.26916695  140.65299988    2.03999996    0.05000000
   17.27333260  148.29400635    2.03999996    0.05000000
   17.27638817  139.15299988    2.03999996    0.05000000
   17.27972221  150.58799744    2.03999996    0.05000000
   17.28305435  139.85699463    2.03999996    0.05000000
   17.28610992  136.30999756    2.03999996    0.05000000
   17.28944397  148.98300171    2.03999996    0.05000000
   17.29249954  149.54200745    2.03999996    0.05000000
   17.29583359  149.29200745    2.03999996    0.05000000
   17.29666710  138.26400757    2.03999996    0.05000000
   17.29944420  137.69900513    2.03999996    0.05000000
   17.30249977  140.82400513    2.03999996    0.05000000
   17.30583191  140.61199951    2.03999996    0.05000000
   17.31194305  140.61199951    2.03999996    0.05000000
   17.31611061  137.06700134    2.03999996    0.05000000
   17.31944466  128.91600037    2.03999996    0.05000000
   17.32250023  141.35000610    2.03999996    0.05000000
   17.32583427  129.64500427    2.03999996    0.05000000
   17.32916832  139.32499695    2.03999996    0.05000000
   17.33000183  139.90400696    2.03999996    0.05000000
   17.33277893  129.86999512    2.03999996    0.05000000
   17.33583450  142.95799255    2.03999996    0.05000000
   17.33916664  136.69799805    2.03999996    0.05000000
   17.34250069  141.94999695    2.03999996    0.05000000
   17.34555626  145.31799316    2.03999996    0.05000000
   17.34889030  137.49099731    2.03999996    0.05000000
   17.35472298  137.49099731    2.03999996    0.05000000
   17.35888863  139.95799255    2.03999996    0.05000000
   17.36222267  144.71899414    2.03999996    0.05000000
   17.36333466  138.81900024    2.03999996    0.05000000
   17.36583328  144.50100708    2.03999996    0.05000000
   17.36888885  145.57099915    2.03999996    0.05000000
   17.37222290  141.63400269    2.03999996    0.05000000
   17.37555504  139.54899597    2.03999996    0.05000000
   17.37861061  158.30000305    2.03999996    0.05000000
   17.38194466  146.37300110    2.03999996    0.05000000
   17.38527679  149.85200500    2.03999996    0.05000000
   17.38833237  158.25399780    2.03999996    0.05000000
   17.39166641  171.34599304    2.03999996    0.05000000
   17.39777756  171.34599304    2.03999996    0.05000000
   17.40166664  148.14100647    2.03999996    0.05000000
   17.40499878  150.65699768    2.03999996    0.05000000
   17.40833282  170.24800110    2.03999996    0.05000000
   17.41138840  160.84100342    2.03999996    0.05000000
   17.41472244  158.79600525    2.03999996    0.05000000
   17.41805458  158.91099548    2.03999996    0.05000000
   17.42111015  163.17999268    2.03999996    0.05000000
   17.42444420  156.16499329    2.03999996    0.05000000
   17.42749977  167.72000122    2.03999996    0.05000000
   17.43000031  157.43899536    2.03999996    0.05000000
   17.43138885  166.87300110    2.03999996    0.05000000
   17.43444443  146.90499878    2.03999996    0.05000000
   17.44055557  146.90499878    2.03999996    0.05000000
   17.44472122  170.35099792    2.03999996    0.05000000
   17.44777679  149.74299622    2.03999996    0.05000000
   17.45111275  166.59300232    2.03999996    0.05000000
   17.45444489  157.89300537    2.03999996    0.05000000
   17.45777893  149.80200195    2.03999996    0.05000000
   17.46083450  146.82299805    2.03999996    0.05000000
   17.46333504  152.46499634    2.03999996    0.05000000
   17.46472359  150.33399963    2.03999996    0.05000000
   17.46777916  146.37899780    2.03999996    0.05000000
   17.47111130  154.99699402    2.03999996    0.05000000
   17.47416687  153.10699463    2.03999996    0.05000000
   17.47750092  155.54600525    2.03999996    0.05000000
   17.48333359  155.54600525    2.03999996    0.05000000
   17.48750114  151.59500122    2.03999996    0.05000000
   17.49083328  150.29499817    2.03999996    0.05000000
   17.49388885  149.22500610    2.03999996    0.05000000
   17.49666786  157.09300232    2.03999996    0.05000000
   17.49777794  157.61199951    2.03999996    0.05000000
   17.50083351  148.30499268    2.03999996    0.05000000
   17.50416756  150.88999939    2.03999996    0.05000000
   17.50749969  146.01699829    2.03999996    0.05000000
   17.51055527  144.61700439    2.03999996    0.05000000
   17.51388931  144.53500366    2.03999996    0.05000000
   17.51694489  153.60600281    2.03999996    0.05000000
   17.52027702  150.00599670    2.03999996    0.05000000
   17.52611160  150.00599670    2.03999996    0.05000000
   17.53027725  148.41900635    2.03999996    0.05000000
   17.53361130  160.74400330    2.03999996    0.05000000
   17.53666687  153.05000305    2.03999996    0.05000000
   17.53999901  136.42999268    2.03999996    0.05000000
   17.54333305  150.48500061    2.03999996    0.05000000
   17.54638863  139.09399414    2.03999996    0.05000000
   17.54972076  142.12100220    2.03999996    0.05000000
   17.55305481  140.39900208    2.03999996    0.05000000
   17.55611038  148.45100403    2.03999996    0.05000000
   17.55944443  136.50900269    2.03999996    0.05000000
   17.56277657  148.69299316    2.03999996    0.05000000
   17.56333351  139.98399353    2.03999996    0.05000000
   17.56916809  139.98399353    2.03999996    0.05000000
   17.57305717  139.06199646    2.03999996    0.05000000
   17.57638931  137.55000305    2.03999996    0.05000000
   17.57972336  132.30200195    2.03999996    0.05000000
   17.58277893  140.39300537    2.03999996    0.05000000
   17.58611107  138.60299683    2.03999996    0.05000000
   17.58944511  142.58599854    2.03999996    0.05000000
   17.59277916  138.89900208    2.03999996    0.05000000
   17.59583473  139.29400635    2.03999996    0.05000000
   17.59666824  144.95100403    2.03999996    0.05000000
   17.59944534  149.41400146    2.03999996    0.05000000
   17.60277748  144.47700500    2.03999996    0.05000000
   17.60583305  139.86900330    2.03999996    0.05000000
   17.61194420  139.86900330    2.03999996    0.05000000
   17.61611176  143.09399414    2.03999996    0.05000000
   17.61916733  140.19000244    2.03999996    0.05000000
   17.62249947  140.50300598    2.03999996    0.05000000
   17.62555504  135.31399536    2.03999996    0.05000000
   17.62888908  136.04100037    2.03999996    0.05000000
   17.63000107  139.75799561    2.03999996    0.05000000
   17.63249969  143.44599915    2.03999996    0.05000000
   17.63555527  138.79200745    2.03999996    0.05000000
   17.63888931  138.17799377    2.03999996    0.05000000
   17.64222145  137.61199951    2.03999996    0.05000000
   17.64527702  132.97200012    2.03999996    0.05000000
   17.64861107  139.56399536    2.03999996    0.05000000
   17.65472221  139.56399536    2.03999996    0.05000000
   17.65888786  148.04400635    2.03999996    0.05000000
   17.66222191  147.03799438    2.03999996    0.05000000
   17.66333389  157.93299866    2.03999996    0.05000000
   17.66583252  150.19900513    2.03999996    0.05000000
   17.66916656  155.17599487    2.03999996    0.05000000
   17.67222214  144.89300537    2.03999996    0.05000000
   17.67555428  150.39599609    2.03999996    0.05000000
   17.67888832  148.03399658    2.03999996    0.05000000
   17.68194389  161.36700439    2.03999996    0.05000000
   17.68527603  149.11500549    2.03999996    0.05000000
   17.68833160  152.36300659    2.03999996    0.05000000
   17.69166565  146.29400635    2.03999996    0.05000000
   17.69749832  146.29400635    2.03999996    0.05000000
   17.70166779  159.88099670    2.03999996    0.05000000
   17.70499992  148.24400330    2.03999996    0.05000000
   17.70833397  156.10299683    2.03999996    0.05000000
   17.71138954  161.58999634    2.03999996    0.05000000
   17.71472359  143.15499878    2.03999996    0.05000000
   17.71777916  151.16700745    2.03999996    0.05000000
   17.72111130  140.80499268    2.03999996    0.05000000
   17.72444534  154.65199280    2.03999996    0.05000000
   17.72750092  142.45500183    2.03999996    0.05000000
   17.73000145  133.10899353    2.03999996    0.05000000
   17.73111153  142.70899963    2.03999996    0.05000000
   17.73416710  139.31599426    2.03999996    0.05000000
   17.74027824  139.31599426    2.03999996    0.05000000
   17.74444389  136.78999329    2.03999996    0.05000000
   17.74777794  141.34300232    2.03999996    0.05000000
   17.75111198  142.96800232    2.03999996    0.05000000
   17.75416756  146.18400574    2.03999996    0.05000000
   17.75749969  147.23500061    2.03999996    0.05000000
   17.76083374  141.41600037    2.03999996    0.05000000
   17.76333427  144.22399902    2.03999996    0.05000000
   17.76444435  150.71200562    2.03999996    0.05000000
   17.76777840  153.66000366    2.03999996    0.05000000
   17.77083397  149.55200195    2.03999996    0.05000000
   17.77416611  149.41099548    2.03999996    0.05000000
   17.77750015  152.55299377    2.03999996    0.05000000
   17.78333282  152.55299377    2.03999996    0.05000000
   17.78750038  147.13499451    2.03999996    0.05000000
   17.79055595  135.77999878    2.03999996    0.05000000
   17.79388809  130.66600037    2.03999996    0.05000000
   17.79666710  150.55000305    2.03999996    0.05000000
   17.79749870  151.90499878    2.03999996    0.05000000
   17.80055428  141.31799316    2.03999996    0.05000000
   17.80388832  128.00500488    2.03999996    0.05000000
   17.80722237  145.07699585    2.03999996    0.05000000
   17.81027794  156.00100708    2.03999996    0.05000000
   17.81361008  156.90899658    2.03999996    0.05000000
   17.81694603  151.34100342    2.03999996    0.05000000
   17.82000160  155.44400024    2.03999996    0.05000000
   17.82611275  155.44400024    2.03999996    0.05000000
   17.83027840  145.51499939    2.03999996    0.05000000
   17.83333397  147.20199585    2.03999996    0.05000000
   17.83666801  142.72799683    2.03999996    0.05000000
   17.84000015  149.89100647    2.03999996    0.05000000
   17.84305573  152.44400024    2.03999996    0.05000000
   17.84638977  143.20799255    2.03999996    0.05000000
   17.84972191  157.37399292    2.03999996    0.05000000
   17.85277748  150.52900696    2.03999996    0.05000000
   17.85611153  145.22300720    2.03999996    0.05000000
   17.85916710  141.36399841    2.03999996    0.05000000
   17.86250114  145.66999817    2.03999996    0.05000000
   17.86333466  146.19000244    2.03999996    0.05000000
   17.86888885  146.19000244    2.03999996    0.05000000
   17.87305641  144.96200562    2.03999996    0.05000000
   17.87638855  152.52900696    2.03999996    0.05000000
   17.87944412  161.73599243    2.03999996    0.05000000
   17.89694405  147.22500610    2.03999996    0.05000000
   17.89944458  155.97900391    2.03999996    0.05000000
   17.90277672  152.03700256    2.03999996    0.05000000
   17.90583229  147.29299927    2.03999996    0.05000000
   17.91194344  147.29299927    2.03999996    0.05000000
   17.91611099  144.38200378    2.03999996    0.05000000
   17.91916656  158.06900024    2.03999996    0.05000000
   17.92249870  149.71499634    2.03999996    0.05000000
   17.92583275  154.37399292    2.03999996    0.05000000
   17.92888832  146.18600464    2.03999996    0.05000000
   17.93027687  144.25500488    2.03999996    0.05000000
   17.93277740  151.33500671    2.03999996    0.05000000
   17.93610954  160.41400146    2.03999996    0.05000000
   17.93944359  141.58999634    2.03999996    0.05000000
   17.94249916  151.56399536    2.03999996    0.05000000
   17.94583321  156.99499512    2.03999996    0.05000000
   17.94916534  147.83999634    2.03999996    0.05000000
   17.95472336  147.83999634    2.03999996    0.05000000
   17.95888901  152.26600647    2.03999996    0.05000000
   17.96222305  149.41000366    2.03999996    0.05000000
   17.96361160  160.75599670    2.03999996    0.05000000
   17.96583366  155.31599426    2.03999996    0.05000000
   17.96916771  156.54800415    2.03999996    0.05000000
   17.97222328  168.19299316    2.03999996    0.05000000
   17.97555542  153.19500732    2.03999996    0.05000000
   17.97888947  139.20500183    2.03999996    0.05000000
   17.98194504  154.74600220    2.03999996    0.05000000
   17.98527718  157.95300293    2.03999996    0.05000000
   17.98861122  154.12600708    2.03999996    0.05000000
   17.99166679  148.83200073    2.03999996    0.05000000
   17.99749947  148.83200073    2.03999996    0.05000000
   18.00166702  149.87800598    2.03999996    0.05000000
   18.00499916  150.17700195    2.03999996    0.05000000
   18.00833321  154.24899292    2.03999996    0.05000000
   18.01138878  152.80200195    2.03999996    0.05000000
   18.01472282  145.50999451    2.03999996    0.05000000
   18.01777840  134.40600586    2.03999996    0.05000000
   18.02111053  135.17799377    2.03999996    0.05000000
   18.02444458  126.31800079    2.03999996    0.05000000
   18.02750015  136.60800171    2.03999996    0.05000000
   18.03027725  128.09399414    2.03999996    0.05000000
   18.03111076  135.65499878    2.03999996    0.05000000
   18.03444481  137.63200378    2.03999996    0.05000000
   18.04055595  137.63200378    2.03999996    0.05000000
   18.04472160  144.44200134    2.03999996    0.05000000
   18.04777718  150.07800293    2.03999996    0.05000000
   18.05111122  146.01800537    2.03999996    0.05000000
   18.05416679  146.64500427    2.03999996    0.05000000
   18.05749893  149.04699707    2.03999996    0.05000000
   18.06083298  152.27699280    2.03999996    0.05000000
   18.06361008  155.87100220    2.03999996    0.05000000
   18.06444359  153.11300659    2.03999996    0.05000000
   18.06750107  153.81500244    2.03999996    0.05000000
   18.07083511  145.07200623    2.03999996    0.05000000
   18.07416725  142.35400391    2.03999996    0.05000000
   18.07722282  155.03399658    2.03999996    0.05000000
   18.08333397  155.03399658    2.03999996    0.05000000
   18.08750153  148.39399719    2.03999996    0.05000000
   18.09055710  136.51899719    2.03999996    0.05000000
   18.09388924  137.77099609    2.03999996    0.05000000
   18.09694481  148.23800659    2.03999996    0.05000000
   18.09749985  146.95599365    2.03999996    0.05000000
   18.10083389  145.80499268    2.03999996    0.05000000
   18.10388947  147.99699402    2.03999996    0.05000000
   18.10722351  147.08799744    2.03999996    0.05000000
   18.11055565  151.60800171    2.03999996    0.05000000
   18.11361122  148.31799316    2.03999996    0.05000000
   18.11694527  140.27200317    2.03999996    0.05000000
   18.12027740  156.47099304    2.03999996    0.05000000
   18.12611198  156.47099304    2.03999996    0.05000000
   18.13027763  136.58200073    2.03999996    0.05000000
   18.13083267  136.44000244    2.03999996    0.05000000
   18.13416672  144.52000427    2.03999996    0.05000000
   18.13722229  144.58999634    2.03999996    0.05000000
   18.14055634  145.88299561    2.03999996    0.05000000
   18.14361191  141.77499390    2.03999996    0.05000000
   18.14694405  147.50599670    2.03999996    0.05000000
   18.15027809  144.23699951    2.03999996    0.05000000
   18.15333366  150.40600586    2.03999996    0.05000000
   18.15666580  139.40199280    2.03999996    0.05000000
   18.15999985  143.14300537    2.03999996    0.05000000
   18.16333389  138.97399902    2.03999996    0.05000000
   18.16416550  145.18299866    2.03999996    0.05000000
   18.16888809  145.18299866    2.03999996    0.05000000
   18.17305565  155.86599731    2.03999996    0.05000000
   18.17638779  146.55400085    2.03999996    0.05000000
   18.17972183  146.51800537    2.03999996    0.05000000
   18.18277740  141.46400452    2.03999996    0.05000000
   18.18610954  156.04400635    2.03999996    0.05000000
   18.18944359  151.28300476    2.03999996    0.05000000
   18.19249916  162.57000732    2.03999996    0.05000000
   18.19583321  148.56500244    2.03999996    0.05000000
   18.19749832  153.41400146    2.03999996    0.05000000
   18.19944382  150.93400574    2.03999996    0.05000000
   18.20250130  148.96099854    2.03999996    0.05000000
   18.20583344  144.93600464    2.03999996    0.05000000
   18.21194458  144.93600464    2.03999996    0.05000000
   18.21583366  150.56300354    2.03999996    0.05000000
   18.21916771  140.75900269    2.03999996    0.05000000
   18.22249985  145.07299805    2.03999996    0.05000000
   18.22555542  147.00500488    2.03999996    0.05000000
   18.22888947  149.84700012    2.03999996    0.05000000
   18.23083305  153.50300598    2.03999996    0.05000000
   18.23222351  138.36700439    2.03999996    0.05000000
   18.23555565  145.12100220    2.03999996    0.05000000
   18.23888969  153.26100159    2.03999996    0.05000000
   18.24194527  152.00199890    2.03999996    0.05000000
   18.24527740  143.68699646    2.03999996    0.05000000
   18.24861145  147.14900208    2.03999996    0.05000000
   18.25472260  147.14900208    2.03999996    0.05000000
   18.25888824  155.89399719    2.03999996    0.05000000
   18.26194382  141.14999390    2.03999996    0.05000000
   18.26416588  165.13900757    2.03999996    0.05000000
   18.26583290  161.42500305    2.03999996    0.05000000
   18.26888847  176.16099548    2.03999996    0.05000000
   18.27222252  171.48800659    2.03999996    0.05000000
   18.27527809  167.69500732    2.03999996    0.05000000
   18.27861023  169.46400452    2.03999996    0.05000000
   18.28194427  187.08900452    2.03999996    0.05000000
   18.28499985  167.05000305    2.03999996    0.05000000
   18.28833199  152.61799622    2.03999996    0.05000000
   18.29166603  172.73599243    2.03999996    0.05000000
   18.29749870  172.73599243    2.03999996    0.05000000
   18.30166626  151.03399658    2.03999996    0.05000000
   18.30499840  172.48599243    2.03999996    0.05000000
   18.30833244  171.08399963    2.03999996    0.05000000
   18.31138802  174.27499390    2.03999996    0.05000000
   18.31472206  172.81100464    2.03999996    0.05000000
   18.31805611  178.30700684    2.03999996    0.05000000
   18.32111168  173.60699463    2.03999996    0.05000000
   18.32444572  169.09599304    2.03999996    0.05000000
   18.32777786  164.07600403    2.03999996    0.05000000
   18.33083344  167.56599426    2.03999996    0.05000000
   18.33139038  171.06599426    2.03999996    0.05000000
   18.33444595  171.85200500    2.03999996    0.05000000
   18.34027863  171.85200500    2.03999996    0.05000000
   18.34444427  165.46600342    2.03999996    0.05000000
   18.34777832  158.85800171    2.03999996    0.05000000
   18.35083389  174.66499329    2.03999996    0.05000000
   18.35416794  168.11399841    2.03999996    0.05000000
   18.35750008  165.54600525    2.03999996    0.05000000
   18.36055565  175.41200256    2.03999996    0.05000000
   18.36388969  163.94599915    2.03999996    0.05000000
   18.36444473  160.32499695    2.03999996    0.05000000
   18.36750031  165.67399597    2.03999996    0.05000000
   18.37083435  172.46800232    2.03999996    0.05000000
   18.37416649  188.75399780    2.03999996    0.05000000
   18.37722206  176.33599854    2.03999996    0.05000000
   18.38333321  176.33599854    2.03999996    0.05000000
   18.38722229  180.73300171    2.03999996    0.05000000
   18.39055634  177.03700256    2.03999996    0.05000000
   18.39388847  192.87100220    2.03999996    0.05000000
   18.39694405  200.74699402    2.03999996    0.05000000
   18.39777756  190.82499695    2.03999996    0.05000000
   18.40055466  210.63900757    2.03999996    0.05000000
   18.40388870  203.51800537    2.03999996    0.05000000
   18.40722275  233.47700500    2.03999996    0.05000000
   18.41027832  239.44900513    2.03999996    0.05000000
   18.41361046  248.86999512    2.03999996    0.05000000
   18.41694450  249.65199280    2.03999996    0.05000000
   18.42000008  240.35200500    2.03999996    0.05000000
   18.42611122  240.35200500    2.03999996    0.05000000
   18.43027687  219.22900391    2.03999996    0.05000000
   18.43111038  211.33500671    2.03999996    0.05000000
   18.43388748  210.77099609    2.03999996    0.05000000
   18.43694305  216.25399780    2.03999996    0.05000000
   18.44027710  202.08200073    2.03999996    0.05000000
   18.44361115  204.97300720    2.03999996    0.05000000
   18.44666672  204.94099426    2.03999996    0.05000000
   18.45000076  211.00900269    2.03999996    0.05000000
   18.45305634  214.50199890    2.03999996    0.05000000
   18.45639038  199.14500427    2.03999996    0.05000000
   18.45972252  187.09599304    2.03999996    0.05000000
   18.46277809  197.65400696    2.03999996    0.05000000
   18.46444511  204.57800293    2.03999996    0.05000000
   18.46888924  204.57800293    2.03999996    0.05000000
   18.47305679  210.25500488    2.03999996    0.05000000
   18.47638893  211.11300659    2.03999996    0.05000000
   18.47944450  206.99400330    2.03999996    0.05000000
   18.48305511  187.70899963    2.03999996    0.05000000
   18.48611069  176.04499817    2.03999996    0.05000000
   18.48944473  192.43400574    2.03999996    0.05000000
   18.49250031  170.11399841    2.03999996    0.05000000
   18.49583435  174.75700378    2.03999996    0.05000000
   18.49777794  172.85400391    2.03999996    0.05000000
   18.49944496  165.25199890    2.03999996    0.05000000
   18.50277710  169.19900513    2.03999996    0.05000000
   18.50611115  178.09199524    2.03999996    0.05000000
   18.51166725  178.09199524    2.03999996    0.05000000
   18.51583290  167.85499573    2.03999996    0.05000000
   18.51916695  165.82899475    2.03999996    0.05000000
   18.52222252  163.74899292    2.03999996    0.05000000
   18.52555466  157.30099487    2.03999996    0.05000000
   18.52888870  162.70300293    2.03999996    0.05000000
   18.53111076  160.34899902    2.03999996    0.05000000
   18.53222275  158.92700195    2.03999996    0.05000000
   18.53555489  154.55200195    2.03999996    0.05000000
   18.53888893  160.22300720    2.03999996    0.05000000
   18.54194450  156.64100647    2.03999996    0.05000000
   18.54527664  166.16000366    2.03999996    0.05000000
   18.54861069  157.06399536    2.03999996    0.05000000
   18.55472183  157.06399536    2.03999996    0.05000000
   18.55861092  171.43499756    2.03999996    0.05000000
   18.56194305  167.67799377    2.03999996    0.05000000
   18.56444359  156.01800537    2.03999996    0.05000000
   18.56555557  154.98599243    2.03999996    0.05000000
   18.56888962  156.52299500    2.03999996    0.05000000
   18.57222366  155.00900269    2.03999996    0.05000000
   18.57527924  165.82000732    2.03999996    0.05000000
   18.57861137  153.53999329    2.03999996    0.05000000
   18.58194542  164.37899780    2.03999996    0.05000000
   18.58500099  152.90100098    2.03999996    0.05000000
   18.58833313  167.67100525    2.03999996    0.05000000
   18.59138870  160.68099976    2.03999996    0.05000000
   18.59749985  160.68099976    2.03999996    0.05000000
   18.60166740  163.47700500    2.03999996    0.05000000
   18.60472298  174.41000366    2.03999996    0.05000000
   18.60805511  182.20700073    2.03999996    0.05000000
   18.61138916  161.75799561    2.03999996    0.05000000
   18.61444473  173.35000610    2.03999996    0.05000000
   18.61777878  157.44099426    2.03999996    0.05000000
   18.62111092  162.80200195    2.03999996    0.05000000
   18.62416649  156.80700684    2.03999996    0.05000000
   18.62750053  165.51100159    2.03999996    0.05000000
   18.63055611  162.71499634    2.03999996    0.05000000
   18.63249969  158.79499817    2.03999996    0.05000000
   18.63444519  161.47000122    2.03999996    0.05000000
   18.64027786  161.47000122    2.03999996    0.05000000
   18.64444351  154.34500122    2.03999996    0.05000000
   18.64777756  158.43600464    2.03999996    0.05000000
   18.65083313  155.91600037    2.03999996    0.05000000
   18.65416718  149.09899902    2.03999996    0.05000000
   18.65722275  155.57600403    2.03999996    0.05000000
   18.66055489  158.91700745    2.03999996    0.05000000
   18.66388893  151.52999878    2.03999996    0.05000000
   18.66583252  159.18899536    2.03999996    0.05000000
   18.66749954  177.55599976    2.03999996    0.05000000
   18.67055511  173.15899658    2.03999996    0.05000000
   18.67388916  160.03700256    2.03999996    0.05000000
   18.67694473  158.62600708    2.03999996    0.05000000
   18.68305397  158.62600708    2.03999996    0.05000000
   18.68722153  171.02200317    2.03999996    0.05000000
   18.69055557  174.62500000    2.03999996    0.05000000
   18.69361115  162.31799316    2.03999996    0.05000000
   18.69694328  166.41499329    2.03999996    0.05000000
   18.69944382  172.57099915    2.03999996    0.05000000
   18.70083427  163.74600220    2.03999996    0.05000000
   18.70388985  151.50599670    2.03999996    0.05000000
   18.70722389  168.31599426    2.03999996    0.05000000
   18.71055603  163.77699280    2.03999996    0.05000000
   18.71361160  165.08599854    2.03999996    0.05000000
   18.71694565  154.80400085    2.03999996    0.05000000
   18.72027779  167.77699280    2.03999996    0.05000000
   18.72611237  167.77699280    2.03999996    0.05000000
   18.73027802  176.87899780    2.03999996    0.05000000
   18.73277855  161.36599731    2.03999996    0.05000000
   18.73388863  180.05999756    2.03999996    0.05000000
   18.73694420  172.88999939    2.03999996    0.05000000
   18.74027824  177.30999756    2.03999996    0.05000000
   18.74361229  158.35699463    2.03999996    0.05000000
   18.74666786  163.98100281    2.03999996    0.05000000
   18.75000000  157.97799683    2.03999996    0.05000000
   18.75333405  167.78399658    2.03999996    0.05000000
   18.75638962  156.72599792    2.03999996    0.05000000
   18.75972176  164.36000061    2.03999996    0.05000000
   18.76305580  151.44299316    2.03999996    0.05000000
   18.76888847  151.44299316    2.03999996    0.05000000
   18.77305603  150.16400146    2.03999996    0.05000000
   18.77611160  160.71600342    2.03999996    0.05000000
   18.77944374  155.79100037    2.03999996    0.05000000
   18.78277779  161.30700684    2.03999996    0.05000000
   18.78610992  152.82800293    2.03999996    0.05000000
   18.78916550  168.97599792    2.03999996    0.05000000
   18.79249954  170.46099854    2.03999996    0.05000000
   18.79583359  162.00500488    2.03999996    0.05000000
   18.79916573  151.65100098    2.03999996    0.05000000
   18.79972076  153.21600342    2.03999996    0.05000000
   18.80277634  151.89799500    2.03999996    0.05000000
   18.80583191  169.10200500    2.03999996    0.05000000
   18.81166649  169.10200500    2.03999996    0.05000000
   18.81583214  162.59399414    2.03999996    0.05000000
   18.81916809  168.33700562    2.03999996    0.05000000
   18.82222366  165.04600525    2.03999996    0.05000000
   18.82555580  168.75999451    2.03999996    0.05000000
   18.82861137  155.97099304    2.03999996    0.05000000
   18.83194542  162.84399414    2.03999996    0.05000000
   18.83305550  151.97200012    2.03999996    0.05000000
   18.83555603  152.97599792    2.03999996    0.05000000
   18.83861160  158.99499512    2.03999996    0.05000000
   18.84194565  166.87399292    2.03999996    0.05000000
   18.84527779  168.19400024    2.03999996    0.05000000
   18.84833336  171.69999695    2.03999996    0.05000000
   18.85444450  171.69999695    2.03999996    0.05000000
   18.85861206  164.23500061    2.03999996    0.05000000
   18.86194420  160.50599670    2.03999996    0.05000000
   18.86499977  158.10099792    2.03999996    0.05000000
   18.86666679  165.13600159    2.03999996    0.05000000
   18.86888885  146.23699951    2.03999996    0.05000000
   18.87194443  160.88499451    2.03999996    0.05000000
   18.87527847  152.80499268    2.03999996    0.05000000
   18.87861061  159.78799438    2.03999996    0.05000000
   18.88166618  160.51100159    2.03999996    0.05000000
   18.88500023  172.17500305    2.03999996    0.05000000
   18.88805580  153.95799255    2.03999996    0.05000000
   18.89138794  137.77499390    2.03999996    0.05000000
   18.89777756  137.77499390    2.03999996    0.05000000
   18.91611099  153.58599854    2.03999996    0.05000000
   18.91944313  155.44200134    2.03999996    0.05000000
   18.92249870  146.24499512    2.03999996    0.05000000
   18.92583275  154.39300537    2.03999996    0.05000000
   18.92916679  146.55799866    2.03999996    0.05000000
   18.93222237  165.32499695    2.03999996    0.05000000
   18.93555450  153.89100647    2.03999996    0.05000000
   18.94027710  153.89100647    2.03999996    0.05000000
   18.94444275  151.44000244    2.03999996    0.05000000
   18.94749832  162.19400024    2.03999996    0.05000000
   18.94916534  158.07099915    2.03999996    0.05000000
   18.95138931  173.08399963    2.03999996    0.05000000
   18.95444489  158.95199585    2.03999996    0.05000000
   18.95777893  152.15100098    2.03999996    0.05000000
   18.96083450  168.34800720    2.03999996    0.05000000
   18.96416664  154.35099792    2.03999996    0.05000000
   18.96750069  159.53500366    2.03999996    0.05000000
   18.97083473  155.86700439    2.03999996    0.05000000
   18.97389030  151.89599609    2.03999996    0.05000000
   18.97722244  161.89700317    2.03999996    0.05000000
   18.98305511  161.89700317    2.03999996    0.05000000
   18.98722267  143.41900635    2.03999996    0.05000000
   18.99055672  147.28300476    2.03999996    0.05000000
   18.99361229  145.18600464    2.03999996    0.05000000
   18.99694443  150.71699524    2.03999996    0.05000000
   19.00027847  143.32800293    2.03999996    0.05000000
   19.00333405  158.75500488    2.03999996    0.05000000
   19.00666618  143.52299500    2.03999996    0.05000000
   19.01000023  137.48500061    2.03999996    0.05000000
   19.01305580  142.05099487    2.03999996    0.05000000
   19.01583290  145.13800049    2.03999996    0.05000000
   19.01694489  132.32200623    2.03999996    0.05000000
   19.02000046  139.08099365    2.03999996    0.05000000
   19.02583313  139.08099365    2.03999996    0.05000000
   19.03000069  146.13600159    2.03999996    0.05000000
   19.03333282  156.07299805    2.03999996    0.05000000
   19.03666687  158.75100708    2.03999996    0.05000000
   19.03972244  155.93099976    2.03999996    0.05000000
   19.04305458  149.79600525    2.03999996    0.05000000
   19.04611015  153.07099915    2.03999996    0.05000000
   19.04916573  147.35099792    2.03999996    0.05000000
   19.04999924  139.27900696    2.03999996    0.05000000
   19.05305481  153.11399841    2.03999996    0.05000000
   19.05638885  152.67199707    2.03999996    0.05000000
   19.05972099  149.83799744    2.03999996    0.05000000
   19.06277657  147.90400696    2.03999996    0.05000000
   19.06888962  147.90400696    2.03999996    0.05000000
   19.07305717  157.16200256    2.03999996    0.05000000
   19.07611275  150.99800110    2.03999996    0.05000000
   19.07944489  153.67100525    2.03999996    0.05000000
   19.08250046  166.21699524    2.03999996    0.05000000
   19.08305550  155.63900757    2.03999996    0.05000000
   19.08611107  158.28399658    2.03999996    0.05000000
   19.08944511  165.38400269    2.03999996    0.05000000
   19.09277916  156.96800232    2.03999996    0.05000000
   19.09583473  163.59100342    2.03999996    0.05000000
   19.09916687  159.92999268    2.03999996    0.05000000
   19.10222244  176.54899597    2.03999996    0.05000000
   19.10555649  172.22700500    2.03999996    0.05000000
   19.11166763  172.22700500    2.03999996    0.05000000
   19.11583328  153.03300476    2.03999996    0.05000000
   19.11638832  151.83599854    2.03999996    0.05000000
   19.11944389  152.45700073    2.03999996    0.05000000
   19.12277794  171.95899963    2.03999996    0.05000000
   19.12611198  155.14300537    2.03999996    0.05000000
   19.12916756  152.83599854    2.03999996    0.05000000
   19.13249969  148.02200317    2.03999996    0.05000000
   19.13583374  149.44099426    2.03999996    0.05000000
   19.13888931  167.57400513    2.03999996    0.05000000
   19.14222145  179.56399536    2.03999996    0.05000000
   19.14555550  189.63000488    2.03999996    0.05000000
   19.14861107  194.71099854    2.03999996    0.05000000
   19.14972115  200.36300659    2.03999996    0.05000000
   19.15444374  200.36300659    2.03999996    0.05000000
   19.15861130  181.92700195    2.03999996    0.05000000
   19.16194344  195.39900208    2.03999996    0.05000000
   19.16499901  151.83000183    2.03999996    0.05000000
   19.16833305  173.52799988    2.03999996    0.05000000
   19.17138863  161.78100586    2.03999996    0.05000000
   19.17472076  158.94299316    2.03999996    0.05000000
   19.17805481  159.36599731    2.03999996    0.05000000
   19.18111038  168.61099243    2.03999996    0.05000000
   19.18305397  173.56199646    2.03999996    0.05000000
   19.18499947  172.20199585    2.03999996    0.05000000
   19.18833160  166.72300720    2.03999996    0.05000000
   19.19138718  173.48599243    2.03999996    0.05000000
   19.19722176  173.48599243    2.03999996    0.05000000
   19.20138931  160.10400391    2.03999996    0.05000000
   19.20472336  162.74000549    2.03999996    0.05000000
   19.20777893  165.33599854    2.03999996    0.05000000
   19.21111107  169.57200623    2.03999996    0.05000000
   19.21444511  167.13000488    2.03999996    0.05000000
   19.21638870  164.76699829    2.03999996    0.05000000
   19.21777916  159.76100159    2.03999996    0.05000000
   19.22111130  157.10800171    2.03999996    0.05000000
   19.22416687  152.84599304    2.03999996    0.05000000
   19.22750092  172.82600403    2.03999996    0.05000000
   19.23083305  156.64300537    2.03999996    0.05000000
   19.23388863  151.97200012    2.03999996    0.05000000
   19.24027824  151.97200012    2.03999996    0.05000000
   19.24416733  159.36599731    2.03999996    0.05000000
   19.24749947  152.11700439    2.03999996    0.05000000
   19.24972153  143.41600037    2.03999996    0.05000000
   19.25111198  153.95599365    2.03999996    0.05000000
   19.25444412  159.58700562    2.03999996    0.05000000
   19.25777817  156.38200378    2.03999996    0.05000000
   19.26083374  169.03799438    2.03999996    0.05000000
   19.26416588  153.46299744    2.03999996    0.05000000
   19.26749992  145.71099854    2.03999996    0.05000000
   19.27055550  141.19799805    2.03999996    0.05000000
   19.27388954  155.03599548    2.03999996    0.05000000
   19.27694511  149.19599915    2.03999996    0.05000000
   19.28305435  149.19599915    2.03999996    0.05000000
   19.28722191  158.85299683    2.03999996    0.05000000
   19.29027748  153.42399597    2.03999996    0.05000000
   19.29361153  156.23500061    2.03999996    0.05000000
   19.29694366  147.72999573    2.03999996    0.05000000
   19.29999924  146.70799255    2.03999996    0.05000000
   19.30333328  155.88000488    2.03999996    0.05000000
   19.30666542  153.59800720    2.03999996    0.05000000
   19.30972099  148.93499756    2.03999996    0.05000000
   19.31305504  154.15499878    2.03999996    0.05000000
   19.31638718  150.15499878    2.03999996    0.05000000
   19.31666756  158.58999634    2.03999996    0.05000000
   19.32000160  146.25700378    2.03999996    0.05000000
   19.32583427  146.25700378    2.03999996    0.05000000
   19.33000183  154.08500671    2.03999996    0.05000000
   19.33333397  147.13299561    2.03999996    0.05000000
   19.33638954  153.66900635    2.03999996    0.05000000
   19.33972359  168.06300354    2.03999996    0.05000000
   19.34277916  154.40600586    2.03999996    0.05000000
   19.34611130  151.71400452    2.03999996    0.05000000
   19.34944534  150.57800293    2.03999996    0.05000000
   19.35000038  150.64999390    2.03999996    0.05000000
   19.35305595  142.27299500    2.03999996    0.05000000
   19.35639000  144.51100159    2.03999996    0.05000000
   19.35944557  152.14799500    2.03999996    0.05000000
   19.36277771  157.63200378    2.03999996    0.05000000
   19.36861038  157.63200378    2.03999996    0.05000000
   19.37277794  142.44200134    2.03999996    0.05000000
   19.37611198  147.91400146    2.03999996    0.05000000
   19.37916756  143.38499451    2.03999996    0.05000000
   19.38249969  149.55999756    2.03999996    0.05000000
   19.38333321  148.51699829    2.03999996    0.05000000
   19.38611031  146.69099426    2.03999996    0.05000000
   19.38944435  143.53700256    2.03999996    0.05000000
   19.39249992  145.71800232    2.03999996    0.05000000
   19.39583397  144.51400757    2.03999996    0.05000000
   19.39916611  139.21299744    2.03999996    0.05000000
   19.40222168  152.17599487    2.03999996    0.05000000
   19.40555573  137.45899963    2.03999996    0.05000000
   19.41166687  137.45899963    2.03999996    0.05000000
   19.41555595  151.09700012    2.03999996    0.05000000
   19.41666603  147.24299622    2.03999996    0.05000000
   19.41916656  152.21899414    2.03999996    0.05000000
   19.42249870  150.02400208    2.03999996    0.05000000
   19.42555428  143.27999878    2.03999996    0.05000000
   19.42888832  158.65800476    2.03999996    0.05000000
   19.43222237  154.16999817    2.03999996    0.05000000
   19.43527603  161.29600525    2.03999996    0.05000000
   19.43861008  146.18099976    2.03999996    0.05000000
   19.44194412  147.28399658    2.03999996    0.05000000
   19.44527626  140.91099548    2.03999996    0.05000000
   19.44833183  149.41299438    2.03999996    0.05000000
   19.45000076  148.25199890    2.03999996    0.05000000
   19.45444489  148.25199890    2.03999996    0.05000000
   19.45861244  137.32800293    2.03999996    0.05000000
   19.46166801  148.03900146    2.03999996    0.05000000
   19.46500015  141.25399780    2.03999996    0.05000000
   19.46833420  141.83900452    2.03999996    0.05000000
   19.47166634  139.47300720    2.03999996    0.05000000
   19.47472191  149.95599365    2.03999996    0.05000000
   19.47805595  141.26300049    2.03999996    0.05000000
   19.48111153  145.28399658    2.03999996    0.05000000
   19.48333359  143.40800476    2.03999996    0.05000000
   19.48472214  155.64300537    2.03999996    0.05000000
   19.48805618  142.01600647    2.03999996    0.05000000
   19.49111176  148.88699341    2.03999996    0.05000000
   19.49722290  148.88699341    2.03999996    0.05000000
   19.50138855  149.92900085    2.03999996    0.05000000
   19.50472260  156.94700623    2.03999996    0.05000000
   19.50777817  143.29400635    2.03999996    0.05000000
   19.51111031  153.49899292    2.03999996    0.05000000
   19.51416588  153.13000488    2.03999996    0.05000000
   19.51666641  156.02000427    2.03999996    0.05000000
   19.51777840  154.90199280    2.03999996    0.05000000
   19.52111053  151.60800171    2.03999996    0.05000000
   19.52416611  153.46899414    2.03999996    0.05000000
   19.52750015  144.26199341    2.03999996    0.05000000
   19.53083229  149.16400146    2.03999996    0.05000000
   19.53388786  146.61000061    2.03999996    0.05000000
   19.53999901  146.61000061    2.03999996    0.05000000
   19.54416656  141.46600342    2.03999996    0.05000000
   19.54749870  144.54299927    2.03999996    0.05000000
   19.54999924  154.72799683    2.03999996    0.05000000
   19.55111122  156.93899536    2.03999996    0.05000000
   19.55444336  154.25700378    2.03999996    0.05000000
   19.55749893  148.45700073    2.03999996    0.05000000
   19.56083298  150.38299561    2.03999996    0.05000000
   19.56416512  152.66000366    2.03999996    0.05000000
   19.56722260  153.87100220    2.03999996    0.05000000
   19.57055664  151.81799316    2.03999996    0.05000000
   19.57389069  149.21699524    2.03999996    0.05000000
   19.57694626  156.19299316    2.03999996    0.05000000
   19.58305550  156.19299316    2.03999996    0.05000000
   19.58694458  154.18400574    2.03999996    0.05000000
   19.59027863  158.43600464    2.03999996    0.05000000
   19.59361267  151.40400696    2.03999996    0.05000000
   19.59666824  151.30900574    2.03999996    0.05000000
   19.60000038  170.15800476    2.03999996    0.05000000
   19.60333443  169.88499451    2.03999996    0.05000000
   19.60639000  172.43499756    2.03999996    0.05000000
   19.60972214  163.50000000    2.03999996    0.05000000
   19.61277771  159.58000183    2.03999996    0.05000000
   19.61611176  158.25799561    2.03999996    0.05000000
   19.61805534  158.13299561    2.03999996    0.05000000
   19.61972237  154.43099976    2.03999996    0.05000000
   19.62583351  154.43099976    2.03999996    0.05000000
   19.63000107  159.05700684    2.03999996    0.05000000
   19.63305473  155.73199463    2.03999996    0.05000000
   19.63638878  165.70300293    2.03999996    0.05000000
   19.63972282  147.38699341    2.03999996    0.05000000
   19.64277840  152.23500061    2.03999996    0.05000000
   19.64611053  146.83399963    2.03999996    0.05000000
   19.64944458  147.17799377    2.03999996    0.05000000
   19.65138817  140.55099487    2.03999996    0.05000000
   19.65277672  155.91999817    2.03999996    0.05000000
   19.65611076  143.46699524    2.03999996    0.05000000
   19.65916634  144.57899475    2.03999996    0.05000000
   19.66250038  147.69200134    2.03999996    0.05000000
   19.66860962  147.69200134    2.03999996    0.05000000
   19.67277718  137.46800232    2.03999996    0.05000000
   19.67583275  148.27400208    2.03999996    0.05000000
   19.67916679  151.58599854    2.03999996    0.05000000
   19.68249893  150.14500427    2.03999996    0.05000000
   19.68472099  147.30200195    2.03999996    0.05000000
   19.68610954  148.39700317    2.03999996    0.05000000
   19.68916512  138.78999329    2.03999996    0.05000000
   19.69249916  149.17500305    2.03999996    0.05000000
   19.69583321  145.42700195    2.03999996    0.05000000
   19.69888878  149.87600708    2.03999996    0.05000000
   19.70222282  141.70899963    2.03999996    0.05000000
   19.70555687  145.31199646    2.03999996    0.05000000
   19.71138954  145.31199646    2.03999996    0.05000000
   19.71555710  142.48199463    2.03999996    0.05000000
   19.71805573  155.57000732    2.03999996    0.05000000
   19.71916771  146.44900513    2.03999996    0.05000000
   19.72249985  140.54800415    2.03999996    0.05000000
   19.72555542  140.30299377    2.03999996    0.05000000
   19.72888947  140.13099670    2.03999996    0.05000000
   19.73194504  141.50700378    2.03999996    0.05000000
   19.73527718  134.56700134    2.03999996    0.05000000
   19.73861122  148.15600586    2.03999996    0.05000000
   19.74166679  155.74600220    2.03999996    0.05000000
   19.74500084  146.11599731    2.03999996    0.05000000
   19.74833298  147.32299805    2.03999996    0.05000000
   19.75444412  147.32299805    2.03999996    0.05000000
   19.76749992  134.73699951    2.03999996    0.05000000
   19.77083397  142.30200195    2.03999996    0.05000000
   19.77388954  128.33700562    2.03999996    0.05000000
   19.77722168  132.21499634    2.03999996    0.05000000
   19.78055573  141.88099670    2.03999996    0.05000000
   19.78361130  140.40800476    2.03999996    0.05000000
   19.78777695  140.40800476    2.03999996    0.05000000
   19.79194450  138.91999817    2.03999996    0.05000000
   19.79500008  136.74299622    2.03999996    0.05000000
   19.79833221  141.78700256    2.03999996    0.05000000
   19.80083275  139.73599243    2.03999996    0.05000000
   19.80166626  135.98199463    2.03999996    0.05000000
   19.80499840  138.61799622    2.03999996    0.05000000
   19.80833244  138.51699829    2.03999996    0.05000000
   19.81138802  139.88600159    2.03999996    0.05000000
   19.81472206  136.38000488    2.03999996    0.05000000
   19.81805611  140.43299866    2.03999996    0.05000000
   19.82111168  146.22700500    2.03999996    0.05000000
   19.82444572  137.21600342    2.03999996    0.05000000
   19.83055687  137.21600342    2.03999996    0.05000000
   19.83472252  131.20100403    2.03999996    0.05000000
   19.83777809  144.65800476    2.03999996    0.05000000
   19.84111214  136.28199768    2.03999996    0.05000000
   19.84444427  140.51400757    2.03999996    0.05000000
   19.84749985  141.00999451    2.03999996    0.05000000
   19.85083389  141.06199646    2.03999996    0.05000000
   19.85416794  137.00700378    2.03999996    0.05000000
   19.85722351  131.27200317    2.03999996    0.05000000
   19.86055565  127.90299988    2.03999996    0.05000000
   19.86361122  138.87300110    2.03999996    0.05000000
   19.86694527  133.36599731    2.03999996    0.05000000
   19.86750031  129.84199524    2.03999996    0.05000000
   19.87333298  129.84199524    2.03999996    0.05000000
   19.87750053  137.83700562    2.03999996    0.05000000
   19.88083267  128.94200134    2.03999996    0.05000000
   19.88416672  134.85899353    2.03999996    0.05000000
   19.88750076  138.89399719    2.03999996    0.05000000
   19.89055634  131.30400085    2.03999996    0.05000000
   19.89388847  130.90800476    2.03999996    0.05000000
   19.89694405  134.74099731    2.03999996    0.05000000
   19.90027809  137.05799866    2.03999996    0.05000000
   19.90083313  134.80799866    2.03999996    0.05000000
   19.90388870  139.58099365    2.03999996    0.05000000
   19.90722275  132.24499512    2.03999996    0.05000000
   19.91027832  135.76199341    2.03999996    0.05000000
   19.91638756  135.76199341    2.03999996    0.05000000
   19.92055511  139.94500732    2.03999996    0.05000000
   19.92388916  133.87600708    2.03999996    0.05000000
   19.92694473  135.46200562    2.03999996    0.05000000
   19.93027687  135.45500183    2.03999996    0.05000000
   19.93333244  136.82000732    2.03999996    0.05000000
   19.93416595  132.18800354    2.03999996    0.05000000
   19.93694305  131.72999573    2.03999996    0.05000000
   19.94027710  127.26799774    2.03999996    0.05000000
   19.94333267  129.46299744    2.03999996    0.05000000
   19.94666672  132.49699402    2.03999996    0.05000000
   19.95000076  132.13900757    2.03999996    0.05000000
   19.95305634  135.69200134    2.03999996    0.05000000
   19.95916748  135.69200134    2.03999996    0.05000000
   19.96333504  137.73199463    2.03999996    0.05000000
   19.96666718  140.05200195    2.03999996    0.05000000
   19.96750069  129.00399780    2.03999996    0.05000000
   19.97000122  141.68600464    2.03999996    0.05000000
   19.97333336  133.84199524    2.03999996    0.05000000
   19.97638893  128.83399963    2.03999996    0.05000000
   19.97972298  127.52899933    2.03999996    0.05000000
   19.98305511  132.26400757    2.03999996    0.05000000
   19.98611069  127.31900024    2.03999996    0.05000000
   19.98944473  128.43299866    2.03999996    0.05000000
   19.99250031  140.30900574    2.03999996    0.05000000
   19.99583435  130.50500488    2.03999996    0.05000000
   20.00194359  130.50500488    2.03999996    0.05000000
   20.00611115  132.28500366    2.03999996    0.05000000
   20.00944519  132.16499329    2.03999996    0.05000000
   20.01277733  139.68600464    2.03999996    0.05000000
   20.01583290  134.47999573    2.03999996    0.05000000
   20.01916695  143.60000610    2.03999996    0.05000000
   20.02222252  130.50500488    2.03999996    0.05000000
   20.02555466  150.24400330    2.03999996    0.05000000
   20.02888870  162.46699524    2.03999996    0.05000000
   20.03194427  162.43299866    2.03999996    0.05000000
   20.03416634  169.54600525    2.03999996    0.05000000
   20.03555489  173.99699402    2.03999996    0.05000000
