    HOUR (UT)   FLARE FACTOR    SKY TESTER    SUN TESTER
   10.44138908   -1.00000000   -1.00000000   -1.00000000
   10.46277714  260.79098511    0.86000001    1.69000006
   10.46611118  233.08599854    0.86000001    1.69000006
   10.46916580  207.90199280    0.86000001    1.69000006
   10.47249985  242.87399292    0.88000000    1.69000006
   10.47583294  251.37899780    0.86000001    1.69000006
   10.47944355  260.82699585    0.88000000    1.71000004
   10.48694515  263.91198730    0.88000000    1.73000002
   10.48694515  233.08599854    0.86000001    1.69000006
   10.48694515  207.90199280    0.86000001    1.69000006
   10.48694515  242.87399292    0.88000000    1.69000006
   10.48722267  251.37899780    0.86000001    1.69000006
   10.48722267  260.82699585    0.88000000    1.71000004
   10.48777771  274.38500977    0.88000000    1.73000002
   10.48833370  272.48098755    0.88000000    1.73000002
   10.49138927  273.61300659    0.88000000    1.73000002
   10.49472237  247.15699768    0.88000000    1.73000002
   10.49805546  249.49600220    0.88000000    1.73000002
   10.50111103  272.07199097    0.88000000    1.73000002
   10.50749969  272.07199097    0.88000000    1.73000002
   10.51166630  231.27000427    0.88000000    1.75000000
   10.51500034  232.96299744    0.88000000    1.75000000
   10.51833344  225.24600220    0.88000000    1.75000000
   10.52111053  233.17300415    0.88000000    1.76999998
   10.52166653  238.22200012    0.88000000    1.76999998
   10.52499962  226.01400757    0.88000000    1.76999998
   10.52805519  243.01600647    0.88000000    1.76999998
   10.53138828  256.56100464    0.88000000    1.76999998
   10.53472233  211.77900696    0.88000000    1.76999998
   10.53777790  228.49800110    0.88000000    1.76999998
   10.54111195  225.76300049    0.86000001    1.78999996
   10.54444504  207.55099487    0.86000001    1.78999996
   10.55055618  207.55099487    0.86000001    1.78999996
   10.55472279  219.46400452    0.83999997    1.78999996
   10.55777836  209.73100281    0.83999997    1.80999994
   10.56111145  234.58200073    0.83999997    1.80999994
   10.56416702  201.46600342    0.81999999    1.80999994
   10.56750011  205.43699646    0.81999999    1.83000004
   10.57083321  187.27400208    0.81999999    1.83000004
   10.57388878  180.53100586    0.81999999    1.83000004
   10.57722187  196.02099609    0.81999999    1.85000002
   10.58055592  196.02099609    0.80000001    1.85000002
   10.58361053  188.94799805    0.80000001    1.85000002
   10.58694458  180.41400146    0.80000001    1.85000002
   10.58777714  187.77799988    0.80000001    1.85000002
   10.59333324  187.77799988    0.79000002    1.85000002
   10.59749985  177.55599976    0.79000002    1.86000001
   10.60083389  171.76199341    0.79000002    1.86000001
   10.60388947  189.04499817    0.76999998    1.86000001
   10.60722256  178.58399963    0.76999998    1.86000001
   10.61055565  174.98199463    0.76999998    1.88000000
   10.61361122  185.98300171    0.76999998    1.88000000
   10.61694431  167.21699524    0.75000000    1.88000000
   10.61999989  170.76800537    0.75000000    1.88000000
   10.62111092  170.39900208    0.75000000    1.88000000
   10.62361145  161.81199646    0.75000000    1.88000000
   10.62694454  161.18800354    0.75000000    1.88000000
   10.63027763  166.02000427    0.75000000    1.88000000
   10.63611126  166.02000427    0.73000002    1.88000000
   10.64027786  165.02499390    0.73000002    1.89999998
   10.64361095  169.27900696    0.73000002    1.89999998
   10.64666653  163.36300659    0.70999998    1.91999996
   10.64999962  166.09399414    0.70999998    1.91999996
   10.65305519  171.05700684    0.70999998    1.91999996
   10.65444374  166.12600708    0.69000000    1.91999996
   10.65666676  167.82099915    0.69000000    1.91999996
   10.65999985  167.56500244    0.69000000    1.91999996
   10.66333294  162.89999390    0.67000002    1.91999996
   10.66638851  164.57200623    0.67000002    1.94000006
   10.66972256  160.29800415    0.67000002    1.94000006
   10.67305565  162.32499695    0.64999998    1.94000006
   10.67888927  162.32499695    0.64999998    1.94000006
   10.68305588  163.94500732    0.64999998    1.94000006
   10.68638897  167.03599548    0.63000000    1.94000006
   10.68777752  169.27799988    0.64999998    1.96000004
   10.68972206  173.70700073    0.64999998    1.96000004
   10.69305515  171.67100525    0.64999998    1.96000004
   10.69638920  170.33000183    0.63000000    1.98000002
   10.69944477  180.05900574    0.63000000    1.96000004
   10.70277786  164.09300232    0.63000000    1.96000004
   10.70583344  165.19799805    0.63000000    1.98000002
   10.70944405  169.51199341    0.63000000    1.98000002
   10.71249962  175.11500549    0.63000000    1.98000002
   10.71583271  169.86999512    0.63000000    1.98000002
   10.72194386  169.86999512    0.63000000    2.00000000
   10.72583294  168.83299255    0.63000000    2.00000000
   10.72916603  183.37600708    0.61000001    2.00000000
   10.73249912  170.34599304    0.63000000    2.00000000
   10.73555565  158.68800354    0.61000001    2.01999998
   10.73888874  160.91700745    0.61000001    2.01999998
   10.74222279  159.92599487    0.61000001    2.00000000
   10.74527836  159.80900574    0.61000001    2.01999998
   10.74861145  160.66099548    0.61000001    2.01999998
   10.75166702  159.87100220    0.61000001    2.01999998
   10.75444412  156.33000183    0.61000001    2.03999996
   10.75527763  164.06399536    0.61000001    2.03999996
   10.75861073  162.89799500    0.61000001    2.01999998
   10.76472187  162.89799500    0.61000001    2.03999996
   10.76888847  161.01100159    0.61000001    2.03999996
   10.77194405  161.42599487    0.61000001    2.03999996
   10.77527714  171.33200073    0.61000001    2.03999996
   10.77861118  169.32499695    0.61000001    2.03999996
   10.78166676  168.22399902    0.58999997    2.03999996
   10.78500080  170.42300415    0.58999997    2.05999994
   10.78777790  176.70899963    0.58999997    2.05999994
   10.78861141  168.38900757    0.58999997    2.05999994
   10.79194450  159.97099304    0.58999997    2.05999994
   10.79527855  161.46099854    0.58999997    2.05999994
   10.79833412  160.08299255    0.56999999    2.05999994
   10.80166721  165.78799438    0.56999999    2.05999994
   10.80749989  165.78799438    0.56999999    2.05999994
   10.81166649  169.67100525    0.56999999    2.07999992
   10.81500053  171.24099731    0.56999999    2.07999992
   10.81805515  163.91999817    0.56999999    2.07999992
   10.82111073  168.65800476    0.56999999    2.07999992
   10.82166672  159.47599792    0.56999999    2.07999992
   10.82499981  165.11599731    0.55000001    2.07999992
   10.82833290  164.34199524    0.55000001    2.07999992
   10.83138847  176.31199646    0.55000001    2.07999992
   10.83472157  167.73300171    0.55000001    2.07999992
   10.83777714  163.19999695    0.55000001    2.09999990
   10.84111118  163.28500366    0.55000001    2.09999990
   10.84444427  169.20300293    0.55000001    2.09999990
   10.85027790  169.20300293    0.52999997    2.11999989
   10.85444450  192.07200623    0.52999997    2.11999989
   10.85777855  179.47300720    0.52999997    2.11999989
   10.86083412  180.79299927    0.52999997    2.11999989
   10.86416721  176.29400635    0.52999997    2.11999989
   10.86750031  182.83700562    0.52999997    2.11999989
   10.87055588  170.71099854    0.52999997    2.13000011
   10.87388897  202.52299500    0.51999998    2.11999989
   10.87722206  208.18699646    0.51999998    2.11999989
   10.88027763  184.37199402    0.51999998    2.13000011
   10.88361073  183.93899536    0.52999997    2.11999989
   10.88666630  195.50999451    0.51999998    2.13000011
   10.88777733  194.16400146    0.52999997    2.13000011
   10.89333344  194.16400146    0.51999998    2.15000010
   10.89722252  162.61599731    0.51999998    2.15000010
   10.90055561  168.22999573    0.51999998    2.15000010
   10.90388870  170.03300476    0.51999998    2.15000010
   10.90694427  165.58299255    0.51999998    2.15000010
   10.91027737  169.47200012    0.51999998    2.15000010
   10.91361046  162.68600464    0.51999998    2.15000010
   10.91666698  155.65299988    0.50000000    2.15000010
   10.92000008  159.73899841    0.50000000    2.15000010
   10.92111111  160.88699341    0.50000000    2.15000010
   10.92333412  160.66299438    0.51999998    2.15000010
   10.92666721  154.03500366    0.50000000    2.15000010
   10.93000031  158.62500000    0.50000000    2.15000010
   10.93611145  158.62500000    0.47999999    2.15000010
   10.94027805  160.23199463    0.47999999    2.17000008
   10.94333363  154.00500488    0.47999999    2.17000008
   10.94666672  158.80799866    0.47999999    2.17000008
   10.94999981  158.16099548    0.47999999    2.17000008
   10.95305538  159.30400085    0.47999999    2.17000008
   10.95444393  161.48800659    0.47999999    2.17000008
   10.95666695  167.43299866    0.47999999    2.17000008
   10.96000004  168.30499268    0.47999999    2.17000008
   10.96333313  157.82200623    0.47999999    2.17000008
   10.96638870  162.21499634    0.47999999    2.17000008
   10.96972179  158.40400696    0.47999999    2.19000006
   10.97305489  162.69200134    0.47999999    2.19000006
   10.97888851  162.69200134    0.47999999    2.21000004
   10.98305511  181.85600281    0.47999999    2.19000006
   10.98638916  163.10000610    0.47999999    2.19000006
   10.98777771  177.16600037    0.47999999    2.21000004
   10.98972225  164.01800537    0.47999999    2.21000004
   10.99305534  177.75900269    0.47999999    2.21000004
   10.99638939  171.82099915    0.47999999    2.21000004
   10.99944496  167.80499268    0.47999999    2.21000004
   11.00277805  166.01600647    0.47999999    2.21000004
   11.00611115  164.94200134    0.47999999    2.21000004
   11.00916672  168.17599487    0.47999999    2.21000004
   11.01249981  175.50100708    0.47999999    2.21000004
   11.01583290  158.72399902    0.47999999    2.23000002
   11.02166653  158.72399902    0.47999999    2.23000002
   11.02583313  155.12300110    0.47999999    2.23000002
   11.02916622  158.61599731    0.47999999    2.23000002
   11.03222179  155.87399292    0.47999999    2.23000002
   11.03555584  154.22300720    0.47999999    2.25000000
   11.03888893  149.74899292    0.47999999    2.23000002
   11.04194450  159.03100586    0.46000001    2.23000002
   11.04527855  154.29100037    0.46000001    2.23000002
   11.04861164  156.11799622    0.46000001    2.23000002
   11.05166721  148.06599426    0.46000001    2.23000002
   11.05444431  148.86099243    0.46000001    2.25000000
   11.05555534  148.63200378    0.46000001    2.25000000
   11.05861092  150.67599487    0.46000001    2.25000000
   11.06472206  150.67599487    0.44000000    2.25000000
   11.06888866  153.91999817    0.44000000    2.25000000
   11.07194424  152.71699524    0.44000000    2.25000000
   11.07527733  153.73300171    0.41999999    2.25000000
   11.07833290  156.62899780    0.41999999    2.26999998
   11.08166695  155.78500366    0.41999999    2.26999998
   11.08500004  155.36999512    0.41999999    2.25000000
   11.08777714  158.11500549    0.41999999    2.25000000
   11.08833313  151.28300476    0.41999999    2.26999998
   11.09166622  153.59399414    0.41999999    2.26999998
   11.09499931  152.48199463    0.41999999    2.26999998
   11.09805489  158.17900085    0.41999999    2.26999998
   11.10138893  157.64500427    0.41999999    2.26999998
   11.10750008  157.64500427    0.41999999    2.28999996
   11.11166668  160.08700562    0.41999999    2.26999998
   11.11472225  155.59100342    0.41999999    2.26999998
   11.11805534  155.98699951    0.41999999    2.26999998
   11.12111092  158.25399780    0.41999999    2.28999996
   11.12166691  153.86199951    0.41999999    2.28999996
   11.12500000  158.35600281    0.41999999    2.28999996
   11.12805557  152.71400452    0.44000000    2.28999996
   11.13138866  153.17700195    0.44000000    2.28999996
   11.13472176  155.03300476    0.44000000    2.28999996
   11.13777733  154.35699463    0.44000000    2.28999996
   11.14111137  154.08500671    0.44000000    2.28999996
   11.14444447  150.20300293    0.41999999    2.28999996
   11.15027714  150.20300293    0.44000000    2.28999996
   11.15444374  156.28100586    0.44000000    2.30999994
   11.15777779  158.07899475    0.44000000    2.30999994
   11.16083336  154.69999695    0.44000000    2.30999994
   11.16416645  151.22700500    0.44000000    2.30999994
   11.16750050  150.64500427    0.44000000    2.28999996
   11.17055607  153.09100342    0.44000000    2.28999996
   11.17388916  155.02600098    0.44000000    2.28999996
   11.17694473  157.19799805    0.44000000    2.32999992
   11.18027782  154.76199341    0.44000000    2.30999994
   11.18361092  158.06100464    0.41999999    2.30999994
   11.18694496  153.13200378    0.41999999    2.30999994
   11.18777752  152.41700745    0.41999999    2.30999994
   11.19305515  152.41700745    0.41999999    2.32999992
   11.19722271  156.04499817    0.41999999    2.32999992
   11.20055580  149.32800293    0.41999999    2.32999992
   11.20361137  154.21499634    0.41999999    2.32999992
   11.20694447  151.68800354    0.41999999    2.32999992
   11.21027756  154.57200623    0.41999999    2.32999992
   11.21333313  147.72799683    0.41999999    2.32999992
   11.21666622  154.96899414    0.41999999    2.32999992
   11.21999931  153.88299561    0.41999999    2.32999992
   11.22111034  150.32200623    0.40000001    2.32999992
   11.22361088  148.75399780    0.40000001    2.32999992
   11.22666645  147.01699829    0.40000001    2.32999992
   11.22999954  147.10099792    0.40000001    2.34999990
   11.23611164  147.10099792    0.38000000    2.32999992
   11.24000072  148.68400574    0.38000000    2.32999992
   11.24333382  149.51100159    0.38000000    2.32999992
   11.24666691  152.28199768    0.38000000    2.34999990
   11.25000000  152.01400757    0.38000000    2.34999990
   11.25305557  150.72999573    0.38000000    2.34999990
   11.25444412  150.44599915    0.38000000    2.34999990
   11.25694466  154.37699890    0.38000000    2.34999990
   11.26000023  150.69999695    0.40000001    2.36999989
   11.26333332  155.39399719    0.40000001    2.36999989
   11.26638889  155.29400635    0.40000001    2.36999989
   11.26972198  151.99200439    0.40000001    2.34999990
   11.27305508  155.27799988    0.40000001    2.36999989
   11.27888870  155.27799988    0.38000000    2.36999989
   11.28305531  149.47500610    0.40000001    2.36999989
   11.28611183  147.73300171    0.40000001    2.36999989
   11.28777790  148.40400696    0.38000000    2.36999989
   11.29000092  150.75500488    0.38000000    2.39000010
   11.29305553  149.63600159    0.38000000    2.36999989
   11.29638958  145.36599731    0.38000000    2.36999989
   11.29944515  146.28500366    0.38000000    2.39000010
   11.30277824  150.35099792    0.38000000    2.36999989
   11.30611134  152.25900269    0.38000000    2.36999989
   11.30916691  150.48500061    0.38000000    2.39000010
   11.31250000  148.38499451    0.38000000    2.36999989
   11.31583309  150.16900635    0.36000001    2.39000010
   11.32166672  150.16900635    0.38000000    2.39000010
   11.32583332  149.53399658    0.38000000    2.39000010
   11.32888889  152.19400024    0.36000001    2.39000010
   11.33222198  156.26899719    0.38000000    2.39000010
   11.33555508  150.60899353    0.36000001    2.39000010
   11.33861065  150.13200378    0.38000000    2.39000010
   11.34194374  151.12300110    0.38000000    2.39000010
   11.34527779  147.68499756    0.38000000    2.39000010
   11.34833336  152.27699280    0.38000000    2.40000010
   11.35166740  147.09399414    0.36000001    2.40000010
   11.35444450  153.39700317    0.36000001    2.40000010
   11.35527802  147.41600037    0.38000000    2.39000010
   11.35833359  153.76400757    0.38000000    2.39000010
   11.36444473  153.76400757    0.36000001    2.40000010
   11.36861134  150.70500183    0.38000000    2.40000010
   11.37194443  145.29899597    0.36000001    2.40000010
   11.37500000  154.16200256    0.38000000    2.40000010
   11.37833309  151.57400513    0.38000000    2.40000010
   11.38166714  148.53500366    0.38000000    2.40000010
   11.38472176  153.33099365    0.38000000    2.40000010
   11.38777733  147.09100342    0.38000000    2.40000010
   11.38861084  148.57400513    0.38000000    2.40000010
   11.39166641  145.39599609    0.38000000    2.40000010
   11.39499950  154.16999817    0.38000000    2.40000010
   11.39833355  149.17999268    0.38000000    2.40000010
   11.40138817  146.31100464    0.36000001    2.40000010
   11.40749931  146.31100464    0.36000001    2.42000008
   11.41138840  150.12699890    0.36000001    2.40000010
   11.41472149  153.47700500    0.36000001    2.40000010
   11.41805553  148.90199280    0.36000001    2.42000008
   11.42111111  145.28399658    0.36000001    2.42000008
   11.42166710  150.50000000    0.36000001    2.42000008
   11.42472267  153.98599243    0.36000001    2.42000008
   11.42805576  147.59199524    0.36000001    2.42000008
   11.43111134  145.83700562    0.36000001    2.42000008
   11.43444443  148.76100159    0.36000001    2.42000008
   11.43777752  150.38900757    0.36000001    2.42000008
   11.44083309  144.45399475    0.36000001    2.42000008
   11.44416714  148.75500488    0.38000000    2.42000008
   11.45027733  148.75500488    0.36000001    2.42000008
   11.45444393  142.62600708    0.38000000    2.44000006
   11.45472240  144.27400208    0.38000000    2.44000006
   11.45805550  147.07800293    0.36000001    2.42000008
   11.46138859  154.79699707    0.36000001    2.44000006
   11.48083305  151.55299377    0.34000000    2.44000006
   11.48416710  156.16700745    0.34000000    2.44000006
   11.48750019  150.79299927    0.34000000    2.44000006
   11.48833370  145.91999817    0.34000000    2.44000006
   11.49305534  145.91999817    0.34000000    2.44000006
   11.49722290  149.58200073    0.36000001    2.46000004
   11.50055599  149.95100403    0.34000000    2.44000006
   11.50361156  148.44599915    0.36000001    2.44000006
   11.50694466  151.66499329    0.36000001    2.44000006
   11.51027775  151.50700378    0.36000001    2.46000004
   11.51333332  148.91499329    0.36000001    2.46000004
   11.51666641  149.00100708    0.36000001    2.46000004
   11.51999950  144.78599548    0.36000001    2.46000004
   11.52166653  145.18899536    0.34000000    2.46000004
   11.52361107  147.14500427    0.34000000    2.46000004
   11.52666664  149.71099854    0.34000000    2.46000004
   11.52999973  147.58099365    0.34000000    2.46000004
   11.53583336  147.58099365    0.34000000    2.46000004
   11.54000092  147.45700073    0.34000000    2.46000004
   11.54333401  147.02900696    0.34000000    2.46000004
   11.54666710  154.63699341    0.34000000    2.46000004
   11.54972267  150.11500549    0.34000000    2.46000004
   11.55305576  146.59199524    0.36000001    2.46000004
   11.55500031  146.44999695    0.36000001    2.46000004
   11.55666733  146.45500183    0.34000000    2.46000004
   11.55972195  148.96000671    0.34000000    2.46000004
   11.56305599  152.73100281    0.34000000    2.46000004
   11.56638908  149.20599365    0.34000000    2.46000004
   11.56944466  145.51699829    0.34000000    2.48000002
   11.57277775  146.13800049    0.34000000    2.48000002
   11.57888889  146.13800049    0.36000001    2.48000002
   11.58305550  147.34800720    0.36000001    2.46000004
   11.58611107  146.13400269    0.36000001    2.46000004
   11.58833313  146.51300049    0.36000001    2.46000004
   11.58972168  142.53799438    0.36000001    2.46000004
   11.59277725  144.84899902    0.36000001    2.48000002
   11.59611034  145.23599243    0.36000001    2.48000002
   11.59944439  147.50999451    0.36000001    2.48000002
   11.60277843  146.49600220    0.36000001    2.48000002
   11.60583401  143.63000488    0.36000001    2.48000002
   11.60916710  148.76600647    0.36000001    2.48000002
   11.61250019  153.60600281    0.36000001    2.48000002
   11.61555576  144.38400269    0.36000001    2.48000002
   11.62166691  144.38400269    0.36000001    2.48000002
   11.62583351  145.11599731    0.36000001    2.48000002
   11.62888908  141.46600342    0.38000000    2.48000002
   11.63222218  139.82899475    0.38000000    2.48000002
   11.63555527  140.29600525    0.38000000    2.48000002
   11.63861084  136.40899658    0.36000001    2.50000000
   11.64194393  136.32600403    0.38000000    2.50000000
   11.64527798  136.35299683    0.36000001    2.50000000
   11.64833355  136.57400513    0.36000001    2.50000000
   11.65166664  143.65199280    0.36000001    2.50000000
   11.65472221  139.79499817    0.36000001    2.48000002
   11.65694427  146.53900146    0.36000001    2.50000000
   11.65861034  146.82299805    0.36000001    2.50000000
   11.66444397  146.82299805    0.34000000    2.50000000
   11.66861153  143.34300232    0.34000000    2.50000000
   11.67194462  147.05400085    0.34000000    2.50000000
   11.67500019  143.93400574    0.34000000    2.50000000
   11.67833328  146.90899658    0.34000000    2.50000000
   11.68166733  145.88699341    0.34000000    2.50000000
   11.68472195  141.19299316    0.31999999    2.50000000
   11.68805599  143.46499634    0.31999999    2.50000000
   11.69000053  143.34100342    0.31999999    2.50000000
   11.69166660  151.05299377    0.31999999    2.50000000
   11.69472218  148.27000427    0.34000000    2.50000000
   11.69805527  141.13099670    0.34000000    2.51999998
   11.70138836  137.46499634    0.34000000    2.51999998
   11.70722198  137.46499634    0.34000000    2.51999998
   11.71138859  151.21899414    0.34000000    2.50000000
   11.71472168  145.49099731    0.34000000    2.50000000
   11.71805477  143.93699646    0.34000000    2.50000000
   11.72111034  148.56599426    0.34000000    2.50000000
   11.72361088  147.01800537    0.34000000    2.51999998
   11.72472191  143.48300171    0.34000000    2.51999998
   11.72805500  143.15199280    0.36000001    2.50000000
   11.73138809  140.88900757    0.36000001    2.51999998
   11.73444462  150.08599854    0.34000000    2.51999998
   11.73777771  141.38900757    0.34000000    2.51999998
   11.74083328  140.35499573    0.34000000    2.51999998
   11.74416733  142.18699646    0.34000000    2.51999998
   11.75027752  142.18699646    0.34000000    2.50000000
   11.75416660  147.00399780    0.34000000    2.51999998
   11.75694466  144.55999756    0.34000000    2.51999998
   11.75777817  143.61700439    0.34000000    2.51999998
   11.76111126  142.88000488    0.34000000    2.51999998
   11.76444435  144.56799316    0.34000000    2.51999998
   11.76777744  139.41000366    0.34000000    2.51999998
   11.77083302  142.69099426    0.34000000    2.51999998
   11.77416611  145.14100647    0.34000000    2.53999996
   11.77722168  146.31500244    0.34000000    2.53999996
   11.78055573  146.43200684    0.34000000    2.51999998
   11.78388977  147.05900574    0.34000000    2.51999998
   11.78694534  143.59399414    0.34000000    2.51999998
   11.79305553  143.59399414    0.36000001    2.53999996
   11.79722309  134.43400574    0.34000000    2.53999996
   11.80027771  137.97900391    0.34000000    2.51999998
   11.80361176  139.45500183    0.34000000    2.53999996
   11.80694485  144.39999390    0.34000000    2.53999996
   11.81000042  146.62500000    0.34000000    2.53999996
   11.81333351  140.35899353    0.34000000    2.53999996
   11.81638908  142.91000366    0.31999999    2.53999996
   11.81972218  138.18099976    0.31999999    2.53999996
   11.82305527  139.12399292    0.31999999    2.55999994
   11.82388878  135.35200500    0.31999999    2.55999994
   11.82666683  139.85200500    0.31999999    2.53999996
   11.82972240  139.99699402    0.31999999    2.53999996
   11.83583260  139.99699402    0.30000001    2.53999996
   11.84000015  144.36199951    0.30000001    2.55999994
   11.84333324  142.70100403    0.30000001    2.53999996
   11.84638882  145.20300293    0.30000001    2.55999994
   11.84972191  148.35499573    0.30000001    2.53999996
   11.85305595  148.50900269    0.30000001    2.53999996
   11.85611153  142.46000671    0.30000001    2.53999996
   11.85722256  146.90499878    0.30000001    2.55999994
   11.85972214  151.90800476    0.30000001    2.55999994
   11.86277771  140.63699341    0.30000001    2.55999994
   11.86611176  149.77200317    0.30000001    2.55999994
   11.86944485  147.65199280    0.30000001    2.55999994
   11.87277794  144.18499756    0.30000001    2.55999994
   11.87861156  144.18499756    0.30000001    2.55999994
   11.88277817  146.32899475    0.30000001    2.55999994
   11.88611126  147.49499512    0.30000001    2.55999994
   11.88916683  148.42700195    0.30000001    2.55999994
   11.89083290  145.58099365    0.30000001    2.55999994
   11.89305496  144.02900696    0.30000001    2.55999994
   11.89611053  148.22300720    0.30000001    2.55999994
   11.89944458  147.86700439    0.30000001    2.55999994
   11.90249920  141.60899353    0.30000001    2.55999994
   11.90583324  147.06599426    0.30000001    2.55999994
   11.90916634  148.58299255    0.30000001    2.55999994
   11.91222191  146.06199646    0.30000001    2.55999994
   11.91555500  143.70899963    0.30000001    2.55999994
   11.92166710  143.70899963    0.30000001    2.55999994
   11.92583370  145.96400452    0.30000001    2.55999994
   11.92916679  139.81500244    0.30000001    2.55999994
   11.93222237  146.62300110    0.30000001    2.55999994
   11.93555546  148.55200195    0.30000001    2.55999994
   11.93888855  151.01400757    0.30000001    2.55999994
   11.94194412  149.78999329    0.30000001    2.57999992
   11.94527817  141.63600159    0.30000001    2.57999992
   11.94833374  151.44599915    0.30000001    2.57999992
   11.95166683  149.25999451    0.30000001    2.57999992
   11.95499992  145.53900146    0.30000001    2.57999992
   11.95749950  146.34899902    0.30000001    2.57999992
   11.95861053  148.68299866    0.30000001    2.57999992
   11.96444416  148.68299866    0.30000001    2.57999992
   11.96861076  140.31300354    0.30000001    2.57999992
   11.97194386  141.60000610    0.30000001    2.57999992
   11.97499943  138.73399353    0.30000001    2.59999990
   11.97833252  144.80000305    0.30000001    2.59999990
   11.98166656  135.76600647    0.30000001    2.59999990
   11.98472214  140.75999451    0.30000001    2.57999992
   11.98805618  139.16099548    0.30000001    2.57999992
   11.99083328  137.48599243    0.30000001    2.57999992
   11.99166679  139.68400574    0.30000001    2.57999992
   11.99472237  136.25300598    0.30000001    2.57999992
   11.99805546  138.78700256    0.30000001    2.57999992
   12.00111103  142.10299683    0.31999999    2.57999992
   12.00722218  142.10299683    0.30000001    2.57999992
   12.01138878  138.34500122    0.30000001    2.59999990
   12.01472187  142.86199951    0.30000001    2.59999990
   12.01777744  136.32899475    0.30000001    2.59999990
   12.02111053  140.95500183    0.30000001    2.59999990
   12.02416611  139.56199646    0.30000001    2.59999990
   12.02444458  138.65800476    0.30000001    2.59999990
   12.02777767  143.94799805    0.30000001    2.57999992
   12.03111076  141.48100281    0.30000001    2.57999992
   12.03416729  144.69400024    0.31999999    2.59999990
   12.03750038  144.71699524    0.31999999    2.57999992
   12.04083347  142.35000610    0.31999999    2.57999992
   12.04388905  136.31900024    0.31999999    2.59999990
   12.05000019  136.31900024    0.30000001    2.59999990
   12.05416679  134.45300293    0.30000001    2.57999992
   12.05749989  137.12300110    0.31999999    2.59999990
   12.05805588  136.16499329    0.31999999    2.59999990
   12.06111145  140.29400635    0.30000001    2.59999990
   12.06444454  136.20500183    0.30000001    2.59999990
   12.06750011  143.17199707    0.30000001    2.59999990
   12.07083321  137.89700317    0.30000001    2.59999990
   12.07416630  139.96800232    0.30000001    2.59999990
   12.07722187  141.39599609    0.30000001    2.59999990
   12.08055592  142.51800537    0.28000000    2.59999990
   12.08388901  139.36199951    0.28000000    2.59999990
   12.08694458  140.90800476    0.30000001    2.59999990
   12.09305477  140.90800476    0.28000000    2.59999990
   12.09694386  142.20199585    0.28000000    2.59999990
   12.10027790  146.82000732    0.28000000    2.59999990
   12.10361195  149.85400391    0.28000000    2.59999990
   12.10666752  144.16099548    0.28000000    2.61999989
   12.11000061  146.55900574    0.28000000    2.61999989
   12.11333370  142.69000244    0.28000000    2.59999990
   12.11638927  143.67300415    0.28000000    2.59999990
   12.11972237  148.76600647    0.28000000    2.61999989
   12.12277794  140.60000610    0.28000000    2.61999989
   12.12416649  138.11799622    0.28000000    2.61999989
   12.12666702  145.75000000    0.28000000    2.61999989
   12.12972260  146.42900085    0.28000000    2.59999990
   12.13583279  146.42900085    0.28000000    2.61999989
   12.14000034  143.35699463    0.28000000    2.61999989
   12.14305496  139.56500244    0.28000000    2.61999989
   12.14638901  139.11500549    0.28000000    2.61999989
   12.14972210  143.74000549    0.28000000    2.61999989
   12.15277767  140.63200378    0.28000000    2.61999989
   12.15611076  143.92599487    0.28000000    2.61999989
   12.15749931  135.30200195    0.28000000    2.61999989
   12.15972137  137.23100281    0.28000000    2.61999989
   12.16277695  142.85299683    0.28000000    2.61999989
   12.16638851  146.09199524    0.28000000    2.59999990
   12.16972256  142.87199402    0.28000000    2.61999989
   12.17277813  150.42700195    0.25999999    2.61999989
   12.17861176  150.42700195    0.25999999    2.61999989
   12.18277836  145.19400024    0.28000000    2.61999989
   12.18611145  141.93800354    0.25999999    2.61999989
   12.18916702  140.36300659    0.25999999    2.64000010
   12.19111156  147.70199585    0.28000000    2.64000010
   12.19277763  146.41000366    0.25999999    2.61999989
   12.19611073  142.91400146    0.25999999    2.61999989
   12.19944477  141.58999634    0.28000000    2.61999989
   12.20249939  137.70100403    0.28000000    2.61999989
   12.20583344  146.24499512    0.28000000    2.61999989
   12.20888901  146.22399902    0.28000000    2.64000010
   12.21222210  139.10899353    0.28000000    2.61999989
   12.21555519  140.99000549    0.25999999    2.64000010
   12.22138882  140.99000549    0.25999999    2.64000010
   12.22555542  145.74499512    0.28000000    2.61999989
   12.22888851  145.64599609    0.28000000    2.61999989
   12.23194408  141.88200378    0.25999999    2.61999989
   12.23527813  140.80599976    0.28000000    2.61999989
   12.23861122  141.50599670    0.25999999    2.64000010
   12.24166679  143.92799377    0.25999999    2.64000010
   12.24499989  145.97000122    0.28000000    2.64000010
   12.24805546  139.83999634    0.28000000    2.64000010
   12.25138855  147.60299683    0.25999999    2.64000010
   12.25472260  139.71699524    0.28000000    2.64000010
   12.25777817  144.78999329    0.25999999    2.64000010
   12.25805569  141.24899292    0.25999999    2.64000010
   12.26444435  141.24899292    0.25999999    2.64000010
   12.26833344  143.27400208    0.25999999    2.64000010
   12.27166653  147.50999451    0.25999999    2.64000010
   12.27499962  146.67300415    0.28000000    2.64000010
   12.27805519  143.52000427    0.28000000    2.64000010
   12.28138828  143.35000610    0.28000000    2.64000010
   12.28472233  141.25000000    0.28000000    2.64000010
   12.28777790  143.07200623    0.25999999    2.64000010
   12.29111195  148.52400208    0.28000000    2.64000010
   12.29138947  143.44700623    0.28000000    2.64000010
   12.29472256  143.27099609    0.28000000    2.64000010
   12.29805565  143.45799255    0.28000000    2.64000010
   12.30111122  141.85200500    0.28000000    2.64000010
   12.30722237  141.85200500    0.28000000    2.64000010
   12.31138897  141.58299255    0.28000000    2.64000010
   12.31444454  140.43099976    0.28000000    2.64000010
   12.31777763  136.89199829    0.28000000    2.64000010
   12.32111073  137.10299683    0.28000000    2.66000009
   12.32416630  137.78100586    0.28000000    2.64000010
   12.32499981  139.89799500    0.28000000    2.64000010
   12.32805538  135.08999634    0.28000000    2.66000009
   12.33138847  136.63400269    0.28000000    2.66000009
   12.33444405  134.39399719    0.28000000    2.66000009
   12.33777714  137.67300415    0.28000000    2.66000009
   12.34111118  139.40299988    0.28000000    2.66000009
   12.34416676  139.29400635    0.28000000    2.66000009
   12.35000038  139.29400635    0.28000000    2.64000010
   12.35416698  134.95500183    0.25999999    2.64000010
   12.35750008  138.72500610    0.25999999    2.64000010
   12.35805607  140.18299866    0.25999999    2.64000010
   12.36111164  141.78799438    0.25999999    2.64000010
   12.36416721  144.98800659    0.28000000    2.66000009
   12.36750031  145.67999268    0.28000000    2.66000009
   12.37083340  141.54400635    0.28000000    2.66000009
   12.37388897  140.36000061    0.28000000    2.64000010
   12.37722206  137.57400513    0.28000000    2.66000009
   12.38027763  141.10800171    0.28000000    2.66000009
   12.38361073  140.16000366    0.28000000    2.66000009
   12.38694477  136.10200500    0.28000000    2.66000009
   12.39277744  136.10200500    0.28000000    2.66000009
   12.39694405  136.50000000    0.28000000    2.67000008
   12.40027714  135.72000122    0.28000000    2.66000009
   12.40333271  136.04100037    0.28000000    2.66000009
   12.40666676  139.38299561    0.28000000    2.66000009
   12.40999985  136.79699707    0.28000000    2.67000008
   12.41305542  139.00100708    0.28000000    2.66000009
   12.41638851  136.22000122    0.28000000    2.67000008
   12.41972256  133.39900208    0.28000000    2.67000008
   12.42277813  132.13099670    0.28000000    2.66000009
   12.42472267  138.05799866    0.28000000    2.67000008
   12.42666721  135.13800049    0.28000000    2.67000008
   12.42972279  138.32899475    0.25999999    2.66000009
   12.43583298  138.32899475    0.25999999    2.66000009
   12.44000053  139.52000427    0.28000000    2.67000008
   12.44333363  139.83500671    0.25999999    2.66000009
   12.44638920  137.92599487    0.25999999    2.66000009
   12.44972229  137.87399292    0.25999999    2.66000009
   12.45277786  132.26199341    0.25999999    2.67000008
   12.45611095  134.93800354    0.25999999    2.66000009
   12.45805550  133.17399597    0.25999999    2.66000009
   12.45972157  131.70100403    0.25999999    2.66000009
   12.46277714  134.39100647    0.25999999    2.67000008
   12.46611118  133.52299500    0.25000000    2.67000008
   12.46944427  138.12600708    0.25000000    2.67000008
   12.47249985  139.38499451    0.25000000    2.66000009
   12.47861099  139.38499451    0.25000000    2.67000008
   12.49722290  137.10400391    0.25000000    2.66000009
   12.50055599  139.15800476    0.25000000    2.66000009
   12.50361156  138.91400146    0.25000000    2.67000008
   12.50694466  143.05400085    0.25999999    2.67000008
   12.51000023  142.02299500    0.25999999    2.66000009
   12.51333332  140.31300354    0.25999999    2.67000008
   12.51666641  135.30000305    0.25999999    2.67000008
   12.52166653  135.30000305    0.25999999    2.67000008
   12.52583313  141.62399292    0.25999999    2.67000008
   12.52888870  136.48800659    0.25999999    2.67000008
   12.53027725  142.54499817    0.25999999    2.67000008
   12.53277779  141.17900085    0.25000000    2.67000008
   12.53583336  143.63900757    0.25000000    2.67000008
   12.53916740  137.27099609    0.25000000    2.67000008
   12.54222298  143.60299683    0.25000000    2.67000008
   12.54555607  146.72500610    0.25000000    2.67000008
   12.54888916  137.11399841    0.25000000    2.67000008
   12.55194473  135.32099915    0.25000000    2.67000008
   12.55527782  135.98699951    0.25999999    2.67000008
   12.55861092  140.65800476    0.25999999    2.67000008
   12.56444454  140.65800476    0.25000000    2.67000008
   12.56861115  139.34500122    0.25999999    2.69000006
   12.57194424  139.77999878    0.25999999    2.69000006
   12.57499981  138.65400696    0.25999999    2.67000008
   12.57833290  139.48500061    0.25999999    2.67000008
   12.58138847  137.19900513    0.25999999    2.67000008
   12.58472157  144.40899658    0.25000000    2.67000008
   12.58805561  141.73800659    0.25000000    2.69000006
   12.59111118  144.34300232    0.25000000    2.69000006
   12.59444427  140.27699280    0.25000000    2.69000006
   12.59694386  142.49600220    0.25000000    2.69000006
   12.59805489  145.54699707    0.25000000    2.69000006
   12.60111141  143.14300537    0.25999999    2.69000006
   12.60722256  143.14300537    0.25999999    2.69000006
   12.61138916  145.94200134    0.25000000    2.69000006
   12.61472225  144.01899719    0.25000000    2.69000006
   12.61777782  139.86000061    0.25999999    2.69000006
   12.62111092  151.85499573    0.25999999    2.69000006
   12.62444496  140.39100647    0.25999999    2.69000006
   12.62750053  147.63999939    0.25999999    2.69000006
   12.63027763  146.61999512    0.28000000    2.69000006
   12.63138866  148.20500183    0.28000000    2.69000006
   12.63444424  146.47999573    0.25999999    2.67000008
   12.63777733  152.96000671    0.25999999    2.67000008
   12.64083290  149.15199280    0.25999999    2.69000006
   12.64416695  143.84100342    0.25999999    2.69000006
   12.64999962  143.84100342    0.25999999    2.69000006
   12.65416622  149.18400574    0.25999999    2.67000008
   12.65749931  153.28500366    0.25999999    2.67000008
   12.66083336  150.59800720    0.25999999    2.69000006
   12.66361046  158.02299500    0.25999999    2.69000006
   12.66444397  155.46099854    0.25999999    2.69000006
   12.66750050  155.83099365    0.25999999    2.69000006
   12.67083359  149.98800659    0.25999999    2.69000006
   12.67416668  152.90199280    0.25999999    2.69000006
   12.67722225  150.44999695    0.25999999    2.69000006
   12.68055630  154.52000427    0.25999999    2.69000006
   12.68361092  155.85800171    0.25999999    2.69000006
   12.68694496  166.22700500    0.25999999    2.71000004
   12.69305515  166.22700500    0.25999999    2.69000006
   12.69722271  177.92599487    0.25999999    2.69000006
   12.70027733  166.90499878    0.25999999    2.69000006
   12.70361137  165.06500244    0.25999999    2.69000006
   12.70666695  175.91299438    0.25999999    2.69000006
   12.81888866   -1.00000000   -1.00000000   -1.00000000
   12.91694450   -1.00000000   -1.00000000   -1.00000000
   13.02388859   -1.00000000   -1.00000000   -1.00000000
   13.06999969   90.38300323    0.25000000    2.73000002
   13.07305527  141.35600281    0.25000000    2.73000002
   13.07638836  142.64799500    0.25000000    2.73000002
   13.07944393  143.21299744    0.25000000    2.73000002
   13.08277798  136.83599854    0.25000000    2.73000002
   13.08611107  136.68499756    0.25000000    2.73000002
   13.09000015  136.68499756    0.25000000    2.75000000
   13.09416676  144.44900513    0.25000000    2.73000002
   13.09749985  133.76400757    0.25000000    2.73000002
   13.10083389  133.91099548    0.25000000    2.73000002
   13.10305595  134.40499878    0.25000000    2.75000000
   13.10416698  133.50000000    0.25999999    2.73000002
   13.10750008  137.93099976    0.25000000    2.73000002
   13.11055565  130.96499634    0.25000000    2.73000002
   13.11388969  131.58500671    0.25000000    2.73000002
   13.11722279  135.26300049    0.25000000    2.73000002
   13.12027836  137.50999451    0.25000000    2.73000002
   13.12361145  134.62100220    0.25000000    2.73000002
   13.12694454  134.12399292    0.25000000    2.73000002
   13.13305569  134.12399292    0.25000000    2.75000000
   13.13722229  137.07200623    0.25000000    2.75000000
   13.14027786  138.20799255    0.25000000    2.75000000
   13.14361095  139.79400635    0.25000000    2.75000000
   13.14694405  141.33299255    0.25000000    2.75000000
   13.14999962  141.22099304    0.25000000    2.73000002
   13.15333271  141.94900513    0.25000000    2.73000002
   13.15638828  136.17300415    0.25000000    2.75000000
   13.15972137  134.67700195    0.25000000    2.73000002
   13.16305542  135.50399780    0.25000000    2.75000000
   13.16611099  137.03100586    0.25000000    2.75000000
   13.16944504  136.25599670    0.25000000    2.75000000
   13.17000008  130.15400696    0.25000000    2.75000000
   13.17583370  130.15400696    0.25000000    2.75000000
   13.18000031  134.60499573    0.25000000    2.75000000
   13.18333340  129.53199768    0.25000000    2.75000000
   13.18638897  129.61099243    0.23000000    2.75000000
   13.18972206  140.50700378    0.23000000    2.75000000
   13.19277763  138.68800354    0.23000000    2.73000002
   13.19611073  137.88600159    0.23000000    2.75000000
   13.19944477  140.09599304    0.23000000    2.75000000
   13.20249939  137.50300598    0.23000000    2.75000000
   13.20333290  137.08999634    0.23000000    2.75000000
   13.20611095  135.90800476    0.23000000    2.73000002
   13.20944405  140.05400085    0.23000000    2.75000000
   13.21277714  136.93200684    0.25000000    2.75000000
   13.21861076  136.93200684    0.25000000    2.75000000
   13.22277737  134.74600220    0.23000000    2.73000002
   13.22611046  138.25000000    0.25000000    2.75000000
   13.22916603  137.07000732    0.23000000    2.75000000
   13.23249912  136.40100098    0.23000000    2.75000000
   13.23583317  135.19799805    0.23000000    2.75000000
   13.23666668  139.76899719    0.25000000    2.73000002
   13.23916721  133.11099243    0.25000000    2.73000002
   13.24250031  136.85899353    0.23000000    2.75000000
   13.24583340  141.26800537    0.23000000    2.75000000
   13.24888897  135.40899658    0.25000000    2.75000000
   13.25222206  135.21800232    0.25000000    2.73000002
   13.25555515  132.32699585    0.25000000    2.73000002
   13.26138878  132.32699585    0.23000000    2.75000000
   13.26555538  138.87800598    0.23000000    2.75000000
   13.26888847  143.48599243    0.23000000    2.75000000
   13.26999950  134.38400269    0.23000000    2.75000000
   13.27222157  142.81500244    0.23000000    2.75000000
   13.27555561  135.64999390    0.23000000    2.75000000
   13.27888870  135.52099609    0.23000000    2.75000000
   13.28194427  144.05799866    0.23000000    2.75000000
   13.28527832  135.11099243    0.23000000    2.75000000
   13.28861141  134.74699402    0.23000000    2.75000000
   13.29166698  139.66200256    0.23000000    2.75000000
   13.29500008  134.75500488    0.25000000    2.75000000
   13.29805565  132.05599976    0.23000000    2.75000000
   13.30444431  132.05599976    0.25000000    2.75000000
   13.30861092  131.05299377    0.25000000    2.75000000
   13.31166649  135.44400024    0.25000000    2.75000000
   13.31500053  136.92199707    0.25000000    2.75000000
   13.31805515  137.41799927    0.25000000    2.75000000
   13.32138920  136.27000427    0.25000000    2.75000000
   13.32472229  138.52200317    0.23000000    2.75000000
   13.32777786  136.14900208    0.23000000    2.75000000
   13.33111095  135.20599365    0.23000000    2.75000000
   13.33444405  138.50999451    0.23000000    2.75000000
   13.33666611  134.28500366    0.25000000    2.76999998
   13.33777714  136.36000061    0.25000000    2.76999998
   13.34111118  133.67700195    0.25000000    2.75000000
   13.34722233  133.67700195    0.25000000    2.76999998
   13.35138893  135.25700378    0.25000000    2.75000000
   13.35472298  140.06100464    0.25000000    2.75000000
   13.35777855  136.46600342    0.25000000    2.76999998
   13.36111164  138.44999695    0.25000000    2.75000000
   13.36416721  135.83599854    0.25000000    2.75000000
   13.36750031  136.52299500    0.25000000    2.75000000
   13.36999989  134.08500671    0.25000000    2.75000000
   13.37111092  135.71699524    0.25000000    2.76999998
   13.37444496  129.89599609    0.25000000    2.76999998
   13.37777805  131.16499329    0.25000000    2.75000000
   13.38083363  131.42500305    0.25000000    2.75000000
   13.38416672  135.75199890    0.25000000    2.75000000
   13.39000034  135.75199890    0.25000000    2.76999998
   13.39416695  137.46099854    0.25000000    2.76999998
   13.39750004  135.46600342    0.25000000    2.76999998
   13.40055561  136.37199402    0.25000000    2.76999998
   13.40333271  137.86199951    0.25000000    2.75000000
   13.40416622  134.65199280    0.25000000    2.75000000
   13.40749931  142.37199402    0.23000000    2.76999998
   13.41083336  141.62199402    0.25000000    2.75000000
   13.41388893  138.96099854    0.23000000    2.75000000
   13.41722298  134.63299561    0.23000000    2.75000000
   13.42055607  138.87300110    0.23000000    2.76999998
   13.42388916  136.61599731    0.23000000    2.76999998
   13.42694473  143.40100098    0.23000000    2.76999998
   13.43305588  143.40100098    0.23000000    2.75000000
   13.43694496  135.44500732    0.23000000    2.76999998
   13.44027805  140.02299500    0.23000000    2.76999998
   13.44361115  137.18400574    0.23000000    2.76999998
   13.44666672  134.51400757    0.23000000    2.76999998
   13.44999981  137.56300354    0.23000000    2.76999998
   13.45333290  136.92900085    0.25000000    2.76999998
   13.45638847  131.52000427    0.23000000    2.76999998
   13.45972157  132.77000427    0.23000000    2.76999998
   13.46305561  134.47300720    0.25000000    2.76999998
   13.46611118  135.16700745    0.25000000    2.76999998
   13.46944427  135.00500488    0.25000000    2.76999998
   13.46999931  136.91700745    0.25000000    2.76999998
   13.47583294  136.91700745    0.25999999    2.76999998
   13.47999954  133.29400635    0.38000000    2.78999996
   13.48305511  138.79800415    0.25999999    2.76999998
   13.48638916  134.37399292    0.25999999    2.76999998
   13.48972225  135.48100281    0.25999999    2.76999998
   13.49277782  136.09500122    0.25000000    2.76999998
   13.49611092  132.02999878    0.25000000    2.76999998
   13.49944496  130.00100708    0.25000000    2.76999998
   13.50249958  131.76800537    0.25000000    2.76999998
   13.50333309  133.21800232    0.25000000    2.76999998
   13.50638866  131.88699341    0.25000000    2.76999998
   13.50944424  136.74600220    0.25000000    2.76999998
   13.51277733  133.63999939    0.25000000    2.76999998
   13.51861095  133.63999939    0.23000000    2.76999998
   13.52277756  137.34599304    0.23000000    2.76999998
   13.52611065  136.27499390    0.23000000    2.76999998
   13.52916622  140.97200012    0.25000000    2.76999998
   13.53249931  134.36099243    0.25000000    2.78999996
   13.53555584  134.78799438    0.25000000    2.76999998
   13.53666687  134.88099670    0.23000000    2.76999998
   13.53944492  141.84899902    0.23000000    2.76999998
   13.54250050  136.71299744    0.23000000    2.76999998
   13.54583359  137.22799683    0.25000000    2.76999998
   13.54888916  138.54499817    0.25000000    2.76999998
   13.55222225  137.89500427    0.23000000    2.76999998
   13.55555534  136.66000366    0.25000000    2.76999998
   13.56138897  136.66000366    0.25000000    2.76999998
   13.56555557  141.33700562    0.25000000    2.76999998
   13.56888866  135.74800110    0.23000000    2.76999998
   13.56999969  136.32000732    0.23000000    2.76999998
   13.57250023  132.67700195    0.25000000    2.76999998
   13.57555580  135.05299377    0.25000000    2.76999998
   13.57888889  137.16000366    0.23000000    2.76999998
   13.58194447  138.39700317    0.23000000    2.76999998
   13.58527756  137.49499512    0.25000000    2.76999998
   13.58861065  132.66299438    0.25000000    2.76999998
   13.59166622  130.67700195    0.25000000    2.76999998
   13.59499931  137.64900208    0.25000000    2.76999998
   13.59833336  130.64100647    0.25000000    2.76999998
   13.60444450  130.64100647    0.25000000    2.76999998
   13.60833359  134.28900146    0.25000000    2.78999996
   13.61166668  131.25199890    0.25000000    2.76999998
   13.61500072  134.77999878    0.25000000    2.76999998
   13.61805534  138.43699646    0.25000000    2.78999996
   13.62138939  132.29800415    0.25000000    2.76999998
   13.62472248  138.61000061    0.25000000    2.76999998
   13.62777805  136.93800354    0.25000000    2.76999998
   13.63111115  138.38800049    0.25000000    2.76999998
   13.63416672  136.66499329    0.25000000    2.76999998
   13.63666630  134.60899353    0.25000000    2.76999998
   13.63805580  136.55499268    0.25000000    2.76999998
   13.64111137  135.37199402    0.25000000    2.76999998
   13.64722252  135.37199402    0.25000000    2.78999996
   13.65138817  133.55200195    0.25000000    2.76999998
   13.65444374  131.06399536    0.25000000    2.78999996
   13.65777779  138.23399353    0.25000000    2.76999998
   13.66111088  134.44500732    0.25000000    2.76999998
   13.66416645  134.99000549    0.25000000    2.76999998
   13.66750050  132.39700317    0.25000000    2.76999998
   13.67000008  133.29699707    0.25000000    2.76999998
   13.67111111  134.82000732    0.25000000    2.76999998
   13.67416668  135.16000366    0.25000000    2.78999996
   13.67750072  140.72099304    0.25000000    2.76999998
   13.68083382  139.94000244    0.25000000    2.76999998
   13.68416691  133.45700073    0.25000000    2.76999998
   13.69000053  133.45700073    0.25000000    2.78999996
   13.69416714  139.75100708    0.23000000    2.76999998
   13.69750023  134.18600464    0.23000000    2.78999996
   13.70055580  132.58399963    0.25000000    2.78999996
   13.70333290  133.75599670    0.25000000    2.78999996
   13.70444393  130.44200134    0.23000000    2.78999996
   13.70749950  128.82699585    0.23000000    2.78999996
   13.71083355  130.38000488    0.25000000    2.76999998
   13.71388912  130.63499451    0.25000000    2.78999996
   13.71722221  131.69700623    0.25000000    2.78999996
   13.72055531  130.96699524    0.25000000    2.78999996
   13.72361088  136.27200317    0.25000000    2.78999996
   13.72694397  136.47399902    0.25000000    2.78999996
   13.73277760  136.47399902    0.25000000    2.78999996
   13.73694515  134.59800720    0.25000000    2.78999996
   13.74027824  137.31399536    0.25000000    2.78999996
   13.74333382  137.93800354    0.25000000    2.78999996
   13.74666691  135.84199524    0.25000000    2.78999996
   13.75000000  129.86000061    0.25000000    2.78999996
   13.75333309  137.88000488    0.25000000    2.76999998
   13.75638866  141.86900330    0.25000000    2.78999996
   13.75972176  133.32699585    0.25000000    2.78999996
   13.76305580  135.23199463    0.23000000    2.78999996
   13.76611137  139.21899414    0.25000000    2.78999996
   13.76944447  139.56399536    0.25000000    2.78999996
   13.76999950  138.82400513    0.25000000    2.78999996
   13.77583313  138.82400513    0.25000000    2.78999996
   13.77972221  134.01100159    0.23000000    2.78999996
   13.78305531  145.76699829    0.23000000    2.78999996
   13.78638935  140.42300415    0.23000000    2.78999996
   13.78944492  139.36900330    0.23000000    2.78999996
   13.79277802  137.34500122    0.23000000    2.78999996
   13.79611111  132.52600098    0.23000000    2.78999996
   13.79916668  130.72000122    0.23000000    2.78999996
   13.80249977  130.01199341    0.23000000    2.78999996
   13.80333328  131.45399475    0.25000000    2.78999996
   13.80611134  135.72700500    0.25000000    2.78999996
   13.80916691  137.31199646    0.25000000    2.78999996
   13.81250000  136.91299438    0.25000000    2.78999996
   13.81861115  136.91299438    0.25000000    2.78999996
   13.82277775  139.02200317    0.25000000    2.78999996
   13.82583332  132.04200745    0.25000000    2.78999996
   13.82916641  132.90400696    0.25000000    2.78999996
   13.83249950  134.51400757    0.25000000    2.78999996
   13.83555508  138.14999390    0.25000000    2.78999996
   13.83666611  135.80200195    0.25000000    2.78999996
   13.83916664  132.68099976    0.25000000    2.78999996
   13.84222221  137.70899963    0.25000000    2.78999996
   13.84555531  131.75199890    0.25000000    2.78999996
   13.84888840  136.50799561    0.25000000    2.78999996
   13.85194492  137.26600647    0.25000000    2.78999996
   13.85527802  130.89100647    0.25000000    2.78999996
   13.86138916  130.89100647    0.25000000    2.78999996
   13.86555576  139.20899963    0.25000000    2.78999996
   13.86888885  134.39300537    0.25000000    2.78999996
   13.86999989  135.79200745    0.25000000    2.78999996
   13.87250042  132.97799683    0.25000000    2.78999996
   13.87555599  130.49499512    0.25000000    2.78999996
   13.87888908  136.10200500    0.25000000    2.80999994
   13.88194466  131.40899658    0.25000000    2.78999996
   13.88527775  136.09199524    0.25000000    2.78999996
   13.88861084  133.40199280    0.25999999    2.78999996
   13.89166641  132.75999451    0.25999999    2.78999996
   13.89499950  138.91700745    0.25999999    2.80999994
   13.89833355  137.76100159    0.25000000    2.80999994
   13.90416622  137.76100159    0.25000000    2.80999994
   13.90833282  136.00300598    0.25000000    2.78999996
   13.91166592  130.53399658    0.25000000    2.78999996
   13.91472149  136.55999756    0.23000000    2.78999996
   13.91805553  137.98599243    0.25000000    2.78999996
   13.92138958  138.75999451    0.25000000    2.78999996
   13.92444515  133.83299255    0.25000000    2.78999996
   13.92777824  134.57299805    0.25000000    2.78999996
   13.93111134  134.40400696    0.25000000    2.78999996
   13.93416691  135.75999451    0.25000000    2.78999996
   13.93666649  131.43400574    0.25000000    2.80999994
   13.93805599  132.07400513    0.25000000    2.80999994
   13.94111156  138.02299500    0.25000000    2.78999996
   13.94722271  138.02299500    0.25000000    2.78999996
   13.95111084  139.13099670    0.25000000    2.78999996
   13.95444393  131.37300110    0.25000000    2.78999996
   13.95777798  135.39199829    0.25000000    2.78999996
   13.96083355  137.30400085    0.25000000    2.80999994
   13.96416664  131.08399963    0.25000000    2.78999996
   13.96749973  139.18299866    0.31999999    2.78999996
   13.96999931  138.33700562    0.34000000    2.78999996
   13.97111034  130.31900024    0.34000000    2.78999996
   13.97416592  132.41900635    0.38000000    2.78999996
   13.97749996  131.92199707    0.38000000    2.78999996
   13.98083305  132.33700562    0.25999999    2.80999994
   13.98388958  126.14099884    0.31999999    2.78999996
   13.99000072  126.14099884    0.28000000    2.78999996
   13.99416733  130.76899719    0.28000000    2.80999994
   13.99722290  131.93299866    0.34000000    2.80999994
   14.00055599  129.16400146    0.31999999    2.80999994
   14.00333309  134.58399963    0.31999999    2.78999996
   14.00416660  133.29800415    0.31999999    2.78999996
   14.00722218  135.67900085    0.30000001    2.78999996
   14.01055527  133.55900574    0.30000001    2.78999996
   14.01361084  134.00399780    0.25000000    2.80999994
   14.01694393  133.64300537    0.30000001    2.80999994
   14.02027798  132.25300598    0.30000001    2.80999994
   14.02333355  134.01800537    0.25999999    2.80999994
   14.02666664  133.14100647    0.25999999    2.80999994
   14.03277779  133.14100647    0.25000000    2.80999994
   14.03694534  135.61599731    0.25000000    2.80999994
   14.04000092  138.94099426    0.25000000    2.80999994
   14.04333401  137.03500366    0.25000000    2.78999996
   14.04666710  139.23599243    0.25000000    2.80999994
   14.04972267  138.92999268    0.25000000    2.78999996
   14.05305576  135.28199768    0.25000000    2.80999994
   14.05638885  131.34100342    0.25000000    2.80999994
   14.05944443  133.72599792    0.25000000    2.80999994
   14.06277752  139.72500610    0.25000000    2.80999994
   14.06583309  133.51400757    0.25000000    2.80999994
   14.06916618  138.84100342    0.25000000    2.80999994
   14.06999969  144.10800171    0.25000000    2.80999994
   14.09083271  144.10800171    0.25000000    2.78999996
   14.09499931  133.47000122    0.25000000    2.80999994
   14.09805489  140.46699524    0.25000000    2.80999994
   14.10138893  137.42900085    0.25000000    2.80999994
   14.10333347  135.38699341    0.25000000    2.80999994
   14.10500050  131.44900513    0.25000000    2.80999994
   14.10805607  138.26899719    0.25000000    2.78999996
   14.11138916  134.25799561    0.25000000    2.80999994
   14.11472225  132.21899414    0.25000000    2.80999994
   14.11805534  141.30499268    0.25000000    2.80999994
   14.12138939  131.92999268    0.25000000    2.80999994
   14.12444496  138.94000244    0.25000000    2.80999994
   14.12777805  135.80099487    0.25000000    2.80999994
   14.13361073  135.80099487    0.25000000    2.80999994
   14.13749981  141.18200684    0.25000000    2.78999996
   14.14083290  140.42100525    0.25000000    2.78999996
   14.14416695  135.48800659    0.23000000    2.80999994
   14.14722252  141.96600342    0.23000000    2.80999994
   14.15055561  134.28700256    0.23000000    2.80999994
   14.15388870  140.72099304    0.23000000    2.80999994
   14.15694427  135.52099609    0.23000000    2.82999992
   14.16027737  141.59700012    0.23000000    2.82999992
   14.16333294  139.20700073    0.23000000    2.82999992
   14.16666698  130.37300110    0.23000000    2.80999994
   14.17000008  137.74299622    0.25000000    2.80999994
   14.17055607  138.86900330    0.25000000    2.80999994
   14.17638874  138.86900330    0.25000000    2.80999994
   14.18055630  138.92900085    0.25000000    2.82999992
   14.18361092  130.11900330    0.30000001    2.80999994
   14.18694496  129.55299377    0.38000000    2.80999994
   14.19027805  133.68600464    0.38000000    2.80999994
   14.19333363  136.06100464    0.55000001    2.80999994
   14.19666672  135.17300415    0.41999999    2.80999994
   14.19999981  135.23899841    0.38000000    2.80999994
   14.20305538  136.11500549    0.28000000    2.80999994
   14.20388889  134.20899963    0.28000000    2.80999994
   14.20666695  132.35099792    0.25999999    2.80999994
   14.21000004  128.41499329    0.25000000    2.80999994
   14.21305561  135.25199890    0.25000000    2.80999994
   14.21916580  135.25199890    0.25000000    2.82999992
   14.22333336  133.03900146    0.25000000    2.82999992
   14.22666645  136.57800293    0.25000000    2.80999994
   14.22972202  132.50599670    0.25000000    2.80999994
   14.23305511  135.87800598    0.25000000    2.82999992
   14.23638916  133.35099792    0.25000000    2.80999994
   14.23722267  136.28399658    0.25000000    2.80999994
   14.23972225  138.00599670    0.25000000    2.80999994
   14.24305534  142.94900513    0.25000000    2.80999994
   14.24611092  133.04100037    0.25000000    2.80999994
   14.24944496  136.13900757    0.25000000    2.80999994
   14.25277805  130.82099915    0.25000000    2.80999994
   14.25583363  133.10499573    0.25000000    2.80999994
   14.26194477  133.10499573    0.25000000    2.82999992
   14.26611137  132.22700500    0.25000000    2.80999994
   14.26944447  129.13699341    0.25000000    2.82999992
   14.27055550  128.72300720    0.25000000    2.82999992
   14.27305508  133.67300415    0.25000000    2.80999994
   14.27638817  133.46699524    0.25000000    2.80999994
   14.27944374  135.48399353    0.23000000    2.80999994
   14.28277779  134.67599487    0.25000000    2.80999994
   14.28611183  131.32499695    0.25000000    2.80999994
   14.28916740  130.02400208    0.25000000    2.82999992
   14.29250050  133.07099915    0.25000000    2.80999994
   14.29583359  133.92999268    0.25999999    2.80999994
   14.29888916  131.50199890    0.25000000    2.82999992
   14.30500031  131.50199890    0.25000000    2.80999994
   14.30888939  136.69400024    0.25000000    2.80999994
   14.31222248  137.61999512    0.25000000    2.80999994
   14.31555557  135.10499573    0.28000000    2.80999994
   14.31861115  137.94799805    0.25999999    2.82999992
   14.32194424  138.14399719    0.25999999    2.82999992
   14.32527733  134.78999329    0.25999999    2.80999994
   14.32833290  135.67700195    0.25000000    2.80999994
   14.33166695  147.45700073    0.25000000    2.80999994
   14.33472157  137.80000305    0.25999999    2.80999994
   14.33722210  146.63000488    0.25999999    2.80999994
   14.33833313  139.38000488    0.25999999    2.80999994
   14.34166622  133.68400574    0.25999999    2.80999994
   14.34777737  133.68400574    0.25000000    2.80999994
   14.35194492  142.88299561    0.25000000    2.82999992
   14.35500050  142.52200317    0.25000000    2.82999992
   14.35833359  137.89900208    0.25000000    2.82999992
   14.36166668  141.80599976    0.25000000    2.82999992
   14.36472225  134.34399414    0.25999999    2.82999992
   14.36805534  141.18400574    0.28000000    2.80999994
   14.37055588  143.03799438    0.28000000    2.80999994
   14.37166691  146.57099915    0.28000000    2.82999992
   14.37500000  147.88099670    0.25999999    2.80999994
   14.37805557  143.39500427    0.25999999    2.80999994
   14.38138866  145.19700623    0.25999999    2.80999994
   14.38472176  150.67300415    0.25000000    2.82999992
   14.39055538  150.67300415    0.30000001    2.82999992
   14.39472198  163.97399902    0.36000001    2.82999992
   14.39805508  142.89900208    0.30000001    2.82999992
   14.40111065  153.18499756    0.30000001    2.82999992
   14.40388870  147.54200745    0.25999999    2.80999994
   14.40472221  143.62600708    0.25999999    2.80999994
   14.40805531  156.26300049    0.30000001    2.82999992
   14.41111088  148.07699585    0.30000001    2.82999992
   14.41444397  134.95500183    0.50000000    2.80999994
   14.41777802  156.13099670    0.36000001    2.82999992
   14.42083359  146.43299866    0.30000001    2.82999992
   14.42416668  146.39599609    0.30000001    2.80999994
   14.42750072  146.71600342    0.30000001    2.80999994
   14.43333340  146.71600342    0.25999999    2.82999992
   14.43750000  138.94999695    0.25999999    2.80999994
   14.44083309  142.27000427    0.25000000    2.82999992
   14.44416714  143.48599243    0.25000000    2.82999992
   14.44722271  149.82400513    0.25000000    2.82999992
   14.45055580  145.77299500    0.25000000    2.82999992
   14.45361137  144.45799255    0.25000000    2.82999992
   14.45694447  135.20500183    0.25000000    2.82999992
   14.46027756  139.72200012    0.25000000    2.82999992
   14.46333313  140.36099243    0.25000000    2.82999992
   14.46666622  147.99899292    0.25999999    2.82999992
   14.46999931  147.62300110    0.25999999    2.82999992
   14.47055531  142.43400574    0.25999999    2.82999992
   14.47638798  142.43400574    0.25000000    2.82999992
   14.48027706  153.20100403    0.25000000    2.82999992
   14.48361111  140.53700256    0.25000000    2.82999992
   14.48694515  155.21899414    0.25000000    2.82999992
   14.49000072  152.75100708    0.25000000    2.82999992
   14.49333382  150.45100403    0.25000000    2.82999992
   14.49666691  158.66999817    0.25000000    2.82999992
   14.49972248  139.57000732    0.25000000    2.82999992
   14.50305557  143.00900269    0.25000000    2.82999992
   14.50388908  139.89799500    0.25000000    2.82999992
   14.50638866  144.05700684    0.25000000    2.80999994
   14.50972176  146.89799500    0.25999999    2.82999992
   14.51277733  149.47700500    0.25000000    2.82999992
   14.51916599  149.47700500    0.25000000    2.82999992
   14.52333355  143.85800171    0.25000000    2.82999992
   14.52638817  139.24400330    0.25999999    2.82999992
   14.52972221  148.30299377    0.25000000    2.82999992
   14.53305531  143.45100403    0.28000000    2.82999992
   14.53611183  140.35200500    0.28000000    2.82999992
   14.53722286  139.18499756    0.25999999    2.82999992
   14.53972244  143.66900635    0.25999999    2.82999992
   14.54305553  142.42300415    0.25000000    2.82999992
   14.54638958  149.32200623    0.25999999    2.82999992
   14.54944515  144.87300110    0.23000000    2.82999992
   14.55277824  140.56799316    0.25999999    2.82999992
   14.55583382  146.02699280    0.28000000    2.82999992
   14.56194496  146.02699280    0.28000000    2.82999992
   14.56611156  141.58000183    0.25999999    2.82999992
   14.56944466  137.48500061    0.25999999    2.82999992
   14.57055569  142.87500000    0.25999999    2.82999992
   14.57277775  146.39300537    0.23000000    2.82999992
   14.57611084  146.09300232    0.25000000    2.82999992
   14.57944393  152.65600586    0.25999999    2.82999992
   14.58249950  141.58200073    0.25999999    2.82999992
   14.58583260  145.91000366    0.25000000    2.82999992
   14.58888817  149.78300476    0.25000000    2.82999992
   14.59222221  125.18299866    0.25000000    2.82999992
   14.59555531  146.90400696    0.23000000    2.82999992
   14.59861088  145.87699890    0.23000000    2.84999990
   14.60472298  145.87699890    0.23000000    2.82999992
   14.60888958  145.83299255    0.23000000    2.82999992
   14.61222267  144.00599670    0.23000000    2.82999992
   14.61555576  142.90400696    0.23000000    2.82999992
   14.61861134  148.16700745    0.23000000    2.82999992
   14.62194443  139.15699768    0.25000000    2.82999992
   14.62500000  140.85899353    0.25000000    2.82999992
   14.62833309  136.00599670    0.23000000    2.82999992
   14.63166714  139.81900024    0.23000000    2.82999992
   14.63472176  137.07200623    0.23000000    2.82999992
   14.63722229  137.73199463    0.23000000    2.82999992
   14.63833332  138.03399658    0.25000000    2.82999992
   14.64166641  144.49099731    0.23000000    2.82999992
   14.64777756  144.49099731    0.25999999    2.82999992
   14.65166664  141.60200500    0.25000000    2.82999992
   14.65499973  146.18099976    0.25000000    2.82999992
   14.65833282  141.01300049    0.25000000    2.82999992
   14.66138840  137.88600159    0.23000000    2.82999992
   14.66472149  143.15100098    0.25000000    2.82999992
   14.66805553  143.68699646    0.25000000    2.82999992
   14.67055607  141.80299377    0.25000000    2.82999992
   14.67138958  144.70399475    0.25000000    2.82999992
   14.67472267  139.19700623    0.23000000    2.82999992
   14.67805576  142.84100342    0.23000000    2.82999992
   14.68111134  145.37899780    0.23000000    2.82999992
   14.68444443  130.71099854    0.23000000    2.80999994
   14.69055557  130.71099854    0.23000000    2.82999992
   14.69472218  138.47900391    0.25000000    2.82999992
   14.69777775  132.39700317    0.23000000    2.82999992
   14.70111084  136.40800476    0.25000000    2.82999992
   14.70388889  133.04100037    0.23000000    2.82999992
   14.70472240  134.74699402    0.23000000    2.82999992
   14.70805550  132.25300598    0.23000000    2.82999992
   14.71138859  135.63000488    0.25000000    2.82999992
   14.71444416  136.91299438    0.25000000    2.82999992
   14.71777725  136.94999695    0.23000000    2.82999992
   14.72111034  133.30700684    0.23000000    2.82999992
   14.72416592  146.11300659    0.23000000    2.84999990
   14.72749996  138.28100586    0.25000000    2.82999992
   14.73333359  138.28100586    0.23000000    2.84999990
   14.73750019  140.07699585    0.23000000    2.82999992
   14.74083328  141.35800171    0.23000000    2.82999992
   14.74388885  143.42599487    0.23000000    2.82999992
   14.74722290  136.33299255    0.23000000    2.82999992
   14.75083351  141.11799622    0.20999999    2.82999992
   14.75416660  141.32000732    0.23000000    2.82999992
   14.75722218  139.11500549    0.23000000    2.82999992
   14.76055527  138.72399902    0.23000000    2.84999990
   14.76388931  140.06700134    0.25000000    2.82999992
   14.76694393  139.22200012    0.25000000    2.82999992
   14.77027798  138.17799377    0.23000000    2.84999990
   14.77083302  137.34500122    0.23000000    2.84999990
   14.77611065  137.34500122    0.23000000    2.84999990
   14.78027725  142.87600708    0.23000000    2.82999992
   14.78361130  134.74400330    0.23000000    2.82999992
   14.78666687  143.32299805    0.23000000    2.84999990
   14.79000092  135.96299744    0.25000000    2.82999992
   14.79333401  135.41000366    0.23000000    2.84999990
   14.79638958  133.39999390    0.25000000    2.82999992
   14.79972267  134.00599670    0.25000000    2.82999992
   14.80305576  137.70599365    0.23000000    2.84999990
   14.80416679  134.59899902    0.23000000    2.84999990
   14.80638885  139.68600464    0.23000000    2.82999992
   14.80972195  137.99800110    0.23000000    2.82999992
   14.81277752  136.96600342    0.23000000    2.82999992
   14.81916618  136.96600342    0.23000000    2.82999992
   14.82305527  138.24499512    0.23000000    2.82999992
   14.82638836  140.12600708    0.23000000    2.82999992
   14.82972240  141.64799500    0.23000000    2.82999992
   14.83277798  140.46499634    0.23000000    2.82999992
   14.83611107  139.97599792    0.23000000    2.84999990
   14.83749962  138.42100525    0.23000000    2.84999990
   14.83972168  137.73899841    0.25000000    2.82999992
   14.84305477  142.69000244    0.23000000    2.82999992
   14.84638882  136.07400513    0.23000000    2.82999992
   14.84944439  136.47599792    0.25000000    2.84999990
   14.85277843  141.42500305    0.25000000    2.84999990
   14.85583401  138.19200134    0.25000000    2.84999990
   14.86194515  138.19200134    0.25000000    2.84999990
   14.86611176  134.98599243    0.25000000    2.84999990
   14.86916637  136.28399658    0.23000000    2.84999990
   14.87083340  138.53599548    0.23000000    2.84999990
   14.87277794  126.84100342    0.25000000    2.82999992
   14.87611103  130.26499939    0.23000000    2.82999992
   14.87944412  132.67100525    0.23000000    2.82999992
   14.88249969  138.16900635    0.25000000    2.82999992
   14.88583279  133.63099670    0.23000000    2.82999992
   14.88888836  135.96000671    0.23000000    2.82999992
   14.89222240  134.04299927    0.23000000    2.82999992
   14.89555550  142.09500122    0.23000000    2.84999990
   14.89861107  138.32099915    0.23000000    2.82999992
   14.90472221  138.32099915    0.23000000    2.82999992
   14.90888882  137.36199951    0.23000000    2.84999990
   14.91222191  137.89100647    0.23000000    2.82999992
   14.91527748  133.91099548    0.23000000    2.82999992
   14.91861153  138.59199524    0.23000000    2.82999992
   14.92166710  139.00199890    0.23000000    2.82999992
   14.92500019  132.32299805    0.25000000    2.82999992
   14.92833328  136.20799255    0.25000000    2.82999992
   14.93166733  134.49400330    0.23000000    2.82999992
   14.93472195  137.25000000    0.23000000    2.82999992
   14.93750000  132.20300293    0.23000000    2.82999992
   14.93833351  136.22000122    0.23000000    2.82999992
   14.94166660  128.71400452    0.23000000    2.84999990
   14.94750023  128.71400452    0.25000000    2.82999992
   14.95166683  136.40100098    0.23000000    2.84999990
   14.95499992  138.08099365    0.23000000    2.84999990
   14.95805550  135.11500549    0.23000000    2.84999990
   14.96138859  134.90299988    0.23000000    2.84999990
   14.96472168  140.58399963    0.23000000    2.84999990
   14.96777725  133.36700439    0.23000000    2.82999992
   14.97083282  133.03399658    0.23000000    2.84999990
   14.97138882  134.63299561    0.23000000    2.84999990
   14.97472191  136.78799438    0.23000000    2.84999990
   14.97805500  135.46899414    0.23000000    2.82999992
   14.98111057  134.62899780    0.23000000    2.82999992
   14.98444462  140.16799927    0.23000000    2.84999990
   14.99055576  140.16799927    0.23000000    2.84999990
   14.99444485  128.97300720    0.25000000    2.84999990
   14.99777794  134.41099548    0.25000000    2.84999990
   15.00111103  137.14199829    0.30000001    2.84999990
   15.00416660  133.78900146    0.30000001    2.84999990
   15.00444412  133.13800049    0.30000001    2.84999990
   15.00777817  130.76499939    0.34000000    2.82999992
   15.01111126  133.28399658    0.30000001    2.82999992
   15.01416683  134.51600647    0.30000001    2.82999992
   15.01749992  128.82899475    0.30000001    2.84999990
   15.02083302  135.96400452    0.30000001    2.84999990
   15.02388859  130.19900513    0.28000000    2.82999992
   15.02722168  130.22700500    0.25999999    2.84999990
   15.03333378  130.22700500    0.25999999    2.84999990
   15.03750038  132.43099976    0.25000000    2.84999990
   15.04055595  132.34700012    0.25000000    2.84999990
   15.04416752  133.50500488    0.25000000    2.82999992
   15.04722309  136.41499329    0.25000000    2.84999990
   15.05055618  133.14500427    0.25000000    2.84999990
   15.05361176  125.37100220    0.25000000    2.84999990
   15.05694485  138.53199768    0.25000000    2.84999990
   15.06027794  132.53900146    0.25000000    2.82999992
   15.06333351  132.58299255    0.23000000    2.84999990
   15.06666660  132.82899475    0.25000000    2.84999990
   15.06999969  130.65299988    0.25000000    2.84999990
   15.07083321  126.83399963    0.25000000    2.84999990
   15.07611084  126.83399963    0.25000000    2.84999990
   15.08027744  128.51699829    0.25000000    2.84999990
   15.08361053  134.74099731    0.25000000    2.84999990
   15.08666611  135.00500488    0.25000000    2.84999990
   15.10444450  129.13999939    0.25000000    2.84999990
   15.10694504  136.94700623    0.25000000    2.84999990
   15.11000061  132.04600525    0.23000000    2.84999990
   15.11333370  136.50100708    0.23000000    2.84999990
   15.11916637  136.50100708    0.25000000    2.84999990
   15.12333393  133.77600098    0.25000000    2.84999990
   15.12638855  127.26300049    0.25000000    2.84999990
   15.12972260  133.18600464    0.23000000    2.84999990
   15.13305569  136.03300476    0.23000000    2.84999990
   15.13611126  132.97500610    0.25000000    2.82999992
   15.13749981  137.72799683    0.23000000    2.84999990
   15.13972187  130.13499451    0.23000000    2.84999990
   15.14305496  131.00500488    0.25000000    2.84999990
   15.14611053  129.76100159    0.25000000    2.84999990
   15.14944458  130.36700439    0.25000000    2.82999992
   15.15277767  125.53700256    0.25000000    2.84999990
   15.15583324  124.76899719    0.25000000    2.84999990
   15.16194439  124.76899719    0.25000000    2.84999990
   15.16638851  127.92199707    0.25000000    2.84999990
   15.16972256  127.54699707    0.25000000    2.84999990
   15.17083359  131.31700134    0.25000000    2.84999990
   15.17333412  128.15800476    0.25000000    2.84999990
   15.17666721  128.63699341    0.25000000    2.84999990
   15.17972279  128.43099976    0.25999999    2.84999990
   15.18305588  129.78500366    0.25999999    2.84999990
   15.18611145  128.50000000    0.25999999    2.84999990
   15.18944454  131.63299561    0.25999999    2.84999990
   15.19277763  126.57800293    0.25000000    2.82999992
   15.19611073  130.46200562    0.25000000    2.84999990
   15.19916630  128.95399475    0.25000000    2.84999990
   15.20472240  128.95399475    0.25000000    2.84999990
   15.20888901  131.88699341    0.25000000    2.84999990
   15.21222210  127.44799805    0.25000000    2.84999990
   15.21555519  126.12999725    0.25000000    2.84999990
   15.21861076  126.74099731    0.25000000    2.84999990
   15.22194386  125.77500153    0.25000000    2.84999990
   15.22499943  124.87200165    0.25000000    2.82999992
   15.22833252  130.76499939    0.25000000    2.84999990
   15.23166656  126.78399658    0.25000000    2.84999990
   15.23472214  127.76899719    0.25000000    2.84999990
   15.23777771  127.87000275    0.25000000    2.84999990
   15.23861122  125.51200104    0.25000000    2.84999990
   15.24166679  120.93800354    0.25000000    2.86999989
   15.24777794  120.93800354    0.25000000    2.84999990
   15.25194454  125.79399872    0.25000000    2.84999990
   15.25500011  129.00199890    0.25999999    2.82999992
   15.25833321  125.83799744    0.25999999    2.84999990
   15.26138878  128.07200623    0.25000000    2.84999990
   15.26472187  131.01699829    0.25000000    2.84999990
   15.26805496  127.14600372    0.25000000    2.82999992
   15.27083302  128.50700378    0.25000000    2.82999992
   15.27166653  130.24699402    0.25000000    2.84999990
   15.27499962  126.13200378    0.25000000    2.84999990
   15.27805519  126.82399750    0.25000000    2.84999990
   15.28138828  131.10099792    0.25999999    2.84999990
   15.28444481  126.14800262    0.25999999    2.84999990
   15.29055595  126.14800262    0.25999999    2.84999990
   15.29472256  126.53299713    0.28000000    2.84999990
   15.29777813  128.26199341    0.25999999    2.84999990
   15.30111122  126.44499969    0.25999999    2.84999990
   15.30416679  127.36000061    0.25999999    2.84999990
   15.30472279  127.36299896    0.25999999    2.84999990
   15.30805588  128.28500366    0.25999999    2.84999990
   15.31111145  126.33399963    0.25000000    2.84999990
   15.31444454  122.99600220    0.25999999    2.84999990
   15.31750011  124.27400208    0.36000001    2.84999990
   15.32083321  125.56099701    0.40000001    2.84999990
   15.32416630  130.29499817    0.36000001    2.84999990
   15.32722187  125.54199982    0.36000001    2.84999990
   15.33333302  125.54199982    0.30000001    2.84999990
   15.33749962  150.89500427    0.28000000    2.84999990
   15.33805561  141.17300415    0.28000000    2.84999990
   15.34111118  130.00000000    0.30000001    2.84999990
   15.34444427  131.86399841    0.30000001    2.84999990
   15.34777737  139.88400269    0.30000001    2.86999989
   15.35083389  145.79200745    0.34000000    2.84999990
   15.35416698  133.14300537    0.31999999    2.84999990
   15.35750008  141.08500671    0.31999999    2.84999990
   15.36055565  149.85299683    0.30000001    2.82999992
   15.36388969  135.75300598    0.28000000    2.84999990
   15.36722279  136.41600037    0.25999999    2.84999990
   15.37027836  134.44299316    0.25000000    2.84999990
   15.37138939  133.07800293    0.25000000    2.84999990
   15.37611103  133.07800293    0.25000000    2.84999990
   15.38027763  130.02099609    0.25000000    2.84999990
   15.38361073  137.40600586    0.25000000    2.84999990
   15.38694477  124.19699860    0.25000000    2.84999990
   15.39000034  133.77499390    0.25000000    2.84999990
   15.39333344  134.84800720    0.25000000    2.84999990
   15.39638901  134.26699829    0.25000000    2.84999990
   15.39972210  135.02099609    0.25000000    2.84999990
   15.40305519  135.90600586    0.25000000    2.84999990
   15.40472221  128.59899902    0.25000000    2.84999990
   15.40666676  127.13800049    0.25000000    2.84999990
   15.40972137  130.56399536    0.25000000    2.84999990
   15.41305542  125.88999939    0.25000000    2.84999990
   15.41916656  125.88999939    0.25000000    2.82999992
   15.42305565  133.17999268    0.25000000    2.84999990
   15.42638874  131.66700745    0.25000000    2.84999990
   15.42972279  133.13400269    0.25000000    2.84999990
   15.43277836  130.34899902    0.25000000    2.84999990
   15.43611145  128.33399963    0.25000000    2.84999990
   15.43805599  130.20799255    0.25000000    2.84999990
   15.43944454  123.80200195    0.25000000    2.84999990
   15.44277763  132.63099670    0.25000000    2.84999990
   15.44611073  129.43099976    0.25000000    2.84999990
   15.44916630  129.97399902    0.25999999    2.84999990
   15.45249939  130.31300354    0.25999999    2.84999990
   15.45583344  127.83699799    0.25999999    2.84999990
   15.46194458  127.83699799    0.28000000    2.86999989
   15.46611118  129.81500244    0.25999999    2.84999990
   15.46916580  128.91900635    0.25999999    2.84999990
   15.47138882  133.79499817    0.25999999    2.84999990
   15.47305489  124.76499939    0.25999999    2.84999990
   15.47611046  134.07699585    0.25999999    2.84999990
   15.47944355  131.46699524    0.25999999    2.84999990
   15.48249912  132.19200134    0.25000000    2.84999990
   15.48583317  133.75700378    0.25000000    2.84999990
   15.48916721  129.64500427    0.25000000    2.84999990
   15.49222279  123.41100311    0.25000000    2.84999990
   15.49555588  137.11900330    0.25000000    2.86999989
   15.49888897  129.47200012    0.25000000    2.84999990
   15.50472260  129.47200012    0.25000000    2.84999990
   15.50888920  135.94400024    0.23000000    2.84999990
   15.51222229  131.41799927    0.25999999    2.84999990
   15.51527786  134.08799744    0.25999999    2.84999990
   15.51861095  134.59199524    0.47999999    2.84999990
   15.52194405  128.93400574    0.58999997    2.84999990
   15.52499962  133.10600281    0.31999999    2.82999992
   15.52833271  126.31199646    0.40000001    2.84999990
   15.53166676  127.43699646    0.28000000    2.84999990
   15.53472233  127.05300140    0.28000000    2.84999990
   15.53805637  133.96800232    0.23000000    2.84999990
   15.53861141  130.09300232    0.23000000    2.84999990
   15.54194450  122.13800049    0.25000000    2.84999990
   15.54750061  122.13800049    0.28000000    2.86999989
   15.55166721  127.65899658    0.25999999    2.84999990
   15.55500031  131.54699707    0.28000000    2.84999990
   15.55805588  131.71200562    0.28000000    2.86999989
   15.56138897  122.08200073    0.25999999    2.84999990
   15.56472206  127.09300232    0.25999999    2.84999990
   15.56777763  126.63500214    0.25999999    2.84999990
   15.57111073  132.41799927    0.25999999    2.84999990
   15.57194424  127.41200256    0.25999999    2.84999990
   15.57472229  127.40599823    0.25000000    2.84999990
   15.57805538  124.97899628    0.25000000    2.84999990
   15.58138847  132.25199890    0.23000000    2.86999989
   15.58472157  132.02299500    0.23000000    2.84999990
   15.59055519  132.02299500    0.23000000    2.84999990
   15.59472179  139.84800720    0.23000000    2.84999990
   15.59777737  133.62899780    0.25000000    2.84999990
   15.60111141  134.79400635    0.23000000    2.84999990
   15.60416698  128.33599854    0.25000000    2.86999989
   15.60527802  133.93600464    0.25000000    2.86999989
   15.60777855  126.04399872    0.25000000    2.84999990
   15.61111164  126.45500183    0.25000000    2.84999990
   15.61444473  129.72399902    0.25000000    2.84999990
   15.61750031  130.20700073    0.70999998    2.82999992
   15.62083340  128.33599854    0.70999998    2.82999992
   15.62388897  137.63099670    2.25000000    2.78999996
   15.62722206  130.79299927    3.05999994    2.80999994
   15.63333321  130.79299927    2.26999998    2.80999994
   15.63749981  134.61900330    1.89999998    2.82999992
   15.63861084  136.97900391    1.89999998    2.82999992
   15.64083290  131.04600525    1.66999996    2.80999994
   15.64416695  132.58799744    1.75000000    2.80999994
   15.64750004  123.73100281    1.75000000    2.80999994
   15.65055561  123.54699707    1.46000004    2.84999990
   15.65388870  131.50199890    2.01999998    2.82999992
   15.65694427  129.08700562    1.51999998    2.84999990
   15.66027737  132.61399841    0.55000001    2.84999990
   15.66361046  134.93099976    0.61000001    2.84999990
   15.66666698  133.40499878    0.86000001    2.84999990
   15.67000008  132.20799255    1.71000004    2.84999990
   15.67194462  132.18499756    1.89999998    2.82999992
   15.67611122  132.18499756    2.59999990    2.84999990
   15.68027782  133.34700012    1.11000001    2.80999994
   15.68361092  131.49299622    0.69000000    2.84999990
   15.68666649  124.28199768    0.61000001    2.82999992
   15.69000053  136.52099609    0.36000001    2.84999990
   15.69333363  132.69599915    0.25999999    2.84999990
   15.69638920  130.42700195    0.25999999    2.84999990
   15.69972229  134.00700378    0.25999999    2.84999990
   15.70305538  127.37300110    0.25999999    2.84999990
   15.70527744  131.72200012    0.25999999    2.86999989
   15.70638847  123.41999817    0.25999999    2.84999990
   15.70972157  137.72399902    0.25999999    2.84999990
   15.71305561  133.91900635    0.25999999    2.86999989
   15.71888828  133.91900635    0.28000000    2.86999989
   15.72305489  161.94599915    0.28000000    2.84999990
   15.72638798  146.73699951    0.25999999    2.84999990
   15.72944355  160.38499451    0.25999999    2.84999990
   15.73277760  155.20100403    0.25999999    2.84999990
   15.73611164  146.73599243    0.30000001    2.86999989
   15.73861122  160.57099915    0.25999999    2.84999990
   15.73944473  145.69200134    0.25999999    2.84999990
   15.74277782  148.96499634    0.25999999    2.84999990
   15.74611092  148.65499878    0.25999999    2.84999990
   15.74916649  157.58999634    0.25999999    2.84999990
   15.75249958  153.91499329    0.25999999    2.84999990
   15.75555515  141.69099426    0.25999999    2.84999990
   15.76194477  141.69099426    0.25999999    2.84999990
   15.76583290  152.35699463    0.25999999    2.84999990
   15.76916599  148.40400696    0.25999999    2.84999990
   15.77194405  144.56199646    0.25999999    2.84999990
   15.77277756  157.38299561    0.25999999    2.84999990
   15.77611065  148.87500000    0.28000000    2.84999990
   15.77944374  146.65600586    0.30000001    2.84999990
   15.78249931  139.78500366    0.30000001    2.84999990
   15.78583336  141.94500732    0.25999999    2.86999989
   15.78916740  136.35099792    0.25999999    2.84999990
   15.79222298  145.28799438    0.25999999    2.84999990
   15.79555607  142.86500549    0.25999999    2.84999990
   15.79888916  146.01300049    0.25999999    2.86999989
   15.80472279  146.01300049    0.25999999    2.84999990
   15.80888939  145.87899780    0.25999999    2.84999990
   15.81194496  134.23899841    0.25999999    2.84999990
   15.81527805  137.39700317    0.25000000    2.84999990
   15.81861115  141.39599609    0.25999999    2.84999990
   15.82166672  137.59500122    0.25999999    2.86999989
   15.82499981  142.86199951    0.25999999    2.86999989
   15.82805538  141.48100281    0.25999999    2.86999989
   15.83138847  138.30499268    0.25999999    2.86999989
   15.83472157  136.05599976    0.25000000    2.84999990
   15.83777714  133.61500549    0.25999999    2.84999990
   15.83972168  139.66499329    0.25999999    2.84999990
   15.84138870  133.55499268    0.25999999    2.86999989
   15.84749985  133.55499268    0.25999999    2.84999990
   15.85166740  126.16300201    0.25999999    2.84999990
   15.85500050  130.95799255    0.25999999    2.86999989
   15.85805607  133.24800110    0.25999999    2.86999989
   15.86138916  135.26199341    0.25999999    2.86999989
   15.86472225  135.53599548    0.25999999    2.86999989
   15.86777782  133.75700378    0.25999999    2.84999990
   15.87111092  136.79699707    0.25999999    2.84999990
   15.87305546  130.64999390    0.25999999    2.84999990
   15.87444496  133.66900635    0.25999999    2.84999990
   15.87777805  132.44000244    0.25999999    2.84999990
   15.88111115  134.36700439    0.25999999    2.84999990
   15.88416672  134.34500122    0.25999999    2.86999989
   15.89027786  134.34500122    0.25000000    2.86999989
   15.89444447  133.75700378    0.25999999    2.86999989
   15.89777756  129.14500427    0.25000000    2.84999990
   15.90083313  134.69000244    0.25999999    2.84999990
   15.90416622  129.80700684    0.25000000    2.84999990
   15.90666676  127.80400085    0.25000000    2.84999990
   15.90777779  130.84800720    0.25000000    2.84999990
   15.91111088  132.04400635    0.25000000    2.86999989
   15.91416645  129.39199829    0.25000000    2.84999990
   15.91750050  132.02099609    0.25000000    2.84999990
   15.92083359  130.19700623    0.25000000    2.84999990
   15.92388916  133.50000000    0.25000000    2.84999990
   15.92722225  130.76699829    0.25999999    2.86999989
   15.93333340  130.76699829    0.25000000    2.84999990
   15.93750000  132.07800293    0.25000000    2.86999989
   15.94000053  131.30400085    0.25000000    2.84999990
   15.94083309  133.28500366    0.25000000    2.84999990
   15.94416714  129.12500000    0.25999999    2.86999989
   15.94750023  133.75900269    0.25999999    2.84999990
   15.95083332  129.32499695    0.25999999    2.84999990
   15.95388889  129.44400024    0.25999999    2.84999990
   15.95722198  127.09400177    0.30000001    2.86999989
   15.96055508  127.92800140    0.30000001    2.86999989
   15.96361065  133.42100525    0.30000001    2.86999989
   15.96694374  128.16200256    0.30000001    2.86999989
   15.96999931  133.49899292    0.25999999    2.86999989
   15.97611046  133.49899292    0.28000000    2.84999990
   15.98027706  129.78799438    0.30000001    2.84999990
   15.98333359  128.15100098    0.31999999    2.84999990
   15.98666668  132.55099487    0.30000001    2.84999990
   15.99000072  133.54400635    0.28000000    2.84999990
   15.99305534  130.91900635    0.28000000    2.86999989
   15.99638939  125.20800018    0.28000000    2.86999989
   15.99972248  130.28900146    0.28000000    2.86999989
   16.00277710  128.50500488    0.28000000    2.84999990
   16.00611115  128.14599609    0.28000000    2.84999990
   16.00694466  129.85899353    0.28000000    2.84999990
   16.00972176  131.08099365    0.28000000    2.84999990
   16.01277733  128.38099670    0.25999999    2.86999989
   16.01916695  128.38099670    0.25999999    2.84999990
   16.02305603  133.32699585    0.28000000    2.84999990
   16.02638817  129.10899353    0.28000000    2.84999990
   16.02972221  129.63499451    0.28000000    2.84999990
   16.03277779  127.42900085    0.30000001    2.84999990
   16.03610992  132.69799805    0.30000001    2.84999990
   16.03944397  129.12800598    0.30000001    2.84999990
   16.04027748  133.26499939    0.30000001    2.84999990
   16.04305458  133.92300415    0.30000001    2.84999990
   16.04611015  136.08799744    0.30000001    2.84999990
   16.04944420  133.91200256    0.28000000    2.84999990
   16.05277634  131.70199585    0.28000000    2.84999990
   16.05583191  136.73599243    0.28000000    2.86999989
   16.06166649  136.73599243    0.28000000    2.86999989
   16.06583214  133.74000549    0.28000000    2.86999989
   16.06916809  136.95899963    0.30000001    2.86999989
   16.07222366  137.45300293    0.30000001    2.84999990
   16.07389069  135.16600037    0.28000000    2.84999990
   16.07583427  134.02499390    0.28000000    2.84999990
   16.07916832  133.93699646    0.30000001    2.84999990
   16.08250046  132.34100342    0.28000000    2.86999989
   16.08555603  136.68800354    0.28000000    2.84999990
   16.08889008  130.87800598    0.28000000    2.84999990
   16.09222221  133.75399780    0.28000000    2.84999990
   16.09527779  133.65600586    0.28000000    2.86999989
   16.09861183  138.14900208    0.28000000    2.86999989
   16.10444450  138.14900208    0.28000000    2.86999989
   16.12305641  142.43800354    0.30000001    2.84999990
   16.12611198  140.24400330    0.30000001    2.84999990
   16.12944412  138.42199707    0.28000000    2.84999990
   16.13277817  140.59500122    0.28000000    2.86999989
   16.13583374  140.94000244    0.30000001    2.84999990
   16.13916588  138.28100586    0.30000001    2.86999989
   16.14222145  149.61399841    0.30000001    2.86999989
   16.14749908  149.61399841    0.28000000    2.86999989
   16.15166664  148.31599426    0.30000001    2.86999989
   16.15583229  143.52999878    0.30000001    2.84999990
   16.15638924  145.85899353    0.30000001    2.84999990
   16.15972137  150.62699890    0.28000000    2.84999990
   16.16277695  140.21499634    0.28000000    2.86999989
   16.16611099  148.00000000    0.30000001    2.84999990
   16.16944313  140.33500671    0.30000001    2.86999989
   16.17249870  142.31700134    0.30000001    2.84999990
   16.17583275  142.83599854    0.30000001    2.84999990
   16.17888832  144.03599548    0.30000001    2.84999990
   16.18222237  155.41600037    0.28000000    2.84999990
   16.18555450  149.25799561    0.28000000    2.84999990
   16.19055557  149.25799561    0.30000001    2.84999990
   16.19472122  161.36500549    0.30000001    2.84999990
   16.19805527  174.83900452    0.30000001    2.84999990
   16.20138931  174.73500061    0.30000001    2.84999990
   16.20444489  177.63000488    0.30000001    2.86999989
   16.20777893  188.95500183    0.30000001    2.86999989
   16.21083450  188.87600708    0.30000001    2.86999989
   16.21416664  191.58900452    0.30000001    2.84999990
   16.21750069  205.48300171    0.30000001    2.86999989
   16.22055626  187.97500610    0.31999999    2.86999989
   16.22305679  204.71800232    0.31999999    2.86999989
   16.22444534  204.82800293    0.34000000    2.86999989
   16.22750092  204.71000671    0.34000000    2.84999990
   16.23333359  204.71000671    0.36000001    2.86999989
   16.23750114  207.05299377    0.36000001    2.84999990
   16.24055672  223.92300415    0.36000001    2.84999990
   16.24388885  212.66099548    0.36000001    2.84999990
   16.24722290  212.90699768    0.36000001    2.86999989
   16.25027847  229.14399719    0.36000001    2.84999990
   16.25361061  220.17500305    0.36000001    2.84999990
   16.25638962  223.30299377    0.36000001    2.84999990
   16.25722313  215.42300415    0.38000000    2.84999990
   16.26027870  231.46400452    0.38000000    2.84999990
   16.26361084  248.68699646    0.38000000    2.84999990
   16.26694489  228.01100159    0.36000001    2.86999989
   16.27000046  252.73399353    0.38000000    2.84999990
   16.27611160  252.73399353    0.40000001    2.84999990
   16.28027725  248.88499451    0.38000000    2.84999990
   16.28361130  250.97399902    0.38000000    2.84999990
   16.28694344  238.32099915    0.38000000    2.84999990
   16.28972244  230.92300415    0.36000001    2.86999989
   16.29055595  243.41799927    0.36000001    2.86999989
   16.29361153  240.42199707    0.38000000    2.84999990
   16.29694366  237.26499939    0.38000000    2.84999990
   16.30027771  209.01300049    0.36000001    2.84999990
   16.30333328  253.99400330    0.36000001    2.86999989
   16.30666542  240.06900024    0.34000000    2.84999990
   16.30999947  258.88900757    0.38000000    2.84999990
   16.31333351  247.01100159    0.38000000    2.84999990
   16.31916809  247.01100159    0.36000001    2.84999990
   16.32305717  251.16700745    0.36000001    2.86999989
   16.32638931  262.73599243    0.36000001    2.86999989
   16.32972336  270.07598877    0.34000000    2.84999990
   16.33277893  278.32101440    0.31999999    2.84999990
   16.33611107  259.33898926    0.31999999    2.86999989
   16.33944511  243.43299866    0.31999999    2.86999989
   16.34250069  237.67100525    0.31999999    2.86999989
   16.34583473  247.37300110    0.31999999    2.84999990
   16.34916687  218.08999634    0.31999999    2.84999990
   16.35222244  256.08300781    0.31999999    2.84999990
   16.35555649  250.72500610    0.31999999    2.84999990
   16.35639000  240.81500244    0.31999999    2.84999990
   16.36194420  240.81500244    0.31999999    2.84999990
   16.36611176  245.69599915    0.34000000    2.84999990
   16.36916733  266.32800293    0.34000000    2.86999989
   16.37249947  253.59300232    0.36000001    2.86999989
   16.37583351  255.16200256    0.36000001    2.84999990
   16.37888908  274.75601196    0.36000001    2.84999990
   16.38222313  254.96299744    0.36000001    2.84999990
   16.38527679  255.07400513    0.36000001    2.84999990
   16.38861084  257.69299316    0.34000000    2.84999990
   16.38972282  245.88499451    0.34000000    2.84999990
   16.39222145  253.15299988    0.34000000    2.84999990
   16.39527702  256.88900757    0.34000000    2.86999989
   16.39861107  256.34698486    0.31999999    2.86999989
   16.40472221  256.34698486    0.31999999    2.86999989
   16.40888786  243.53300476    0.31999999    2.86999989
   16.41222191  267.97698975    0.30000001    2.84999990
   16.41527748  267.67098999    0.30000001    2.86999989
   16.41860962  262.52700806    0.30000001    2.86999989
   16.42166519  256.99398804    0.30000001    2.86999989
   16.42305565  262.60198975    0.30000001    2.84999990
   16.42555428  240.62199402    0.30000001    2.84999990
   16.42860985  250.70500183    0.31999999    2.84999990
   16.43194389  248.46699524    0.31999999    2.84999990
   16.43527603  242.67900085    0.34000000    2.84999990
   16.43833160  243.98100281    0.31999999    2.84999990
   16.44166565  236.11599731    0.34000000    2.84999990
   16.44749832  236.11599731    0.31999999    2.84999990
   16.45166779  262.25900269    0.31999999    2.84999990
   16.45499992  251.06399536    0.31999999    2.84999990
   16.45639038  251.85899353    0.31999999    2.84999990
   16.45861244  253.06900024    0.31999999    2.84999990
   16.46166801  260.04699707    0.31999999    2.84999990
   16.46500015  247.27299500    0.31999999    2.84999990
   16.46833420  252.83700562    0.36000001    2.84999990
   16.47138977  248.70599365    0.40000001    2.84999990
   16.47472191  234.54600525    0.38000000    2.84999990
   16.47805595  234.50599670    0.34000000    2.86999989
   16.48111153  271.45700073    0.36000001    2.86999989
   16.48444557  241.59599304    0.36000001    2.86999989
   16.49055672  241.59599304    0.40000001    2.84999990
   16.49444389  247.58200073    0.44000000    2.84999990
   16.49777794  240.53599548    0.41999999    2.84999990
   16.50111198  234.78599548    0.40000001    2.84999990
   16.50416756  231.03500366    0.40000001    2.84999990
   16.50749969  235.19700623    0.38000000    2.84999990
   16.51083374  230.00100708    0.36000001    2.84999990
   16.51388931  232.52200317    0.40000001    2.84999990
   16.51722145  233.15400696    0.31999999    2.84999990
   16.52055550  224.50300598    0.34000000    2.86999989
   16.52305603  244.94099426    0.34000000    2.86999989
   16.52416611  232.33700562    0.34000000    2.84999990
   16.52750015  236.99200439    0.34000000    2.84999990
   16.53333282  236.99200439    0.31999999    2.86999989
   16.53750038  228.82699585    0.30000001    2.86999989
   16.54055595  233.61700439    0.30000001    2.84999990
   16.54388809  238.02900696    0.30000001    2.86999989
   16.54722214  231.76899719    0.30000001    2.86999989
   16.55027771  239.76100159    0.30000001    2.86999989
   16.55360985  251.10099792    0.30000001    2.84999990
   16.55638885  242.00900269    0.30000001    2.84999990
   16.55722237  237.79800415    0.30000001    2.84999990
   16.56055450  227.19700623    0.28000000    2.84999990
   16.56361008  235.45599365    0.30000001    2.84999990
   16.56694603  226.08799744    0.30000001    2.84999990
   16.57000160  227.58000183    0.30000001    2.84999990
   16.57611275  227.58000183    0.28000000    2.86999989
   16.58027840  220.45899963    0.28000000    2.86999989
   16.58361244  220.54800415    0.28000000    2.84999990
   16.58666801  246.25199890    0.28000000    2.86999989
   16.58972359  224.62800598    0.28000000    2.86999989
   16.59027863  229.16400146    0.28000000    2.86999989
   16.59361267  223.00799561    0.28000000    2.84999990
   16.59666824  233.88999939    0.28000000    2.84999990
   16.60000038  229.60200500    0.28000000    2.86999989
   16.60333443  228.40299988    0.30000001    2.86999989
   16.60639000  217.20199585    0.30000001    2.86999989
   16.60972214  216.85299683    0.31999999    2.84999990
   16.61277771  225.36099243    0.31999999    2.84999990
   16.61888885  225.36099243    0.31999999    2.86999989
   16.62305641  222.36799622    0.31999999    2.84999990
   16.62361145  224.93800354    0.31999999    2.84999990
   16.62694550  215.74000549    0.31999999    2.84999990
   16.63000107  222.44700623    0.30000001    2.84999990
   16.63333321  219.50999451    0.30000001    2.84999990
   16.63638878  209.31900024    0.30000001    2.84999990
   16.63972282  219.86399841    0.30000001    2.86999989
   16.64305496  203.77600098    0.30000001    2.86999989
   16.64611053  216.57800293    0.30000001    2.86999989
   16.64944458  215.64900208    0.30000001    2.86999989
   16.65277672  214.78100586    0.30000001    2.86999989
   16.65583229  210.17399597    0.30000001    2.84999990
   16.65638924  216.27200317    0.30000001    2.84999990
   16.66194344  216.27200317    0.28000000    2.84999990
   16.66611099  210.49099731    0.28000000    2.86999989
   16.66916656  203.77999878    0.30000001    2.84999990
   16.67249870  205.63400269    0.30000001    2.84999990
   16.67555428  216.52600098    0.30000001    2.84999990
   16.67888832  212.24600220    0.30000001    2.86999989
   16.68222237  211.76600647    0.30000001    2.84999990
   16.68527603  210.91400146    0.30000001    2.84999990
   16.68861008  207.67999268    0.34000000    2.84999990
   16.68972206  208.46600342    0.34000000    2.84999990
   16.69222069  214.56900024    0.31999999    2.84999990
   16.69555473  203.87600708    0.31999999    2.84999990
   16.69861031  206.68499756    0.34000000    2.84999990
   16.70472336  206.68499756    0.31999999    2.86999989
   16.70888901  210.84899902    0.31999999    2.86999989
   16.71222305  211.22300720    0.30000001    2.86999989
   16.71527863  200.83299255    0.30000001    2.86999989
   16.71861076  204.45799255    0.30000001    2.86999989
   16.72166634  207.43099976    0.30000001    2.86999989
   16.72305679  201.51300049    0.31999999    2.84999990
   16.72527885  200.11900330    0.31999999    2.84999990
   16.72861099  187.74200439    0.31999999    2.86999989
   16.73166656  201.48399353    0.31999999    2.84999990
   16.73500061  187.99299622    0.30000001    2.84999990
   16.73833275  203.72500610    0.30000001    2.84999990
   16.74138832  201.59700012    0.31999999    2.84999990
   16.74777794  201.59700012    0.31999999    2.86999989
   16.75194359  200.48399353    0.34000000    2.86999989
   16.75499916  193.52699280    0.34000000    2.84999990
   16.75638962  195.00399780    0.34000000    2.84999990
   16.75861168  199.76499939    0.34000000    2.84999990
   16.76194382  194.04499817    0.34000000    2.84999990
   16.76499939  182.52200317    0.36000001    2.84999990
   16.76833344  193.97300720    0.36000001    2.86999989
   16.77166557  199.22399902    0.44000000    2.84999990
   16.77472115  190.78599548    0.44000000    2.84999990
   16.77805519  187.62100220    0.41999999    2.86999989
   16.78138924  199.40199280    0.41999999    2.86999989
   16.78444481  195.23699951    0.44000000    2.84999990
   16.79027748  195.23699951    0.41999999    2.84999990
   16.79444313  204.41200256    0.38000000    2.84999990
   16.79777718  203.09800720    0.38000000    2.84999990
   16.80083275  187.07699585    0.41999999    2.84999990
   16.80416679  203.19700623    0.41999999    2.84999990
   16.80749893  191.14999390    0.41999999    2.84999990
   16.81055450  191.70899963    0.46000001    2.84999990
   16.81388855  197.96800232    0.47999999    2.86999989
   16.81722260  195.19200134    0.40000001    2.84999990
   16.82027817  186.07400513    0.40000001    2.84999990
   16.82305717  183.94099426    0.40000001    2.84999990
   16.82389069  185.13800049    0.40000001    2.84999990
   16.82722282  195.73300171    0.40000001    2.84999990
   16.83305550  195.73300171    0.40000001    2.84999990
   16.83722305  192.80400085    0.38000000    2.84999990
   16.84055710  196.04400635    0.38000000    2.84999990
   16.84388924  187.54699707    0.40000001    2.86999989
   16.84694481  189.27000427    0.40000001    2.86999989
   16.85027885  193.63299561    0.40000001    2.84999990
   16.85361099  191.26800537    0.38000000    2.86999989
   16.85639000  188.20599365    0.38000000    2.84999990
   16.85694504  185.03300476    0.38000000    2.84999990
   16.86027908  185.39799500    0.38000000    2.84999990
   16.86333466  179.59199524    0.38000000    2.84999990
   16.86666679  186.64799500    0.38000000    2.84999990
   16.87000084  189.63600159    0.38000000    2.86999989
   16.87611198  189.63600159    0.36000001    2.84999990
   16.88027763  187.31199646    0.36000001    2.86999989
   16.88333321  191.11799622    0.36000001    2.86999989
   16.88666725  190.16299438    0.36000001    2.86999989
   16.88972282  185.76199341    0.36000001    2.86999989
   16.89027786  193.62899780    0.36000001    2.84999990
   16.89361191  182.59100342    0.36000001    2.84999990
   16.89666748  187.24200439    0.36000001    2.84999990
   16.89999962  182.59199524    0.34000000    2.84999990
   16.90333366  175.15699768    0.38000000    2.84999990
   16.90638924  183.37500000    0.38000000    2.84999990
   16.90972137  186.33700562    0.38000000    2.84999990
   16.91277695  188.10000610    0.38000000    2.84999990
   16.91888809  188.10000610    0.38000000    2.86999989
   16.92305565  184.69599915    0.40000001    2.84999990
   16.92361069  179.53199768    0.40000001    2.84999990
   16.92666626  190.48199463    0.41999999    2.84999990
   16.93000031  181.88099670    0.41999999    2.84999990
   16.93333244  182.11999512    0.41999999    2.84999990
   16.93638802  164.67900085    0.41999999    2.84999990
   16.93972206  180.22700500    0.38000000    2.86999989
   16.94305420  169.08200073    0.40000001    2.84999990
   16.94610977  175.00900269    0.40000001    2.84999990
   16.94944382  168.81100464    0.40000001    2.84999990
   16.95250130  179.56399536    0.46000001    2.84999990
   16.95583344  177.90400696    0.51999998    2.84999990
   16.95694542  172.68800354    0.51999998    2.84999990
   16.96166801  172.68800354    0.38000000    2.84999990
   16.96583366  179.85699463    0.36000001    2.84999990
   16.96916771  172.26899719    0.36000001    2.84999990
   16.97222328  179.59599304    0.38000000    2.84999990
   16.97555542  179.16299438    0.38000000    2.84999990
   16.97888947  175.90499878    0.38000000    2.84999990
   16.98194504  174.80299377    0.41999999    2.84999990
   16.98527718  175.08599854    0.41999999    2.84999990
   16.98861122  173.36799622    0.41999999    2.86999989
   16.99027824  169.94700623    0.41999999    2.86999989
   16.99222183  167.12300110    0.40000001    2.84999990
   16.99555588  162.41099548    0.41999999    2.84999990
   16.99861145  174.02600098    0.41999999    2.84999990
   17.00444412  174.02600098    0.41999999    2.82999992
   17.00861168  168.30599976    0.41999999    2.84999990
   17.01194382  177.47000122    0.41999999    2.84999990
   17.01527786  170.30200195    0.41999999    2.84999990
   17.01833344  169.63000488    0.41999999    2.84999990
   17.02166557  173.78300476    0.41999999    2.86999989
   17.02361107  173.69400024    0.41999999    2.86999989
   17.02527809  167.96899414    0.41999999    2.86999989
   17.02861023  176.25000000    0.41999999    2.86999989
   17.03166580  177.18899536    0.41999999    2.84999990
   17.03499985  178.08200073    0.41999999    2.84999990
   17.03833199  166.32200623    0.40000001    2.84999990
   17.04138756  169.97900391    0.38000000    2.84999990
   17.04749870  169.97900391    0.38000000    2.84999990
   17.05138779  170.94999695    0.38000000    2.84999990
   17.05472183  170.91099548    0.38000000    2.84999990
   17.05694389  167.10699463    0.40000001    2.84999990
   17.05833244  172.30400085    0.40000001    2.84999990
   17.06166649  171.56900024    0.40000001    2.84999990
   17.06499863  169.37399292    0.40000001    2.84999990
   17.06805611  170.05499268    0.40000001    2.84999990
   17.07139015  168.60400391    0.40000001    2.84999990
   17.07444572  163.98899841    0.40000001    2.84999990
   17.07777786  169.34899902    0.40000001    2.84999990
   17.08111191  172.66000366    0.40000001    2.84999990
   17.08416748  170.33200073    0.41999999    2.84999990
   17.09027863  170.33200073    0.40000001    2.84999990
   17.09444427  173.49600220    0.40000001    2.84999990
   17.09749985  163.61900330    0.40000001    2.86999989
   17.10083389  169.57600403    0.38000000    2.82999992
   17.10416794  164.14100647    0.38000000    2.84999990
   17.10722351  166.93099976    0.38000000    2.84999990
   17.11055565  173.07200623    0.38000000    2.84999990
   17.11361122  171.17999268    0.36000001    2.84999990
   17.11694527  168.72000122    0.38000000    2.84999990
   17.12027740  166.63900757    0.38000000    2.84999990
   17.13972282  165.48800659    0.40000001    2.84999990
   17.14027786  166.81900024    0.40000001    2.84999990
   17.14416695  166.81900024    0.38000000    2.84999990
   17.14833260  162.77000427    0.38000000    2.84999990
   17.15166664  161.93699646    0.38000000    2.84999990
   17.15499878  166.61099243    0.36000001    2.84999990
   17.15805435  165.84300232    0.36000001    2.84999990
   17.16138840  164.62899780    0.36000001    2.84999990
   17.16444397  165.50500488    0.36000001    2.84999990
   17.16777802  157.28599548    0.36000001    2.84999990
   17.17111015  152.79400635    0.36000001    2.84999990
   17.17361069  161.57099915    0.36000001    2.84999990
   17.17444420  162.64799500    0.36000001    2.84999990
   17.17777634  158.05299377    0.38000000    2.84999990
   17.18111038  160.06300354    0.36000001    2.84999990
   17.18722153  160.06300354    0.38000000    2.84999990
   17.19138718  166.69900513    0.40000001    2.84999990
   17.19444275  159.88299561    0.40000001    2.84999990
   17.19777679  156.63000488    0.40000001    2.84999990
   17.20083427  153.61700439    0.41999999    2.86999989
   17.20416832  159.57299805    0.41999999    2.84999990
   17.20694542  164.37500000    0.41999999    2.84999990
   17.20777893  164.63200378    0.41999999    2.84999990
   17.21111107  157.27299500    0.40000001    2.84999990
   17.21444511  157.05799866    0.40000001    2.84999990
   17.21750069  158.83399963    0.38000000    2.84999990
   17.22083473  162.03399658    0.38000000    2.84999990
   17.22389030  160.62100220    0.38000000    2.84999990
   17.23000145  160.62100220    0.36000001    2.84999990
   17.23416710  156.79699707    0.36000001    2.84999990
   17.23722267  146.05700684    0.36000001    2.84999990
   17.24027824  157.53100586    0.34000000    2.84999990
   17.24083328  150.23399353    0.34000000    2.84999990
   17.24416733  160.26499939    0.34000000    2.84999990
   17.24749947  155.80099487    0.34000000    2.84999990
   17.25055504  158.05599976    0.34000000    2.84999990
   17.25388908  157.19700623    0.34000000    2.84999990
   17.25694466  156.67100525    0.34000000    2.84999990
   17.26027870  152.92799377    0.31999999    2.84999990
   17.26361084  158.58799744    0.31999999    2.84999990
   17.26666641  157.05700684    0.34000000    2.84999990
   17.27277756  157.05700684    0.34000000    2.84999990
   17.27694511  156.53999329    0.34000000    2.84999990
   17.28027725  152.05400085    0.34000000    2.84999990
   17.28333282  152.25599670    0.36000001    2.84999990
   17.28666687  146.20700073    0.34000000    2.84999990
   17.28972244  152.90899658    0.36000001    2.84999990
   17.29305458  158.43499756    0.36000001    2.84999990
   17.29638863  158.73199463    0.36000001    2.84999990
   17.29944420  154.07899475    0.36000001    2.84999990
   17.30277634  160.18499756    0.40000001    2.84999990
   17.30611038  150.52900696    0.38000000    2.84999990
   17.30777740  154.05599976    0.38000000    2.84999990
   17.30972099  151.82800293    0.38000000    2.84999990
   17.31555557  151.82800293    0.40000001    2.82999992
   17.31972313  152.92700195    0.41999999    2.84999990
   17.32305717  148.22599792    0.40000001    2.84999990
   17.32638931  152.26499939    0.40000001    2.84999990
   17.32944489  151.24600220    0.41999999    2.84999990
   17.33277893  158.20100403    0.41999999    2.84999990
   17.33583450  149.83999634    0.41999999    2.84999990
   17.33916664  151.94599915    0.44000000    2.84999990
   17.34111214  152.53300476    0.44000000    2.84999990
   17.34277916  150.72500610    0.44000000    2.84999990
   17.34583473  153.68899536    0.40000001    2.82999992
   17.34916687  155.29299927    0.40000001    2.82999992
   17.35250092  150.24600220    0.41999999    2.82999992
   17.35861206  150.24600220    0.40000001    2.84999990
   17.36277771  153.41400146    0.36000001    2.84999990
   17.36611176  154.39599609    0.38000000    2.84999990
   17.36916733  149.62199402    0.38000000    2.84999990
   17.37249947  148.91999817    0.38000000    2.84999990
   17.37472153  149.83000183    0.40000001    2.84999990
   17.37611198  147.14199829    0.40000001    2.84999990
   17.37944412  153.47599792    0.36000001    2.84999990
   17.38277817  152.63200378    0.36000001    2.82999992
   17.38583374  154.55999756    0.38000000    2.84999990
   17.38916588  152.50199890    0.38000000    2.84999990
   17.39249992  146.60299683    0.38000000    2.84999990
   17.39555550  149.09899902    0.40000001    2.84999990
   17.40138817  149.09899902    0.47999999    2.84999990
   17.40555573  150.19400024    0.51999998    2.84999990
   17.40805435  156.74400330    0.52999997    2.84999990
   17.40916634  150.15699768    0.52999997    2.84999990
   17.41250038  145.34100342    0.52999997    2.84999990
   17.41583252  148.57000732    0.58999997    2.84999990
   17.41888809  150.27900696    0.58999997    2.84999990
   17.42222214  152.87199402    0.58999997    2.84999990
   17.42527771  141.76899719    0.61000001    2.82999992
   17.42860985  139.91299438    0.64999998    2.84999990
   17.43194389  157.41299438    0.61000001    2.82999992
   17.43499947  147.00599670    0.56999999    2.84999990
   17.43833160  144.22900391    0.56999999    2.84999990
   17.44416618  144.22900391    0.55000001    2.84999990
   17.44833183  145.67900085    0.51999998    2.84999990
   17.45166779  149.44999695    0.55000001    2.82999992
   17.45499992  143.43899536    0.55000001    2.82999992
   17.45833397  146.00799561    0.55000001    2.82999992
   17.46138954  144.40699768    0.58999997    2.84999990
   17.46472359  143.28300476    0.63000000    2.84999990
   17.46777916  150.14799500    0.63000000    2.82999992
   17.47111130  140.62199402    0.61000001    2.82999992
   17.47444534  150.24200439    0.58999997    2.82999992
   17.47527885  147.52099609    0.58999997    2.82999992
   17.47777748  148.04200745    0.58999997    2.84999990
   17.48111153  145.99600220    0.58999997    2.84999990
   17.48694420  145.99600220    0.55000001    2.84999990
   17.49111176  138.04100037    0.52999997    2.82999992
   17.49444389  138.36799622    0.51999998    2.84999990
   17.49777794  141.28599548    0.51999998    2.82999992
   17.50083351  139.59300232    0.51999998    2.84999990
   17.50416756  139.28999329    0.51999998    2.82999992
   17.50749969  135.78100586    0.47999999    2.84999990
   17.50861168  133.85099792    0.47999999    2.84999990
   17.51083374  141.64300537    0.47999999    2.84999990
   17.51416588  145.07699585    0.46000001    2.84999990
   17.51722145  142.23100281    0.47999999    2.84999990
   17.52055550  138.66700745    0.50000000    2.84999990
   17.52388954  141.94900513    0.50000000    2.84999990
   17.53000069  141.94900513    0.47999999    2.84999990
   17.53416634  132.28799438    0.47999999    2.84999990
   17.53722191  134.91700745    0.50000000    2.84999990
   17.54055595  138.55099487    0.51999998    2.82999992
   17.54194450  135.31799316    0.51999998    2.82999992
   17.54416656  133.59199524    0.51999998    2.82999992
   17.54749870  135.15400696    0.46000001    2.84999990
   17.55055428  144.53700256    0.47999999    2.82999992
   17.55388832  136.28399658    0.50000000    2.82999992
   17.55694389  144.09100342    0.51999998    2.84999990
   17.56027794  135.85000610    0.50000000    2.82999992
   17.56361008  141.96400452    0.46000001    2.82999992
   17.56666756  139.57499695    0.46000001    2.82999992
   17.57277870  139.57499695    0.44000000    2.82999992
   17.57694626  143.73500061    0.46000001    2.84999990
   17.58027840  139.48300171    0.47999999    2.82999992
   17.58333397  138.81300354    0.47999999    2.82999992
   17.58666801  137.81199646    0.50000000    2.84999990
   17.58972359  138.68499756    0.47999999    2.82999992
   17.59305573  137.88000488    0.47999999    2.82999992
   17.59638977  135.70500183    0.44000000    2.84999990
   17.59944534  135.40699768    0.44000000    2.84999990
   17.60277748  134.66099548    0.44000000    2.82999992
   17.60611153  141.44400024    0.44000000    2.84999990
   17.60861206  140.63000488    0.46000001    2.82999992
   17.60972214  138.72599792    0.46000001    2.82999992
   17.61555672  138.72599792    0.47999999    2.84999990
   17.61972237  134.77699280    0.50000000    2.84999990
   17.62305641  138.78599548    0.50000000    2.82999992
   17.62611198  130.93899536    0.50000000    2.82999992
   17.62944412  132.08299255    0.51999998    2.84999990
   17.63277817  135.33900452    0.51999998    2.82999992
   17.63583374  135.00700378    0.51999998    2.82999992
   17.63916588  128.79600525    0.52999997    2.84999990
   17.64194489  130.57000732    0.52999997    2.84999990
   17.64277840  132.26199341    0.52999997    2.84999990
   17.64611053  132.44000244    0.52999997    2.82999992
   17.64916611  129.91700745    0.52999997    2.82999992
   17.65250015  134.13000488    0.55000001    2.82999992
   17.65861130  134.13000488    0.55000001    2.82999992
   17.66277695  132.34500122    0.56999999    2.82999992
   17.66583252  128.19299316    0.56999999    2.82999992
   17.66916656  136.13900757    0.55000001    2.84999990
   17.67222214  137.00500488    0.52999997    2.82999992
   17.67611122  141.52200317    0.52999997    2.84999990
   17.67638779  132.79499817    0.52999997    2.84999990
   17.67972183  134.31900024    0.51999998    2.84999990
   17.68305397  139.54600525    0.52999997    2.82999992
   17.68610954  137.33999634    0.52999997    2.82999992
   17.68944359  134.79699707    0.51999998    2.84999990
   17.69277763  131.34399414    0.51999998    2.82999992
   17.69583321  136.83000183    0.51999998    2.84999990
   17.70138931  136.83000183    0.51999998    2.82999992
   17.70555687  134.25700378    0.73000002    2.82999992
   17.70888901  132.47500610    0.61000001    2.84999990
   17.70916748  131.96699524    0.56999999    2.82999992
   17.71250153  133.58299255    0.56999999    2.84999990
   17.71583366  137.00599670    0.55000001    2.84999990
   17.71888924  133.17799377    0.56999999    2.82999992
   17.72222328  135.21899414    0.56999999    2.82999992
   17.72527885  131.30599976    0.56999999    2.84999990
   17.72861099  131.08299255    0.56999999    2.82999992
   17.73194504  132.44700623    0.56999999    2.82999992
   17.73500061  131.26899719    0.56999999    2.82999992
   17.73833275  132.03399658    0.56999999    2.84999990
   17.74416733  132.03399658    0.58999997    2.82999992
   17.74833298  131.35299683    0.61000001    2.84999990
   17.75166702  130.28999329    0.61000001    2.84999990
   17.75472260  129.51199341    0.61000001    2.82999992
   17.75805473  127.47200012    0.63000000    2.84999990
   17.76138878  134.79299927    0.63000000    2.84999990
   17.76444435  128.61700439    0.64999998    2.82999992
   17.76777840  129.16999817    0.67000002    2.84999990
   17.77111053  135.68600464    0.67000002    2.84999990
   17.77444458  137.58700562    0.67000002    2.82999992
   17.77555466  131.50900269    0.67000002    2.82999992
   17.77777672  133.87500000    0.67000002    2.82999992
   17.78111076  130.12300110    0.67000002    2.82999992
   17.78722191  130.12300110    0.64999998    2.82999992
   17.79111099  130.72200012    0.64999998    2.82999992
   17.79444313  129.20599365    0.64999998    2.82999992
   17.79777718  131.29699707    0.69000000    2.82999992
   17.80083275  127.64099884    0.73000002    2.82999992
   17.80416679  130.94900513    0.75000000    2.82999992
   17.80749893  128.48699951    0.75000000    2.82999992
   17.80888748  134.21099854    0.75000000    2.82999992
   17.81110954  132.56300354    0.75000000    2.82999992
   17.81444359  129.52299500    0.75000000    2.82999992
   17.81750107  133.73800659    0.75000000    2.82999992
   17.82083511  127.17099762    0.76999998    2.82999992
   17.82416725  134.14399719    0.75000000    2.82999992
   17.83000183  134.14399719    0.76999998    2.80999994
   17.83416748  130.06199646    0.79000002    2.82999992
   17.83722305  126.41600037    0.79000002    2.82999992
   17.84055710  130.33000183    0.80000001    2.84999990
   17.84222221  126.14600372    0.80000001    2.84999990
   17.84416771  132.55000305    0.80000001    2.84999990
   17.84749985  128.30700684    0.80000001    2.82999992
   17.85055542  124.69400024    0.80000001    2.82999992
   17.85388947  126.84999847    0.80000001    2.82999992
   17.85722351  129.84899902    0.80000001    2.82999992
   17.86027908  118.62899780    0.80000001    2.82999992
   17.86361122  124.43199921    0.81999999    2.82999992
   17.86666679  125.50399780    0.83999997    2.82999992
   17.87277794  125.50399780    0.83999997    2.82999992
   17.87694550  131.64199829    0.81999999    2.82999992
   17.88000107  131.83599854    0.80000001    2.82999992
   17.88333321  131.27000427    0.81999999    2.82999992
   17.88666725  128.79699707    0.81999999    2.80999994
   17.88972282  129.54200745    0.86000001    2.82999992
   17.89305496  128.99499512    0.86000001    2.82999992
   17.89638901  129.72900391    0.86000001    2.82999992
   17.89944458  124.83999634    0.88000000    2.82999992
   17.90277672  123.59600067    0.89999998    2.82999992
   17.90611076  127.06999969    0.89999998    2.82999992
   17.90888786  128.79100037    0.89999998    2.82999992
   17.90972137  127.20600128    0.94000000    2.82999992
   17.91555595  127.20600128    1.07000005    2.80999994
   17.92000008  129.60000610    1.07000005    2.82999992
   17.92305565  131.86000061    1.07000005    2.82999992
   17.92638779  135.05000305    1.07000005    2.82999992
   17.92972183  133.21600342    1.07000005    2.82999992
   17.93277740  127.94899750    1.03999996    2.82999992
   17.93610954  126.26699829    1.03999996    2.80999994
   17.93916512  131.95300293    1.01999998    2.80999994
   17.94222069  129.21299744    0.98000002    2.80999994
   17.94277763  130.55200195    0.98000002    2.80999994
   17.94610977  129.49499512    0.92000002    2.82999992
   17.94916534  134.66900635    0.92000002    2.82999992
   17.95250130  134.26600647    0.81999999    2.80999994
   17.95861244  134.26600647    0.81999999    2.82999992
   17.96250153  129.40400696    0.81999999    2.82999992
   17.96583366  128.84899902    0.79000002    2.80999994
   17.96916771  129.55000305    0.79000002    2.82999992
   17.97222328  131.84300232    0.81999999    2.82999992
   17.97555542  130.17999268    0.81999999    2.82999992
   17.97611237  130.86599731    0.81999999    2.82999992
   17.97916794  134.46400452    0.81999999    2.82999992
   17.98250008  134.46099854    0.80000001    2.82999992
   17.98583412  136.74499512    0.80000001    2.82999992
   17.98888969  133.17799377    0.80000001    2.82999992
   17.99222183  135.47999573    0.75000000    2.82999992
   17.99527740  135.11799622    0.75000000    2.82999992
   18.00138855  135.11799622    0.80000001    2.80999994
   18.00527763  124.79299927    0.83999997    2.80999994
   18.00861168  132.86599731    0.86000001    2.82999992
   18.00944519  132.02000427    0.86000001    2.82999992
   18.01222229  130.43200684    0.86000001    2.82999992
   18.01555634  129.35600281    0.88000000    2.82999992
   18.01888847  129.90800476    0.86000001    2.82999992
   18.02194405  131.21000671    0.86000001    2.82999992
   18.02527809  128.40600586    0.86000001    2.82999992
   18.02861023  127.28800201    0.86000001    2.82999992
   18.03166580  131.24800110    0.86000001    2.82999992
   18.03499985  129.38200378    0.88000000    2.82999992
   18.03805542  125.62300110    0.89999998    2.82999992
   18.04416656  125.62300110    0.89999998    2.80999994
   18.04805565  132.42799377    0.89999998    2.82999992
   18.05138779  132.19999695    0.88000000    2.82999992
   18.05472183  130.11700439    0.86000001    2.82999992
   18.05777740  129.49200439    0.81999999    2.80999994
   18.06110954  133.12699890    0.80000001    2.82999992
   18.06444359  127.98100281    0.80000001    2.82999992
   18.06750107  131.40400696    0.80000001    2.82999992
   18.07083511  130.04499817    0.81999999    2.82999992
   18.07389069  128.77400208    0.83999997    2.82999992
   18.07611275  131.10600281    0.83999997    2.82999992
   18.07750130  124.22200012    0.81999999    2.80999994
   18.08083344  128.69500732    0.79000002    2.82999992
   18.08694458  128.69500732    0.76999998    2.82999992
   18.09138870  121.22899628    0.76999998    2.82999992
   18.09472275  123.14199829    0.76999998    2.82999992
   18.09777832  119.13600159    0.76999998    2.80999994
   18.10111237  129.35200500    0.79000002    2.80999994
   18.10444450  125.12100220    0.80000001    2.80999994
   18.10750008  128.66000366    0.81999999    2.82999992
   18.10944557  129.18499756    0.81999999    2.82999992
   18.11111069  129.56700134    0.81999999    2.82999992
   18.11444473  126.31199646    0.80000001    2.82999992
   18.11750031  129.70500183    0.83999997    2.80999994
   18.12083435  131.95100403    0.81999999    2.82999992
   18.12416649  129.28700256    0.83999997    2.80999994
   18.12972260  129.28700256    0.83999997    2.80999994
   18.13388824  131.05499268    0.86000001    2.80999994
   18.13722229  128.26499939    0.83999997    2.80999994
   18.15666580  125.12699890    0.83999997    2.80999994
   18.15722275  125.96900177    0.80000001    2.82999992
   18.16055489  126.22000122    0.80000001    2.82999992
   18.16361046  123.84400177    0.79000002    2.82999992
   18.16694450  127.30500031    0.79000002    2.82999992
   18.17277718  127.30500031    0.76999998    2.80999994
   18.17694473  125.62500000    0.76999998    2.80999994
   18.18027687  128.15899658    0.79000002    2.80999994
   18.18333244  126.80599976    0.79000002    2.82999992
   18.18666649  126.89299774    0.80000001    2.82999992
   18.18972206  126.06300354    0.80000001    2.82999992
   18.19083214  128.95599365    0.80000001    2.82999992
   18.19388771  131.36199951    0.79000002    2.82999992
   18.19694328  126.31999969    0.79000002    2.82999992
   18.20027924  126.68800354    0.76999998    2.82999992
   18.20333481  126.52600098    0.79000002    2.80999994
   18.20666695  125.39900208    0.80000001    2.82999992
   18.21000099  126.14299774    0.80000001    2.82999992
   18.21555710  126.14299774    0.79000002    2.82999992
   18.21972275  132.61199951    0.79000002    2.80999994
   18.22305679  130.68499756    0.80000001    2.82999992
   18.22389030  124.14900208    0.80000001    2.82999992
   18.22666740  135.12800598    0.81999999    2.80999994
   18.22972298  132.51199341    0.81999999    2.82999992
   18.23305511  130.64500427    0.81999999    2.80999994
   18.23638916  129.11099243    0.83999997    2.80999994
   18.23944473  128.24699402    0.83999997    2.80999994
   18.24277878  127.70400238    0.86000001    2.80999994
   18.24583435  131.52799988    0.92000002    2.80999994
   18.24916649  126.60900116    0.98000002    2.80999994
   18.25250053  127.62400055    1.01999998    2.82999992
   18.25861168  127.62400055    1.05999994    2.80999994
   18.26250076  123.62100220    1.05999994    2.80999994
   18.26583290  126.61699677    1.09000003    2.80999994
   18.26916695  135.10800171    1.11000001    2.80999994
   18.27222252  130.63699341    1.11000001    2.82999992
   18.27555466  131.50000000    1.11000001    2.82999992
   18.27888870  127.42500305    1.14999998    2.80999994
   18.28194427  136.21899414    1.19000006    2.80999994
   18.28527641  129.43099976    1.23000002    2.80999994
   18.28861046  125.08799744    1.23000002    2.80999994
   18.29055595  125.29100037    1.25000000    2.80999994
   18.29222107  124.85800171    1.25000000    2.80999994
   18.29527664  123.67900085    1.25000000    2.80999994
   18.30138779  123.67900085    1.23000002    2.80999994
   18.30555534  124.38400269    1.21000004    2.80999994
   18.30861092  128.05900574    1.19000006    2.80999994
   18.31194305  126.74500275    1.19000006    2.80999994
   18.31527710  126.59600067    1.16999996    2.80999994
   18.31833458  124.98500061    1.19000006    2.80999994
   18.32166672  129.51600647    1.19000006    2.80999994
   18.32389069  130.54400635    1.19000006    2.80999994
   18.32527924  128.70100403    1.19000006    2.80999994
   18.32833481  126.53399658    1.19000006    2.80999994
   18.33166695  127.96399689    1.21000004    2.78999996
   18.33500099  123.44400024    1.25000000    2.80999994
   18.33805656  127.71900177    1.25000000    2.80999994
   18.34416771  127.71900177    1.21000004    2.80999994
   18.34833336  124.59100342    1.23000002    2.80999994
   18.35166740  125.88700104    1.25000000    2.80999994
   18.35472298  126.79399872    1.26999998    2.82999992
   18.35722351  131.41799927    1.26999998    2.80999994
   18.35833359  127.86100006    1.26999998    2.80999994
   18.36166763  126.82599640    1.28999996    2.80999994
   18.36472321  125.94000244    1.28999996    2.80999994
   18.36805534  123.19899750    1.30999994    2.80999994
   18.37138939  126.12400055    1.30999994    2.80999994
   18.37444496  126.58300018    1.30999994    2.80999994
   18.37777710  122.59400177    1.25000000    2.80999994
   18.38111115  126.67299652    1.21000004    2.80999994
   18.38694382  126.67299652    1.21000004    2.80999994
   18.39111137  127.42900085    1.23000002    2.80999994
   18.39444351  126.19899750    1.21000004    2.80999994
   18.39777756  126.95700073    1.21000004    2.80999994
   18.40083313  126.99199677    1.21000004    2.80999994
   18.40416718  124.53399658    1.21000004    2.78999996
   18.40722275  117.16300201    1.21000004    2.78999996
   18.41055489  127.92299652    1.19000006    2.80999994
   18.41388893  125.66899872    1.19000006    2.80999994
   18.41694450  121.34400177    1.19000006    2.80999994
   18.42027664  121.76699829    1.19000006    2.80999994
   18.42361069  126.30000305    1.21000004    2.80999994
   18.42388916  126.99400330    1.21000004    2.80999994
   18.43000031  126.99400330    1.28999996    2.78999996
   18.43416595  123.42299652    1.30999994    2.80999994
   18.43722153  123.32599640    1.36000001    2.80999994
   18.44055557  126.95300293    1.33000004    2.80999994
   18.44388771  123.59899902    1.33000004    2.80999994
   18.44694328  123.84999847    1.33000004    2.80999994
   18.45027924  128.83999634    1.41999996    2.80999994
   18.45333481  128.88299561    3.46000004    2.73000002
   18.45666695  125.59100342    3.05999994    2.75000000
   18.45722389  127.50299835    2.96000004    2.75000000
   18.46027946  125.84999847    2.55999994    2.76999998
   18.46333504  124.97699738    2.00000000    2.80999994
   18.46666718  120.51699829    2.05999994    2.78999996
   18.47277832  120.51699829    1.48000002    2.78999996
   18.47694588  122.35600281    1.46000004    2.80999994
   18.48000145  123.51799774    1.48000002    2.80999994
   18.48333359  119.78299713    1.50000000    2.80999994
   18.48666763  123.77999878    1.50000000    2.80999994
   18.48972321  122.76100159    1.51999998    2.78999996
   18.49055672  122.35199738    1.51999998    2.78999996
   18.49333382  127.42299652    1.53999996    2.80999994
   18.49666786  127.42299652    1.58000004    2.78999996
   18.49972153  123.02799988    1.58000004    2.78999996
   18.50305557  124.88200378    1.60000002    2.78999996
   18.50638962  126.86100006    1.60000002    2.78999996
   18.50944519  130.60200500    1.55999994    2.78999996
   18.51555634  130.60200500    1.50000000    2.80999994
   18.51972198  124.72399902    1.50000000    2.78999996
   18.52305603  126.91799927    1.50000000    2.78999996
   18.52388954  119.31300354    1.50000000    2.78999996
   18.52666664  122.18699646    1.48000002    2.78999996
   18.53000069  128.07899475    1.48000002    2.78999996
   18.53305435  122.76300049    1.48000002    2.78999996
   18.53638840  125.99199677    1.46000004    2.78999996
   18.53944397  128.36300659    1.48000002    2.78999996
   18.54277802  130.59199524    1.51999998    2.78999996
   18.54611015  126.87500000    1.85000002    2.80999994
   18.54916573  125.98000336    4.38999987    2.71000004
   18.55249977  125.07299805    4.90999985    2.75000000
   18.55833244  125.07299805    4.90999985    2.66000009
   18.56250000  128.31799316    4.90999985    2.71000004
   18.56583214  128.92100525    4.90999985    2.73000002
   18.56888962  123.98300171    4.90999985    2.69000006
   18.57222366  125.85500336    4.90999985    2.73000002
   18.57555580  128.19799805    4.26999998    2.73000002
   18.57861137  132.50300598    4.78000021    2.75000000
   18.58194542  148.42799377    4.90999985    2.67000008
   18.58527756  156.52200317    4.90999985    2.42000008
   18.58833313  216.53399658    4.90999985    2.46000004
   18.59055710  162.16200256    4.90999985    2.09999990
   18.59194565  156.87500000    4.90999985    1.98000002
   18.59527779  137.59500122    4.90999985    2.30999994
   18.60138893  137.59500122    4.90999985    2.57999992
   18.60555649  143.13499451    4.90999985    2.42000008
   18.60861206  135.76300049    4.90999985    2.66000009
   18.61194420  154.76199341    4.90999985    2.57999992
   18.61499977  130.10899353    4.90999985    2.51999998
   18.61833382  127.89600372    4.90999985    2.69000006
   18.62166595  126.08799744    4.03999996    2.75000000
   18.62388992  126.78700256    3.36999989    2.78999996
   18.62527847  122.59600067    2.15000010    2.78999996
   18.62861061  127.37500000    1.80999994    2.78999996
   18.63166618  129.58200073    1.75000000    2.76999998
   18.63500023  126.77200317    1.75000000    2.76999998
   18.63805580  124.86799622    1.75000000    2.76999998
   18.64416695  124.86799622    1.83000004    2.76999998
   18.64833260  127.41300201    1.94000006    2.78999996
   18.65138817  126.65100098    1.98000002    2.78999996
   18.65472221  129.28199768    2.00000000    2.78999996
   18.65722275  128.73899841    2.00000000    2.78999996
   18.65833282  126.61900330    2.00000000    2.78999996
   18.66166687  124.46099854    2.00000000    2.78999996
   18.66472244  129.56199646    2.00000000    2.78999996
   18.66805458  137.79400635    2.00000000    2.78999996
   18.67111015  129.92300415    2.03999996    2.78999996
   18.67444420  125.89600372    2.03999996    2.78999996
   18.67777634  125.04000092    2.03999996    2.78999996
   18.68083191  125.87599945    2.05999994    2.78999996
   18.68694305  125.87599945    2.09999990    2.78999996
   18.69111061  130.73800659    2.11999989    2.78999996
   18.69444275  130.31300354    2.13000011    2.76999998
   18.69749832  129.07899475    2.19000006    2.76999998
   18.70083427  132.65100098    2.36999989    2.78999996
   18.70416832  129.29600525    2.34999990    2.78999996
   18.70722389  128.47500610    2.36999989    2.76999998
   18.71055603  125.79499817    2.42000008    2.76999998
   18.71389008  132.53900146    2.46000004    2.76999998
   18.71694565  125.41899872    2.48000002    2.76999998
   18.72027779  125.91300201    2.48000002    2.76999998
   18.72333336  131.85499573    2.15000010    2.78999996
   18.72389030  130.52600098    2.15000010    2.78999996
   18.72972298  130.52600098    2.05999994    2.76999998
   18.73388863  126.06800079    2.05999994    2.78999996
   18.73722267  129.41099548    2.07999992    2.76999998
   18.74027824  128.77499390    2.07999992    2.76999998
   18.74361229  122.80100250    2.05999994    2.76999998
   18.74694443  125.68599701    2.05999994    2.78999996
   18.75000000  126.28900146    2.07999992    2.76999998
   18.75333405  118.81999969    2.05999994    2.78999996
   18.75666618  129.74899292    2.07999992    2.76999998
   18.75722313  131.62800598    2.07999992    2.78999996
   18.76000023  130.53599548    2.05999994    2.78999996
   18.76333427  123.91000366    2.03999996    2.78999996
   18.76638794  130.68099976    2.05999994    2.78999996
   18.77277756  130.68099976    2.09999990    2.76999998
   18.77666664  127.79699707    2.11999989    2.76999998
   18.78000069  127.79399872    2.09999990    2.76999998
   18.78333282  125.03299713    2.13000011    2.78999996
   18.78638840  129.86399841    4.90999985    2.78999996
   18.78972244  126.37599945    4.90999985    2.69000006
   18.79055595  127.62400055    4.90999985    2.78999996
   18.79333305  136.70700073    4.90999985    2.84999990
   18.79666710   -1.00000000    4.90999985    2.01999998
   18.79972076   -1.00000000    4.90999985    0.70999998
   18.80305481  129.63000488    4.90999985    1.03999996
   18.80638885  159.44299316    4.90999985    2.89000010
   18.80944443  122.67800140    4.90999985    2.00000000
   18.81555557  122.67800140    3.14000010    2.82999992
   18.81972313  128.83500671    2.11999989    2.78999996
   18.82277870  133.90299988    2.03999996    2.78999996
   18.82389069  135.28100586    2.11999989    2.78999996
   18.82638931  136.99200439    1.94000006    2.78999996
   18.82972336  139.63099670    1.91999996    2.78999996
   18.83277893  135.94799805    1.91999996    2.78999996
   18.83611107  128.66900635    1.98000002    2.76999998
   18.83944511  134.08000183    2.01999998    2.76999998
   18.84250069  133.66400146    2.05999994    2.76999998
   18.84583473  134.64900208    2.05999994    2.78999996
   18.84889030  133.48199463    2.03999996    2.76999998
   18.85222244  132.67500305    1.98000002    2.78999996
   18.85833359  132.67500305    2.13000011    2.76999998
   18.86250114  137.22300720    3.23000002    2.78999996
   18.86583328  125.56600189    4.90999985    2.48000002
   18.86888885  131.55099487    4.90999985    2.75000000
   18.87222290  127.49800110    4.90999985    2.76999998
   18.87527847  125.10900116    2.39000010    2.78999996
   18.87861061  131.50599670    2.36999989    2.76999998
   18.88194466  124.19000244    1.98000002    2.78999996
   18.88500023  131.30099487    1.85000002    2.76999998
   18.88833237  135.61000061    1.80999994    2.76999998
   18.89055634  129.47000122    1.76999998    2.76999998
   18.89194489  131.72900391    1.78999996    2.76999998
   18.89527702  134.22200012    1.86000001    2.76999998
   18.90111160  134.22200012    1.83000004    2.76999998
   18.90527725  133.79499817    2.03999996    2.75000000
   18.90861130  128.99600220    2.05999994    2.78999996
   18.91166687  129.15499878    2.15000010    2.78999996
   18.91499901  133.59199524    4.90999985    2.78999996
   18.91833305  128.29800415    4.90999985    2.78999996
   18.92138863  133.93899536    4.42999983    2.78999996
   18.92388916  135.93899536    1.91999996    2.78999996
   18.92499924  131.97700500    1.91999996    2.78999996
   18.92833328  135.72799683    1.89999998    2.78999996
   18.93138885  127.01399994    1.88000000    2.78999996
   18.93472099  128.25500488    1.88000000    2.76999998
   18.93805504  130.86500549    1.88000000    2.78999996
   18.94416618  130.86500549    2.01999998    2.76999998
   18.94805527  130.11399841    2.05999994    2.76999998
   18.95138931  133.52299500    2.15000010    2.76999998
   18.95472336  131.46800232    2.26999998    2.76999998
   18.95722389  124.52700043    2.36999989    2.76999998
   18.95833397  123.62799835    2.36999989    2.76999998
   18.96166801  129.86500549    2.48000002    2.76999998
   18.96472359  125.81700134    2.59999990    2.76999998
   18.96805573  127.54000092    2.71000004    2.76999998
   18.97138977  124.43399811    2.80999994    2.75000000
   18.97444534  126.99099731    2.82999992    2.75000000
   18.97777748  136.38200378    2.84999990    2.75000000
   18.98111153  130.86999512    2.89000010    2.75000000
   18.98694420  130.86999512    2.98000002    2.75000000
   18.99111176  136.08000183    3.00000000    2.76999998
   18.99416733  127.66200256    3.00000000    2.75000000
   18.99749947  129.13999939    3.05999994    2.76999998
   19.00083351  130.35000610    3.03999996    2.75000000
   19.00388908  133.15499878    3.07999992    2.76999998
   19.00722313  130.07400513    3.11999989    2.75000000
   19.01055527  128.90899658    3.18000007    2.75000000
   19.01361084  132.52699280    3.11999989    2.75000000
   19.01694489  134.82200623    3.21000004    2.75000000
   19.02000046  131.29299927    3.43000007    2.75000000
   19.02333260  130.93499756    3.64000010    2.73000002
   19.02416611  129.82099915    3.68000007    2.75000000
   19.02972221  129.82099915    3.72000003    2.75000000
   19.03388786  131.06700134    3.70000005    2.75000000
   19.03722191  135.76400757    3.73000002    2.75000000
   19.04027748  132.56900024    3.82999992    2.73000002
   19.04361153  140.69200134    3.91000009    2.73000002
   19.04694366  126.24800110    3.75000000    2.73000002
   19.04999924  134.99800110    3.53999996    2.75000000
   19.05333328  132.49200439    3.46000004    2.75000000
   19.05666542  136.21600342    3.64000010    2.75000000
   19.05722237  135.00000000    3.72000003    2.75000000
   19.05999947  131.90299988    3.59999990    2.73000002
   19.06333351  130.40400696    3.80999994    2.73000002
   19.06638718  132.94799805    4.11999989    2.71000004
   19.07250023  132.94799805    4.36999989    2.75000000
   19.07666779  130.17900085    4.71999979    2.71000004
   19.08000183  127.36199951    4.82999992    2.71000004
   19.08305550  131.74299622    4.67999983    2.69000006
   19.08638954  128.71200562    4.44999981    2.73000002
   19.08972359  132.00999451    4.13999987    2.73000002
   19.09083366  133.10000610    4.13999987    2.75000000
   19.09305573  126.66899872    3.99000001    2.75000000
   19.09638977  126.77200317    3.78999996    2.75000000
   19.09944534  130.08700562    3.78999996    2.75000000
   19.10277748  125.20899963    3.70000005    2.75000000
   19.10611153  130.68200684    3.66000009    2.75000000
   19.10916710  123.33799744    3.55999994    2.75000000
   19.11555672  123.33799744    3.91000009    2.73000002
   19.11944389  131.35499573    4.26999998    2.69000006
   19.12277794  122.82399750    4.53000021    2.71000004
   19.12416649  131.29400635    4.51000023    2.71000004
   19.12638855  130.05700684    4.42999983    2.71000004
   19.12972260  126.03299713    4.26999998    2.73000002
   19.13305473  123.96099854    4.11999989    2.71000004
   19.13611031  129.31399536    4.40999985    2.71000004
   19.13944435  133.88699341    4.90999985    2.71000004
   19.14249992  129.75999451    4.90999985    2.67000008
   19.14583397  131.03700256    4.90999985    2.67000008
   19.14916611  126.71800232    4.90999985    2.67000008
   19.15222168  115.98600006    4.90999985    2.69000006
   19.17388916   73.04329681    4.90999985    2.73000002
   19.17444420   84.17600250    4.90999985    2.73000002
   19.17777634  137.16200256    4.90999985    2.64000010
   19.18083191  136.37199402    4.90999985    2.73000002
   19.18416595  208.44900513    4.90999985    2.53999996
   19.18722153  134.54299927    4.90999985    2.69000006
   19.19055557  124.05699921    4.90999985    2.75000000
   19.19388771  130.53300476    4.90999985    2.80999994
   19.19694328  126.86100006    4.90999985    2.76999998
   19.20111275  126.86100006    4.90999985    2.73000002
   19.20527840  133.90800476    4.90999985    2.69000006
   19.20694542  136.62800598    4.90999985    2.71000004
   19.20888901  134.60699463    4.90999985    2.71000004
   19.21222305  133.05299377    4.90999985    2.67000008
   19.21527863  139.97000122    4.90999985    2.67000008
   19.21861076  130.23199463    4.90999985    2.67000008
   19.22194481  134.58999634    4.90999985    2.66000009
   19.22500038  128.06100464    4.90999985    2.69000006
   19.22833443  196.33299255    4.90999985    2.57999992
   19.23139000   -1.00000000    4.90999985    1.89999998
   19.23472214   -1.00000000    4.90999985    1.21000004
   19.23805618  154.97099304    4.90999985    0.94000000
   19.24388885  154.97099304    4.90999985    2.05999994
   19.24805641  249.82400513    4.90999985    2.28999996
   19.25138855  147.06100464    4.90999985    2.64000010
   19.25444412  130.24600220    4.90999985    1.58000004
   19.25777817   -1.00000000    4.90999985    1.83000004
   19.26111031   -1.00000000    4.90999985    0.50000000
   19.26416588   -1.00000000    4.90999985    0.69000000
   19.26749992   -1.00000000    4.90999985    1.30999994
   19.27083397   -1.00000000    4.90999985    0.70999998
   19.27388954   -1.00000000    4.90999985    0.31999999
   19.27750015   -1.00000000    4.90999985    0.25000000
   19.28083229   -1.00000000    4.90999985    1.23000002
   19.28694344   -1.00000000    4.90999985    0.69000000
   19.29083252  139.48599243    4.90999985    2.78999996
   19.29416656  131.74499512    4.90999985    2.69000006
   19.29749870  139.24000549    4.90999985    2.75000000
   19.30055428  137.58099365    4.90999985    2.71000004
   19.30388832  124.99800110    4.90999985    2.69000006
   19.30722237  138.37699890    4.90999985    2.71000004
   19.30833244  139.64199829    4.90999985    2.67000008
   19.31055450  139.37300110    4.90999985    2.64000010
   19.31388855  146.75199890    4.90999985    2.67000008
   19.31694603  138.55099487    4.90999985    2.73000002
   19.32027817  144.49400330    4.90999985    2.75000000
   19.32361221  140.05900574    4.90999985    2.75000000
   19.32972336  140.05900574    4.90999985    1.41999996
   19.33388901  134.50300598    4.90999985    2.59999990
   19.33694458  128.25199890    4.90999985    2.75000000
   19.34027863  128.57099915    4.90999985    2.67000008
   19.34166718  132.20599365    4.90999985    2.66000009
   19.34388924  124.33799744    4.90999985    2.61999989
   19.34722328  125.90599823    4.90999985    2.66000009
   19.35027885  127.97699738    4.90999985    2.67000008
   19.35361099  121.06199646    4.90999985    2.69000006
   19.35666656  115.76699829    4.90999985    2.67000008
   19.36000061  124.32900238    4.90999985    2.69000006
   19.36333466  133.80900574    4.90999985    2.64000010
   19.36638832  149.24099731    4.90999985    2.66000009
   19.37249947  149.24099731    4.90999985    2.61999989
   19.37666702  125.62599945    4.90999985    2.71000004
   19.38000107  123.68199921    4.34999990    2.73000002
   19.38305473  130.80200195    4.76000023    2.71000004
   19.38638878  142.38099670    4.90999985    2.73000002
   19.38944435  140.90400696    4.90999985    2.73000002
   19.39277840  132.20899963    4.90999985    2.46000004
   19.39611053  146.42799377    4.90999985    2.64000010
   19.39916611  139.23100281    4.90999985    2.21000004
   19.40250015  149.74699402    4.90999985    2.75000000
   19.40583229  132.13000488    4.90999985    2.42000008
   19.40833282  122.92299652    4.90999985    2.50000000
   19.40944481  129.89900208    4.90999985    2.53999996
   19.41527748  129.89900208    4.90999985    2.75000000
   19.41944313  130.50599670    4.80000019    2.73000002
   19.42277718  132.54899597    3.57999992    2.73000002
   19.42583275  125.93800354    3.07999992    2.73000002
   19.42916679  125.52400208    2.86999989    2.73000002
   19.43249893  120.21099854    2.67000008    2.73000002
   19.43555450  125.67500305    2.53999996    2.73000002
   19.43888855  130.92599487    2.67000008    2.73000002
   19.44166565  126.93000031    2.73000002    2.73000002
   19.44249916  124.43199921    2.73000002    2.73000002
   19.44583321  129.94700623    2.51999998    2.73000002
   19.44888878  130.54699707    2.26999998    2.75000000
   19.45222282  121.96099854    2.26999998    2.75000000
   19.45805550  121.96099854    2.26999998    2.73000002
   19.46222305  126.54599762    2.48000002    2.73000002
   19.46555710  124.84400177    3.03999996    2.73000002
   19.46888924  133.80499268    3.16000009    2.73000002
   19.47194481  134.61599731    3.25000000    2.73000002
   19.47500038  117.39199829    3.28999996    2.73000002
   19.47555542  127.61100006    3.28999996    2.73000002
   19.47888947  126.23400116    3.66000009    2.75000000
   19.48194504  131.05799866    4.90999985    2.75000000
   19.48527718  128.90499878    4.90999985    2.73000002
   19.48833275  128.86999512    4.90999985    2.71000004
   19.49166679  134.04200745    4.90999985    2.66000009
   19.49500084  121.75399780    4.90999985    2.59999990
   19.50111198  121.75399780    4.90999985    2.40000010
   19.50527763  136.79899597    4.90999985    2.34999990
   19.50833321  142.16900635    4.90999985    2.46000004
   19.50888824  141.71499634    4.90999985    2.46000004
   19.51222229  151.79200745    4.90999985    2.25000000
   19.51527786  165.80999756    4.90999985    2.34999990
   19.51861000  184.51400757    4.90999985    1.96000004
   19.52166557  186.43200684    4.90999985    2.46000004
   19.52499962  108.15399933    4.90999985    1.96000004
   19.52833366  175.76899719    4.90999985    2.19000006
   19.53138924  133.28799438    4.90999985    2.59999990
   19.53472137  125.83000183    4.90999985    2.61999989
   19.53805542  130.28999329    4.90999985    2.64000010
   19.54388809  130.28999329    4.90999985    2.64000010
   19.54805565  126.97100067    4.90999985    2.64000010
   19.55111122  125.80400085    4.90999985    2.66000009
   19.55444336  128.63600159    4.90999985    2.66000009
   19.55777740  132.33200073    4.90999985    2.67000008
   19.56083298  132.96800232    4.90999985    2.67000008
   19.56416512  132.96400452    4.90999985    2.67000008
   19.56750107  129.51300049    4.69999981    2.57999992
   19.57055664  129.74099731    4.13999987    2.67000008
   19.57389069  132.22799683    3.91000009    2.69000006
   19.57500076  131.21499634    3.78999996    2.71000004
   19.57750130  125.44300079    3.53999996    2.71000004
   19.58083344  128.91700745    3.14000010    2.71000004
   19.58666801  128.91700745    2.67000008    2.71000004
   19.59083366  121.90399933    2.48000002    2.73000002
   19.59416771  123.39199829    2.30999994    2.71000004
   19.59722328  127.39900208    2.23000002    2.73000002
   19.60055542  122.96299744    2.17000008    2.73000002
   19.60388947  122.24500275    2.05999994    2.73000002
   19.60694504  130.13400269    1.88000000    2.73000002
   19.60833359  133.08399963    1.80999994    2.73000002
   19.61055565  130.17700195    1.76999998    2.71000004
   19.61388969  133.20700073    1.75000000    2.71000004
   19.61694527  133.41000366    1.69000006    2.71000004
   19.62027740  131.57600403    1.69000006    2.73000002
   19.62361145  130.90699768    1.73000002    2.73000002
   19.62972260  130.90699768    1.73000002    2.73000002
   19.63361168  122.31900024    1.69000006    2.73000002
   19.63694382  128.38099670    1.69000006    2.73000002
   19.64027786  130.62800598    1.66999996    2.73000002
   19.64194489  134.80099487    1.63000000    2.73000002
   19.64388847  127.84100342    1.63000000    2.73000002
   19.64722252  127.91899872    1.55999994    2.73000002
   19.65027809  127.88300323    1.55999994    2.73000002
   19.65361023  127.92299652    1.58000004    2.73000002
   19.65666580  126.39199829    1.55999994    2.73000002
   19.65999985  124.36799622    1.55999994    2.73000002
   19.66333389  125.38999939    1.53999996    2.73000002
   19.66638756  120.87699890    1.50000000    2.73000002
   19.67249870  120.87699890    1.55999994    2.73000002
   19.67666626  122.60700226    1.55999994    2.73000002
   19.67972183  130.06500244    1.55999994    2.73000002
   19.68305397  135.19099426    1.55999994    2.73000002
   19.68638802  125.83399963    1.46000004    2.75000000
   19.68944359  130.64199829    1.51999998    2.73000002
   19.69277763  130.72900391    1.48000002    2.75000000
   19.69583321  129.01499939    1.51999998    2.73000002
   19.69916534  132.89999390    1.71000004    2.73000002
   19.70250130  124.70800018    1.80999994    2.75000000
   19.70555687  126.66600037    1.85000002    2.73000002
   19.70861244  130.65400696    1.86000001    2.73000002
   19.70916748  129.75000000    1.86000001    2.73000002
   19.71527863  129.75000000    1.86000001    2.73000002
   19.71944427  125.69499969    1.83000004    2.73000002
   19.72277832  125.58599854    1.78999996    2.73000002
   19.72583389  127.93800354    1.78999996    2.71000004
   19.72916794  125.94899750    1.76999998    2.71000004
   19.73222351  124.82299805    1.76999998    2.71000004
   19.73555565  128.47700500    1.73000002    2.71000004
   19.73888969  128.76100159    1.75000000    2.73000002
   19.74194527  126.70600128    1.69000006    2.71000004
   19.74250031  136.02200317    1.69000006    2.71000004
   19.74583435  127.15399933    1.64999998    2.71000004
   19.74888992  129.69900513    1.60000002    2.73000002
   19.75222206  132.32000732    1.55999994    2.73000002
   19.75805473  132.32000732    1.46000004    2.73000002
   19.76222229  128.85699463    1.39999998    2.73000002
   19.76555634  131.70399475    1.34000003    2.71000004
   19.76861000  131.13000488    1.36000001    2.71000004
   19.77194405  129.99200439    1.36000001    2.71000004
   19.77527809  128.35600281    1.39999998    2.73000002
   19.77555466  130.22900391    1.39999998    2.73000002
   19.77888870  130.98300171    1.41999996    2.73000002
   19.78222275  130.05000305    1.41999996    2.73000002
   19.78527641  128.28500366    1.44000006    2.73000002
   19.78861046  127.95500183    1.44000006    2.73000002
   19.79194450  126.70700073    1.44000006    2.73000002
   19.79500008  131.88900757    1.50000000    2.71000004
   19.80111122  131.88900757    1.53999996    2.71000004
   19.80499840  139.99899292    1.58000004    2.73000002
   19.80833244  135.94700623    1.58000004    2.71000004
   19.80888748  127.89800262    1.58000004    2.71000004
   19.81194305  130.68299866    1.55999994    2.71000004
   19.81527710  130.48100281    1.53999996    2.71000004
   19.81833458  130.46699524    1.50000000    2.71000004
   19.82166672  130.51800537    1.50000000    2.71000004
   19.82500076  129.57600403    1.46000004    2.71000004
   19.82805634  130.05099487    1.46000004    2.71000004
   19.83139038  134.04299927    1.44000006    2.71000004
   19.83444595  132.51699829    1.41999996    2.71000004
   19.83777809  129.04499817    1.39999998    2.71000004
   19.84388924  129.04499817    1.39999998    2.71000004
   19.84805679  125.69499969    1.38000000    2.71000004
   19.85111237  129.64599609    1.38000000    2.71000004
   19.85444450  130.55599976    1.36000001    2.71000004
   19.85777855  126.23000336    1.28999996    2.73000002
   19.86083412  129.28700256    1.28999996    2.73000002
   19.86416626  133.13800049    1.19000006    2.71000004
   19.86722183  132.83900452    1.11000001    2.71000004
   19.87055588  129.43699646    1.07000005    2.73000002
   19.87388992  134.68299866    1.07000005    2.73000002
   19.87555504  133.56199646    1.07000005    2.73000002
   19.87750053  137.58799744    1.07000005    2.73000002
   19.88083267  129.74299622    1.07000005    2.73000002
   19.88666725  129.74299622    2.07999992    2.75000000
   19.89083290  133.86099243    2.71000004    2.67000008
   19.89416695  133.05799866    1.60000002    2.73000002
   19.89722252  125.58899689    1.46000004    2.73000002
   19.90055466  130.67599487    1.46000004    2.73000002
   19.90388870  129.35600281    4.90999985    2.75000000
   19.90694427  134.32499695    4.90999985    2.78999996
   19.90916634  132.61199951    4.90999985    2.80999994
   19.91055489  154.85800171    4.90999985    2.75000000
   19.91388893  105.35800171    4.90999985    2.36999989
   19.91722107   -1.00000000    4.90999985    1.33000004
   19.92027664   -1.00000000   -1.00000000   -1.00000000
   19.92361069  183.55299377    4.90999985    0.94000000
   19.92944336  183.55299377    4.90999985    2.09999990
   19.93361092   -1.00000000    4.90999985    0.17000000
   19.93694305   -1.00000000    4.90999985    0.17000000
   19.94027710   -1.00000000    4.90999985    0.31999999
   19.94361115   -1.00000000    4.90999985    0.56999999
   19.94694328  121.77400208    4.90999985    0.61000001
   19.95000076  219.89199829    4.90999985    1.94000006
   19.95333481  162.67199707    4.90999985    1.48000002
   19.95666695  177.91700745    4.90999985    2.53999996
   19.95972252  132.33299255    4.90999985    2.48000002
   19.96305656  135.87199402    4.90999985    2.78999996
   19.96611214  142.06599426    3.82999992    2.76999998
   19.97249985  142.06599426    2.78999996    2.73000002
   19.97666740  138.98599243    3.18000007    2.73000002
   19.97972298  127.74500275    3.86999989    2.73000002
   19.98305511  133.58700562    4.53000021    2.71000004
   19.98611069  132.50799561    4.84999990    2.73000002
   19.98944473  132.70700073    4.90999985    2.71000004
   19.99277878  131.52400208    4.90999985    2.71000004
   19.99583435  128.17900085    4.36999989    2.67000008
   19.99916649  131.28500366    3.59999990    2.71000004
   20.00250053  136.77200317    1.69000006    2.69000006
   20.00555611  130.96800232    1.64999998    2.69000006
   20.00888824  131.00500488    2.03999996    2.69000006
   20.00944519  131.36900330    2.03999996    2.69000006
   20.01527786  131.36900330    4.90999985    2.80999994
   20.01944351   -1.00000000    4.90999985    2.15000010
   20.02249908  156.37600708    4.90999985    0.81999999
   20.02583313  155.02900696    4.90999985    1.89999998
   20.02916718  166.97500610    4.90999985    2.23000002
   20.03222275  114.61499786    4.90999985    1.26999998
   20.03555489   -1.00000000    4.90999985    0.67000002
   20.03861046   -1.00000000    4.90999985    0.41999999
   20.04194450  120.64199829    4.90999985    1.53999996
   20.04277802  129.63999939    4.90999985    2.13000011
   20.04555511  147.44099426    4.90999985    2.82999992
   20.04888916  136.30999756    4.90999985    2.80999994
   20.05222130  136.70199585    4.90999985    2.78999996
   20.05805397  136.70199585    4.90999985    2.48000002
   20.06222153  132.90899658    3.59999990    2.34999990
   20.06555557  140.64399719    3.36999989    2.69000006
   20.06861115  136.91999817    1.60000002    2.69000006
   20.07194519  140.95199585    1.09000003    2.69000006
   20.07500076  140.32299805    1.03999996    2.67000008
   20.07611275  137.68299866    1.03999996    2.69000006
   20.07861137  139.77400208    1.03999996    2.67000008
   20.08194542  131.52999878    1.03999996    2.67000008
   20.08527756  125.62999725    1.07000005    2.69000006
   20.08833313  141.89199829    1.21000004    2.67000008
   20.09166718  130.63099670    1.11000001    2.67000008
   20.09472275  130.03700256    1.09000003    2.69000006
   20.10083389  130.03700256    1.07000005    2.67000008
   20.10499954  132.28999329    1.11000001    2.69000006
   20.10833359  135.54200745    1.14999998    2.69000006
   20.10944557  127.61299896    1.14999998    2.69000006
   20.11166763  131.42500305    1.30999994    2.69000006
   20.11499977  139.01199341    1.41999996    2.69000006
   20.11833382  143.04499817    1.41999996    2.69000006
   20.12138939  134.21200562    1.50000000    2.67000008
   20.12472153  138.48199463    1.60000002    2.69000006
   20.12805557  143.62300110    1.60000002    2.69000006
   20.13111115  135.15899658    1.55999994    2.67000008
   20.13444519  139.20799255    1.51999998    2.67000008
   20.13750076  131.77699280    1.51999998    2.67000008
   20.14361191  131.77699280    1.51999998    2.69000006
   20.14777756  138.66400146    1.46000004    2.67000008
   20.15138817  136.72099304    1.41999996    2.67000008
   20.15444374  131.16799927    1.34000003    2.67000008
   20.15777779  134.75300598    1.30999994    2.67000008
   20.16083336  136.48199463    1.30999994    2.67000008
   20.16416550  142.41900635    1.30999994    2.67000008
   20.16749954  135.36999512    1.30999994    2.67000008
   20.17055511  135.36500549    1.33000004    2.69000006
   20.17388916  128.07600403    1.33000004    2.69000006
   20.19111061  137.56900024    1.21000004    2.67000008
   20.19499969  137.56900024    1.19000006    2.67000008
   20.19916534  143.84899902    1.19000006    2.67000008
   20.20250130  135.17900085    1.19000006    2.67000008
   20.20583344  137.23100281    1.23000002    2.67000008
   20.20888901  133.70300293    1.28999996    2.67000008
   20.21222305  133.36099243    1.28999996    2.67000008
   20.21527863  136.86799622    1.34000003    2.67000008
   20.21861076  132.09100342    1.41999996    2.67000008
   20.22194481  134.42999268    1.55999994    2.67000008
   20.22416687  136.16400146    1.66999996    2.67000008
   20.22555542  130.33700562    1.66999996    2.67000008
   20.22888947  134.80000305    1.78999996    2.66000009
   20.23222351  132.52299500    1.80999994    2.67000008
   20.23805618  132.52299500    1.80999994    2.66000009
   20.24222183  134.97300720    1.83000004    2.67000008
   20.24527740  141.38900757    1.85000002    2.67000008
   20.24861145  143.57499695    1.85000002    2.67000008
   20.25166702  141.91700745    2.21000004    2.66000009
   20.25499916  141.93499756    2.32999992    2.66000009
   20.25777817  140.29499817    2.40000010    2.66000009
   20.25861168  145.20100403    2.44000006    2.66000009
   20.26194382  143.25100708    2.55999994    2.66000009
   20.26499939  138.46800232    2.69000006    2.66000009
   20.26833344  147.22099304    2.67000008    2.66000009
   20.27166557  141.42100525    2.75000000    2.67000008
   20.27472115  134.74699402    2.96000004    2.66000009
   20.28083229  134.74699402    2.78999996    2.66000009
   20.28499985  137.61900330    2.51999998    2.66000009
   20.28805542  132.09100342    2.28999996    2.66000009
   20.29111099  130.29899597    2.23000002    2.66000009
   20.29166603  129.30700684    2.23000002    2.66000009
   20.29500008  135.14999390    2.23000002    2.66000009
   20.29805565  134.12899780    2.21000004    2.66000009
   20.30138779  139.64199829    2.21000004    2.66000009
   20.30472183  138.18099976    2.34999990    2.66000009
   20.30777740  130.58799744    2.69000006    2.66000009
   20.31110954  140.08900452    3.34999990    2.64000010
   20.31444359  132.75900269    3.03999996    2.64000010
   20.31750107  142.44700623    3.03999996    2.64000010
   20.32361221  142.44700623    4.13999987    2.64000010
   20.32777786  133.93200684    4.46999979    2.61999989
   20.33111191  139.75199890    4.15999985    2.61999989
   20.33416748  117.28299713    4.40999985    2.61999989
   20.33750153  128.31799316    4.90999985    2.61999989
   20.34055710  129.54100037    4.90999985    2.59999990
   20.34388924  122.83100128    4.90999985    2.57999992
   20.34722328  115.23999786    4.90999985    2.59999990
   20.35027885  126.76300049    4.90999985    2.59999990
   20.35361099  135.58799744    4.90999985    2.57999992
   20.35694504  135.26499939    4.90999985    2.59999990
   20.35861206  122.88200378    4.90999985    2.61999989
   20.36055565  134.53300476    4.32999992    2.64000010
   20.36638832  134.53300476    2.96000004    2.64000010
   20.37055588  134.79100037    2.51999998    2.64000010
   20.37388992  135.99800110    2.30999994    2.64000010
   20.37722206  119.10600281    2.26999998    2.64000010
   20.38027763  141.16700745    2.21000004    2.64000010
   20.38361168  138.09700012    2.07999992    2.64000010
   20.38666725  132.48300171    1.89999998    2.64000010
   20.38999939  131.68800354    1.86000001    2.64000010
   20.39194489  139.02999878    1.55999994    2.64000010
   20.39361191  138.70700073    1.51999998    2.64000010
   20.39666748  129.65299988    1.50000000    2.64000010
   20.39999962  131.96000671    1.48000002    2.64000010
   20.40333366  132.96600342    1.48000002    2.64000010
   20.40944481  132.96600342    1.55999994    2.64000010
   20.41361046  141.60699463    1.55999994    2.64000010
   20.41666603  145.40899658    1.51999998    2.66000009
   20.42000008  115.34899902    1.51999998    2.66000009
   20.42305565  138.41999817    1.41999996    2.64000010
   20.42555428  128.52499390    1.41999996    2.64000010
   20.42694473  137.11000061    1.41999996    2.64000010
   20.43027687  123.37799835    1.53999996    2.64000010
   20.43333244  125.68499756    1.60000002    2.64000010
   20.43666649  130.11399841    1.53999996    2.64000010
   20.43972206  125.03099823    1.58000004    2.64000010
   20.44305420  124.02700043    1.58000004    2.64000010
   20.44638824  137.69099426    1.51999998    2.64000010
   20.45222282  137.69099426    1.38000000    2.64000010
   20.45639038  130.41400146    1.34000003    2.64000010
   20.45888901  124.17800140    1.34000003    2.64000010
   20.46000099  120.01399994    1.33000004    2.64000010
   20.46305656  143.65800476    1.33000004    2.64000010
   20.46638870  136.04800415    1.33000004    2.64000010
   20.46944427  142.39399719    1.33000004    2.64000010
   20.47277832  136.88900757    1.33000004    2.64000010
   20.47611237  130.74299622    1.28999996    2.64000010
   20.47916794  135.41200256    1.26999998    2.64000010
   20.48250008  135.83799744    1.26999998    2.64000010
   20.48555565  130.90499878    1.26999998    2.64000010
   20.48888969  134.84599304    1.23000002    2.64000010
   20.49500084  134.84599304    1.25000000    2.61999989
   20.49916649  131.75799561    1.25000000    2.61999989
   20.50250053  134.66600037    1.25000000    2.61999989
   20.50555611  137.97599792    1.25000000    2.61999989
   20.50888824  132.92799377    1.25000000    2.61999989
   20.51222229  135.87199402    1.25000000    2.61999989
   20.51527786  132.11099243    1.25000000    2.61999989
   20.51861000  136.19299316    1.26999998    2.61999989
   20.52194405  129.32400513    1.28999996    2.61999989
   20.52499962  138.36000061    1.25000000    2.61999989
   20.52611160  136.45700073    1.25000000    2.61999989
   20.52888870  137.51199341    1.25000000    2.61999989
   20.53194427  141.69999695    1.26999998    2.61999989
   20.53777695  141.69999695    1.36000001    2.61999989
   20.54194450  132.09300232    1.39999998    2.61999989
   20.54527664  134.30599976    1.41999996    2.61999989
   20.54861069  134.50399780    1.38000000    2.61999989
   20.55166626  131.69299316    1.38000000    2.61999989
   20.55499840  135.78300476    1.34000003    2.61999989
   20.55805397  129.72999573    1.33000004    2.61999989
   20.55916595  129.38299561    1.33000004    2.61999989
   20.56166649  128.48699951    1.25000000    2.61999989
   20.56499863  138.07000732    1.19000006    2.61999989
   20.56805611  134.24600220    1.19000006    2.61999989
   20.57139015  136.22000122    1.19000006    2.61999989
   20.57472229  133.98300171    1.16999996    2.64000010
   20.58083344  133.98300171    1.14999998    2.61999989
   20.58472252  141.44700623    1.13000000    2.61999989
   20.58805656  131.89399719    1.09000003    2.64000010
   20.59138870  120.61399841    1.07000005    2.61999989
   20.59277916  110.09799957    1.07000005    2.61999989
   20.59500122  137.39199829    1.05999994    2.64000010
   20.59833336  125.25599670    1.03999996    2.61999989
   20.60138893  132.19799805    1.03999996    2.61999989
   20.60472298  139.89300537    1.03999996    2.61999989
   20.60805511  136.01899719    1.05999994    2.61999989
   20.61111069  128.13000488    1.05999994    2.61999989
   20.61444473  131.27200317    1.05999994    2.61999989
   20.61777878  136.46000671    1.03999996    2.61999989
   20.62361145  136.46000671    1.03999996    2.61999989
   20.62777710  136.99499512    1.05999994    2.61999989
   20.63083267  129.63600159    1.05999994    2.61999989
   20.63416672  137.84700012    1.07000005    2.61999989
   20.63750076  136.90699768    1.07000005    2.61999989
   20.64055634  134.52799988    1.07000005    2.61999989
   20.64388847  133.35899353    1.07000005    2.61999989
   20.64722252  133.75900269    1.07000005    2.61999989
   20.65027809  134.97599792    1.07000005    2.59999990
   20.65361023  133.38400269    1.05999994    2.61999989
   20.65694427  127.55100250    1.03999996    2.61999989
   20.65944481  132.01400757    1.03999996    2.61999989
   20.66055489  124.43399811    1.03999996    2.59999990
   20.66638756  124.43399811    1.09000003    2.59999990
   20.67055511  124.13300323    1.07000005    2.59999990
   20.67388916  129.09500122    1.09000003    2.59999990
   20.67694473  132.89700317    1.11000001    2.61999989
   20.68027687  129.81199646    1.14999998    2.59999990
   20.68361092  129.45500183    1.19000006    2.59999990
   20.68666649  128.50799561    1.21000004    2.59999990
   20.68999863  128.64399719    1.21000004    2.59999990
   20.69277763  129.82800293    1.28999996    2.59999990
   20.69361115  135.61799622    1.28999996    2.59999990
   20.69666672  137.52400208    1.34000003    2.59999990
   20.70000076  137.43400574    1.38000000    2.59999990
   20.70333481  135.49800110    1.48000002    2.59999990
   20.70916748  135.49800110    1.73000002    2.57999992
   20.71333504  135.89999390    2.32999992    2.59999990
   20.71666718  138.37600708    2.98000002    2.59999990
   20.71972275  135.42599487    3.53999996    2.59999990
   20.72305679  133.59399414    4.01999998    2.59999990
   20.72611237  134.65400696    4.84999990    2.55999994
   20.72666740  144.94000244    4.90999985    2.50000000
   20.72972298  140.16600037    4.90999985    2.57999992
   20.73305511  139.32699585    4.90999985    2.55999994
   20.73638916  140.09800720    4.90999985    2.57999992
   20.73944473  162.93099976    4.90999985    2.42000008
   20.74277878  162.60699463    4.90999985    2.00000000
   20.74611092  160.30000305    4.90999985    2.42000008
   20.75222206  160.30000305    4.90999985    2.51999998
   20.75611115  157.44500732    4.90999985    2.32999992
   20.75944519  142.14399719    4.90999985    2.30999994
   20.76000023  142.82200623    4.90999985    2.30999994
   20.76333427  150.33999634    4.90999985    2.42000008
   20.76638794  133.18499756    4.90999985    2.34999990
   20.76972198  159.70700073    4.90999985    2.50000000
   20.77277756  140.77799988    4.90999985    2.30999994
   20.77611160  153.36199951    4.90999985    2.42000008
   20.77944374  144.16799927    4.90999985    2.34999990
   20.78249931  129.25799561    4.90999985    2.39000010
   20.78583336  236.32099915    4.90999985    2.21000004
   20.78916550  156.43200684    4.90999985    2.09999990
   20.79500008  156.43200684    4.90999985    2.28999996
   20.79916573  174.28100586    4.90999985    2.42000008
   20.80222130  253.42999268    4.90999985    2.13000011
   20.80555534  253.90100098    4.90999985    1.94000006
   20.80888748  225.58399963    4.90999985    1.98000002
   20.81194305  157.30999756    4.90999985    2.17000008
   20.81527710  161.62600708    4.90999985    2.23000002
   20.81833458  152.18200684    4.90999985    2.17000008
   20.82166672  143.68899536    4.90999985    2.36999989
   20.82500076  149.91000366    4.90999985    2.51999998
   20.82611275  136.23399353    4.90999985    2.51999998
   20.82861137  137.57699585    4.90999985    2.51999998
   20.83166695  147.49899292    4.90999985    2.53999996
   20.83777809  147.49899292    4.90999985    2.48000002
   20.84194565  138.79400635    4.90999985    2.44000006
   20.84527779  150.03300476    4.80999994    2.53999996
   20.84861183  142.80999756    3.86999989    2.48000002
   20.85166740  138.41099548    3.59999990    2.51999998
   20.85499954  135.66700745    3.20000005    2.53999996
   20.85805511  138.64999390    2.80999994    2.55999994
   20.85972214  139.89700317    2.80999994    2.53999996
   20.86166763  131.87500000    2.91000009    2.53999996
   20.86499977  138.41000366    3.03999996    2.53999996
   20.86805534  135.99200439    3.20000005    2.53999996
   20.87138939  147.14300537    3.28999996    2.53999996
   20.87472153  141.52400208    3.43000007    2.51999998
   20.88055611  141.52400208    3.45000005    2.53999996
   20.88472176  137.08599854    3.41000009    2.53999996
   20.88805580  128.69000244    3.36999989    2.53999996
   20.89111137  141.26499939    3.30999994    2.53999996
   20.89305496  132.41799927    3.26999998    2.53999996
   20.89500046  115.59600067    3.25000000    2.53999996
   20.89805603  133.69599915    3.11999989    2.53999996
   20.90138817  135.34899902    3.01999998    2.53999996
   20.90472221  138.65899658    2.96000004    2.53999996
   20.90777779  138.44799805    2.89000010    2.53999996
   20.91110992  139.90699768    2.82999992    2.53999996
   20.91416550  138.91700745    2.78999996    2.53999996
   20.91749954  139.69200134    2.71000004    2.51999998
   20.92361069  139.69200134    2.50000000    2.53999996
   20.92749977  139.33200073    2.40000010    2.53999996
   20.93083191  141.81199646    2.32999992    2.53999996
   20.93416595  138.91799927    2.26999998    2.53999996
   20.93722153  141.93600464    2.23000002    2.53999996
   20.94055557  138.92300415    2.21000004    2.53999996
   20.94388771  141.68499756    2.13000011    2.51999998
   20.94722176  137.30900574    2.11999989    2.53999996
   20.95027924  161.26300049    2.05999994    2.53999996
   20.95361137  183.71699524    2.05999994    2.53999996
   20.95694542  183.18200684    2.07999992    2.51999998
   20.95972252  183.32299805    2.07999992    2.51999998
   20.96055603  203.80999756    2.09999990    2.51999998
   20.96638870  203.80999756    2.11999989    2.51999998
   20.97055626  260.46301270    2.09999990    2.51999998
   20.97361183  233.61900330    2.11999989    2.51999998
   20.97694588  232.05700684    2.26999998    2.51999998
   20.98027802  117.87799835    2.39000010    2.51999998
   20.98333359   52.79290009    2.44000006    2.51999998
   20.98666763   -1.00000000    2.48000002    2.51999998
   20.98972321   -1.00000000    2.42000008    2.51999998
   20.99361229   -1.00000000    2.36999989    2.50000000
   20.99666786   -1.00000000    2.34999990    2.51999998
   21.00000000   -1.00000000    2.32999992    2.51999998
   21.00305557   -1.00000000    2.32999992    2.51999998
   21.01333427   -1.00000000    2.25000000    2.50000000
   21.01638794   -1.00000000    2.21000004    2.50000000
   21.01972198   -1.00000000    2.17000008    2.50000000
   21.02305603   -1.00000000    2.13000011    2.50000000
   21.02611160   -1.00000000    2.11999989    2.50000000
   21.02972221   -1.00000000    2.07999992    2.50000000
   21.03305435   -1.00000000    2.03999996    2.50000000
   21.03638840   -1.00000000    2.00000000    2.51999998
   21.03944397   -1.00000000    1.96000004    2.51999998
   21.04277802   -1.00000000    1.94000006    2.50000000
   21.04611015   -1.00000000    1.94000006    2.50000000
   21.05638885   -1.00000000    1.83000004    2.50000000
   21.05972099   -1.00000000    1.80999994    2.50000000
   21.06333351   -1.00000000    1.80999994    2.50000000
   21.06666756   -1.00000000    1.80999994    2.50000000
   21.06972313   -1.00000000    1.78999996    2.50000000
   21.07305717   -1.00000000    1.88000000    2.50000000
   21.07638931   -1.00000000    1.88000000    2.50000000
   21.07944489   -1.00000000    1.89999998    2.50000000
   21.08277893   -1.00000000    1.85000002    2.50000000
   21.08583450   -1.00000000    1.78999996    2.50000000
   21.08916664   -1.00000000    1.73000002    2.48000002
   21.09889030   -1.00000000    1.61000001    2.48000002
   21.10222244   -1.00000000    1.58000004    2.50000000
   21.10527802   -1.00000000    1.60000002    2.50000000
   21.10861206   -1.00000000    1.60000002    2.50000000
   21.11194420   -1.00000000    1.60000002    2.48000002
   21.11499977   -1.00000000    1.64999998    2.48000002
   21.11833382   -1.00000000    1.66999996    2.48000002
   21.12166595   -1.00000000    1.69000006    2.48000002
   21.12472153   -1.00000000    1.69000006    2.48000002
   21.12833405   -1.00000000    1.66999996    2.48000002
   21.13166618   -1.00000000    1.71000004    2.48000002
   21.14166641   -1.00000000    1.80999994    2.48000002
   21.14500046   -1.00000000    1.89999998    2.48000002
   21.14833260   -1.00000000    1.96000004    2.46000004
   21.15138817   -1.00000000    1.98000002    2.46000004
   21.15472221   -1.00000000    2.01999998    2.46000004
   21.15805435   -1.00000000    2.09999990    2.46000004
   21.16138840   -1.00000000    2.05999994    2.46000004
   21.16472244   -1.00000000    1.96000004    2.46000004
   21.16777802   -1.00000000    1.86000001    2.46000004
   21.17111015   -1.00000000    1.78999996    2.46000004
   21.17444420   -1.00000000    1.78999996    2.48000002
   21.18472099   -1.00000000    1.83000004    2.46000004
   21.18777657   -1.00000000    1.85000002    2.46000004
   21.19111061   -1.00000000    1.85000002    2.44000006
   21.21083450   -1.00000000    2.03999996    2.46000004
   21.21416664   -1.00000000    2.00000000    2.46000004
   21.21750069   -1.00000000    1.91999996    2.46000004
   21.22750092   -1.00000000    1.73000002    2.46000004
   21.23083305   -1.00000000    1.76999998    2.46000004
   21.23416710   -1.00000000    1.75000000    2.46000004
   21.23722267   -1.00000000    1.75000000    2.46000004
   21.24055672   -1.00000000    1.76999998    2.44000006
   21.24388885   -1.00000000    1.76999998    2.44000006
   21.24722290   -1.00000000    1.75000000    2.44000006
   21.25027847   -1.00000000    1.75000000    2.46000004
   21.25361061   -1.00000000    1.78999996    2.44000006
   21.25694466   -1.00000000    1.85000002    2.44000006
   21.26000023   -1.00000000    1.89999998    2.44000006
   21.27055550   -1.00000000    2.28999996    2.42000008
   21.27361107   -1.00000000    2.36999989    2.42000008
   21.27722168   -1.00000000    2.59999990    2.42000008
