    HOUR (UT)   FLARE FACTOR    SKY TESTER    SUN TESTER
   10.61166668   -1.00000000   -1.00000000   -1.00000000
   10.67694473  123.94400024    0.86000001    2.07999992
   10.68027782  119.58000183    0.86000001    2.07999992
   10.68361092  127.38800049    0.86000001    2.07999992
   10.68666649  117.40200043    0.86000001    2.07999992
   10.69000053  118.33899689    0.83999997    2.07999992
   10.69333363  120.25000000    0.86000001    2.09999990
   10.69722271  120.25000000    0.83999997    2.09999990
   10.70138836  127.65599823    0.83999997    2.09999990
   10.70472240  119.37100220    0.83999997    2.07999992
   10.70777798  124.70500183    0.83999997    2.09999990
   10.71027756  115.76300049    0.83999997    2.09999990
   10.71166611  123.09100342    0.83999997    2.09999990
   10.71472168  121.87999725    0.81999999    2.09999990
   10.71805477  121.97399902    0.81999999    2.09999990
   10.72138882  122.00800323    0.83999997    2.11999989
   10.72444439  126.81700134    0.83999997    2.11999989
   10.72777748  128.16999817    0.83999997    2.11999989
   10.73111057  127.03299713    0.83999997    2.11999989
   10.73416710  127.13600159    0.83999997    2.11999989
   10.74027824  127.13600159    0.83999997    2.13000011
   10.74416733  128.28199768    0.83999997    2.13000011
   10.74750042  124.96399689    0.86000001    2.13000011
   10.75083351  113.34799957    0.86000001    2.13000011
   10.75388908  121.65899658    0.86000001    2.13000011
   10.75722218  130.46899414    0.88000000    2.13000011
   10.76055527  128.33500671    0.89999998    2.13000011
   10.76361084  119.68599701    0.88000000    2.13000011
   10.76694393  120.51899719    0.88000000    2.15000010
   10.76999950  124.76599884    0.88000000    2.15000010
   10.77333355  129.55799866    0.88000000    2.15000010
   10.77666664  116.78600311    0.88000000    2.15000010
   10.77694416  118.77500153    0.88000000    2.15000010
   10.78305531  118.77500153    0.88000000    2.15000010
   10.78722286  117.99700165    0.86000001    2.15000010
   10.79027843  118.36100006    0.86000001    2.15000010
   10.79361153  118.42700195    0.86000001    2.15000010
   10.79694462  116.62899780    0.88000000    2.15000010
   10.80000019  118.44899750    0.86000001    2.15000010
   10.80333328  112.77999878    0.86000001    2.17000008
   10.80638885  114.72000122    0.83999997    2.17000008
   10.80972195  119.65799713    0.81999999    2.17000008
   10.81027794  121.06099701    0.81999999    2.17000008
   10.81333351  116.10399628    0.81999999    2.17000008
   10.81666660  122.01599884    0.81999999    2.17000008
   10.81972218  114.27500153    0.81999999    2.19000006
   10.82583332  114.27500153    0.81999999    2.19000006
   10.82999992  113.83100128    0.80000001    2.19000006
   10.83333302  116.47899628    0.80000001    2.19000006
   10.83638859  112.68699646    0.79000002    2.19000006
   10.83972168  114.81199646    0.79000002    2.19000006
   10.84277725  114.78900146    0.79000002    2.19000006
   10.84361076  115.15899658    0.79000002    2.19000006
   10.84638882  112.68399811    0.79000002    2.21000004
   10.84972191  116.37599945    0.79000002    2.21000004
   10.85277843  112.47899628    0.76999998    2.21000004
   10.85611153  114.79100037    0.76999998    2.21000004
   10.85944462  114.16899872    0.75000000    2.21000004
   10.86250019  115.11399841    0.75000000    2.21000004
   10.86861134  115.11399841    0.75000000    2.21000004
   10.87277794  117.03299713    0.73000002    2.21000004
   10.87611103  118.79399872    0.73000002    2.23000002
   10.87694454  110.94599915    0.73000002    2.23000002
   10.87972260  109.79499817    0.73000002    2.23000002
   10.88305569  119.06099701    0.73000002    2.23000002
   10.88611126  119.27799988    0.73000002    2.23000002
   10.88944435  111.67199707    0.73000002    2.23000002
   10.89277744  110.30500031    0.73000002    2.23000002
   10.89583302  113.81700134    0.73000002    2.23000002
   10.89916611  110.80500031    0.73000002    2.23000002
   10.90249920  111.06800079    0.70999998    2.25000000
   10.90555477  110.34300232    0.70999998    2.23000002
   10.91166592  110.34300232    0.70999998    2.25000000
   10.91555500  106.35900116    0.69000000    2.25000000
   10.91888905  106.73400116    0.69000000    2.25000000
   10.92222214  109.94000244    0.69000000    2.25000000
   10.92527771  110.56800079    0.67000002    2.26999998
   10.92861176  115.08599854    0.67000002    2.26999998
   10.93166733  112.73400116    0.69000000    2.26999998
   10.93500042  110.91799927    0.67000002    2.25000000
   10.93833351  114.10800171    0.67000002    2.26999998
   10.94138908  112.81800079    0.67000002    2.26999998
   10.94388866  111.33699799    0.67000002    2.26999998
   10.94499969  111.98600006    0.67000002    2.26999998
   10.94833374  113.08200073    0.64999998    2.28999996
   10.95444393  113.08200073    0.64999998    2.28999996
   10.95861053  115.08100128    0.64999998    2.28999996
   10.96166611  118.18900299    0.64999998    2.28999996
   10.96500015  109.45400238    0.64999998    2.28999996
   10.96833324  121.02799988    0.63000000    2.28999996
   10.97138882  113.80500031    0.63000000    2.28999996
   10.97472191  110.50299835    0.63000000    2.28999996
   10.97722149  116.77799988    0.63000000    2.28999996
   10.97833252  114.04799652    0.63000000    2.28999996
   10.98166656  114.67299652    0.63000000    2.28999996
   10.98472214  108.82800293    0.63000000    2.30999994
   10.98805618  113.56199646    0.61000001    2.28999996
   10.99138927  114.63099670    0.61000001    2.30999994
   10.99722290  114.63099670    0.63000000    2.30999994
   11.00138855  113.03500366    0.61000001    2.30999994
   11.00472260  104.23600006    0.61000001    2.30999994
   11.00777817  118.04599762    0.61000001    2.30999994
   11.01055527  113.12799835    0.61000001    2.32999992
   11.01138878  107.38099670    0.61000001    2.30999994
   11.01472187  103.95999908    0.58999997    2.30999994
   11.01805496  114.13500214    0.58999997    2.32999992
   11.02111053  113.53399658    0.58999997    2.32999992
   11.02444458  108.63800049    0.58999997    2.32999992
   11.02777767  115.77700043    0.58999997    2.32999992
   11.03083324  118.26599884    0.58999997    2.32999992
   11.03416729  115.63300323    0.58999997    2.32999992
   11.04000092  115.63300323    0.56999999    2.32999992
   11.04416752  116.81199646    0.56999999    2.32999992
   11.04750061  116.21199799    0.56999999    2.32999992
   11.05055618  116.38899994    0.55000001    2.34999990
   11.05388927  114.64700317    0.55000001    2.34999990
   11.05722237  116.45800018    0.56999999    2.34999990
   11.06027794  114.27899933    0.55000001    2.34999990
   11.06361103  112.12000275    0.55000001    2.36999989
   11.06694412  109.22399902    0.55000001    2.34999990
   11.06999969  118.27600098    0.52999997    2.34999990
   11.07333374  108.34799957    0.52999997    2.34999990
   11.07638836  107.68900299    0.52999997    2.36999989
   11.07722187  115.19899750    0.52999997    2.36999989
   11.08305550  115.19899750    0.52999997    2.36999989
   11.08694458  109.67199707    0.52999997    2.36999989
   11.09027767  108.55500031    0.52999997    2.36999989
   11.09361076  109.57099915    0.52999997    2.36999989
   11.09666634  111.82099915    0.52999997    2.36999989
   11.10000038  114.20099640    0.51999998    2.36999989
   11.10333347  111.59999847    0.51999998    2.36999989
   11.10638905  109.71499634    0.51999998    2.36999989
   11.10972214  110.41999817    0.51999998    2.36999989
   11.11055565  112.25199890    0.52999997    2.36999989
   11.11305618  113.29199982    0.52999997    2.36999989
   11.11638927  113.45999908    0.52999997    2.39000010
   11.11972237  112.82199860    0.51999998    2.39000010
   11.12583351  112.82199860    0.52999997    2.39000010
   11.13000011  108.13899994    0.51999998    2.39000010
   11.13305569  109.37999725    0.51999998    2.39000010
   11.13638878  110.86199951    0.52999997    2.39000010
   11.13972187  114.34300232    0.51999998    2.40000010
   11.14277744  113.89800262    0.51999998    2.39000010
   11.14388847  115.32199860    0.51999998    2.39000010
   11.14638901  115.53500366    0.51999998    2.39000010
   11.14972210  110.58699799    0.51999998    2.40000010
   11.15305519  109.21099854    0.51999998    2.39000010
   11.15611076  113.92199707    0.51999998    2.40000010
   11.15944386  116.74600220    0.51999998    2.39000010
   11.16305542  115.04100037    0.51999998    2.40000010
   11.16861153  115.04100037    0.50000000    2.40000010
   11.17277813  114.34899902    0.50000000    2.40000010
   11.17611122  111.39399719    0.50000000    2.40000010
   11.17722225  112.76399994    0.50000000    2.40000010
   11.17944431  111.14600372    0.51999998    2.40000010
   11.18277836  109.48400116    0.51999998    2.40000010
   11.18611145  115.29100037    0.50000000    2.40000010
   11.18916702  112.91799927    0.50000000    2.40000010
   11.19250011  111.73600006    0.51999998    2.40000010
   11.19555569  113.59100342    0.51999998    2.40000010
   11.19888878  110.90200043    0.50000000    2.40000010
   11.20222187  111.04199982    0.50000000    2.40000010
   11.20527744  116.62000275    0.50000000    2.42000008
   11.21138859  116.62000275    0.50000000    2.42000008
   11.21555519  109.86900330    0.51999998    2.42000008
   11.21888828  113.00000000    0.51999998    2.42000008
   11.22194386  113.09700012    0.51999998    2.42000008
   11.22527695  117.07099915    0.51999998    2.40000010
   11.22861099  114.69699860    0.52999997    2.42000008
   11.23166656  118.16000366    0.52999997    2.42000008
   11.23500061  123.31099701    0.52999997    2.44000006
   11.23833370  118.23300171    0.52999997    2.42000008
   11.24138927  122.54399872    0.52999997    2.42000008
   11.24388885  117.26300049    0.52999997    2.42000008
   11.24499989  115.71399689    0.55000001    2.42000008
   11.24833393  123.07700348    0.52999997    2.42000008
   11.25444412  123.07700348    0.52999997    2.42000008
   11.25833321  111.46499634    0.51999998    2.44000006
   11.26166630  122.91999817    0.51999998    2.44000006
   11.26500034  116.31800079    0.51999998    2.44000006
   11.26805496  110.86900330    0.51999998    2.44000006
   11.27138901  113.85399628    0.52999997    2.44000006
   11.27472210  110.06600189    0.51999998    2.44000006
   11.27722168  113.30599976    0.51999998    2.44000006
   11.27805519  112.85600281    0.51999998    2.44000006
   11.28138828  114.68299866    0.51999998    2.46000004
   11.28472233  113.72899628    0.51999998    2.44000006
   11.28777790  117.46399689    0.51999998    2.44000006
   11.29111195  110.45099640    0.51999998    2.46000004
   11.29722309  110.45099640    0.52999997    2.44000006
   11.30138874  118.68699646    0.51999998    2.44000006
   11.30444431  112.18499756    0.52999997    2.46000004
   11.30777836  113.45200348    0.51999998    2.46000004
   11.31055546  114.96299744    0.52999997    2.46000004
   11.31138897  113.61499786    0.51999998    2.46000004
   11.31472206  114.30300140    0.52999997    2.46000004
   11.31805515  118.26899719    0.51999998    2.46000004
   11.32111073  116.86599731    0.52999997    2.46000004
   11.32444477  115.12300110    0.51999998    2.46000004
   11.32750034  115.30500031    0.52999997    2.46000004
   11.33083344  117.21499634    0.51999998    2.46000004
   11.33416653  113.49400330    0.51999998    2.46000004
   11.34000015  113.49400330    0.51999998    2.46000004
   11.34416676  118.15899658    0.51999998    2.46000004
   11.34749985  114.41600037    0.51999998    2.46000004
   11.35083389  115.07299805    0.51999998    2.46000004
   11.35388947  123.40399933    0.51999998    2.46000004
   11.35722256  114.93599701    0.51999998    2.46000004
   11.36027813  114.25900269    0.51999998    2.46000004
   11.36361122  111.19000244    0.51999998    2.46000004
   11.36694431  112.65499878    0.50000000    2.48000002
   11.36999989  115.54599762    0.50000000    2.48000002
   11.37333393  112.65899658    0.51999998    2.48000002
   11.37666702  117.13500214    0.50000000    2.48000002
   11.37722206  108.60900116    0.51999998    2.48000002
   11.38277817  108.60900116    0.51999998    2.48000002
   11.38694477  113.12100220    0.51999998    2.46000004
   11.39027786  113.23600006    0.51999998    2.48000002
   11.39333344  115.57099915    0.51999998    2.48000002
   11.39666653  115.04399872    0.51999998    2.48000002
   11.39999962  113.90799713    0.51999998    2.46000004
   11.40305519  114.53900146    0.51999998    2.48000002
   11.40638828  114.03299713    0.51999998    2.48000002
   11.40972137  111.62599945    0.51999998    2.48000002
   11.41055489  111.90799713    0.52999997    2.48000002
   11.41305542  115.92400360    0.51999998    2.48000002
   11.41638851  114.65899658    0.51999998    2.48000002
   11.41972256  109.08799744    0.51999998    2.48000002
   11.42583370  109.08799744    0.52999997    2.48000002
   11.42972279  110.25000000    0.52999997    2.48000002
   11.43305588  113.13600159    0.52999997    2.48000002
   11.43638897  109.92299652    0.52999997    2.50000000
   11.43944454  113.60700226    0.52999997    2.50000000
   11.44277763  112.96700287    0.52999997    2.48000002
   11.44388866  112.70099640    0.52999997    2.50000000
   11.44611073  114.19999695    0.52999997    2.50000000
   11.44944477  115.49800110    0.52999997    2.48000002
   11.45277786  119.13800049    0.52999997    2.50000000
   11.45583344  112.00199890    0.52999997    2.50000000
   11.45916653  113.26399994    0.52999997    2.50000000
   11.46249962  120.13200378    0.52999997    2.50000000
   11.46861076  120.13200378    0.52999997    2.50000000
   11.47277737  110.77500153    0.52999997    2.50000000
   11.47583294  108.67900085    0.52999997    2.50000000
   11.47722149  110.95800018    0.52999997    2.48000002
   11.47944355  108.08399963    0.52999997    2.51999998
   11.48277760  110.10900116    0.55000001    2.50000000
   11.48611164  112.11799622    0.55000001    2.50000000
   11.48916721  110.04799652    0.55000001    2.50000000
   11.49250031  113.18599701    0.55000001    2.51999998
   11.49583340  106.90599823    0.55000001    2.50000000
   11.49888897  107.38500214    0.55000001    2.50000000
   11.50222206  109.80200195    0.55000001    2.51999998
   11.50527763  106.94799805    0.55000001    2.51999998
   11.51138878  106.94799805    0.52999997    2.51999998
   11.51555538  108.33399963    0.55000001    2.51999998
   11.51888847  109.43399811    0.56999999    2.51999998
   11.52194405  112.26300049    0.56999999    2.51999998
   11.52527714  109.79900360    0.58999997    2.51999998
   11.52833271  113.53099823    0.58999997    2.51999998
   11.53166676  110.76499939    0.58999997    2.51999998
   11.53500080  111.43299866    0.56999999    2.53999996
   11.53805637  115.99700165    0.52999997    2.51999998
   11.54138947  121.10700226    0.52999997    2.51999998
   11.54388905  113.90699768    0.52999997    2.51999998
   11.54472256  114.02300262    0.51999998    2.51999998
   11.54805565  113.03700256    0.52999997    2.53999996
   11.55416679  113.03700256    0.52999997    2.51999998
   11.55833340  115.77400208    0.55000001    2.51999998
   11.56166649  115.29499817    0.56999999    2.53999996
   11.56472206  116.27200317    0.58999997    2.51999998
   11.56805515  112.31500244    0.56999999    2.53999996
   11.57138920  111.65699768    0.64999998    2.53999996
   11.57444477  108.99299622    0.64999998    2.53999996
   11.57722187  113.34100342    0.64999998    2.53999996
   11.57805538  110.47899628    0.64999998    2.53999996
   11.58138847  112.44100189    0.63000000    2.53999996
   11.58472157  111.72200012    0.56999999    2.53999996
   11.58777714  111.36199951    0.51999998    2.55999994
   11.59111118  112.24700165    0.51999998    2.55999994
   11.59694386  112.24700165    0.52999997    2.55999994
   11.60111141  116.06099701    0.51999998    2.53999996
   11.60444450  115.41500092    0.50000000    2.55999994
   11.60777855  113.90599823    0.52999997    2.55999994
   11.61055565  115.37799835    0.55000001    2.55999994
   11.61111164  113.80200195    0.55000001    2.53999996
   11.61444473  112.41000366    0.56999999    2.55999994
   11.61777782  114.02200317    0.58999997    2.55999994
   11.62083340  113.77799988    0.56999999    2.55999994
   11.62416649  111.57800293    0.55000001    2.53999996
   11.62722206  110.44000244    0.55000001    2.55999994
   11.63055611  110.29399872    0.51999998    2.55999994
   11.63388920  114.82099915    0.51999998    2.53999996
   11.64000034  114.82099915    0.52999997    2.55999994
   11.64416695  119.88500214    0.52999997    2.55999994
   11.64722252  112.17800140    0.51999998    2.55999994
   11.65055561  114.08699799    0.51999998    2.55999994
   11.65388870  110.70600128    0.52999997    2.55999994
   11.65694427  111.71600342    0.52999997    2.55999994
   11.66027737  111.27300262    0.55000001    2.55999994
   11.66333294  113.32599640    0.56999999    2.55999994
   11.66666698  113.89600372    0.63000000    2.55999994
   11.67000008  112.65399933    0.64999998    2.55999994
   11.67305565  112.98500061    0.64999998    2.55999994
   11.67638874  112.44499969    0.64999998    2.55999994
   11.67722225  117.55999756    0.64999998    2.55999994
   11.69805527  117.55999756    0.52999997    2.55999994
   11.70194435  112.44999695    0.52999997    2.55999994
   11.70527744  112.79299927    0.51999998    2.57999992
   11.70861053  114.47599792    0.50000000    2.55999994
   11.71055508  113.25900269    0.44000000    2.57999992
   11.71222210  116.66300201    0.41999999    2.57999992
   11.71527767  115.35600281    0.41999999    2.57999992
   11.71861076  113.58599854    0.44000000    2.57999992
   11.72166634  113.57299805    0.46000001    2.59999990
   11.72499943  115.82499695    0.44000000    2.57999992
   11.72833252  115.64600372    0.41999999    2.57999992
   11.73138809  115.47699738    0.44000000    2.57999992
   11.73472214  115.56199646    0.41999999    2.57999992
   11.74055576  115.56199646    0.44000000    2.57999992
   11.74472237  119.72399902    0.44000000    2.59999990
   11.74805546  115.55599976    0.44000000    2.59999990
   11.75138855  113.72899628    0.44000000    2.59999990
   11.75444412  113.05200195    0.44000000    2.57999992
   11.75777817  113.45999908    0.41999999    2.59999990
   11.76083374  118.59999847    0.41999999    2.59999990
   11.76416683  117.21099854    0.41999999    2.59999990
   11.76749992  116.31099701    0.41999999    2.59999990
   11.77055550  115.26899719    0.40000001    2.59999990
   11.77388859  112.59700012    0.40000001    2.59999990
   11.77722168  114.37500000    0.40000001    2.59999990
   11.77750015  112.89600372    0.40000001    2.59999990
   11.78361130  112.89600372    0.38000000    2.59999990
   11.78777790  117.14299774    0.38000000    2.59999990
   11.79083347  112.61299896    0.40000001    2.59999990
   11.79444504  110.97200012    0.40000001    2.59999990
   11.79777813  111.14199829    0.40000001    2.61999989
   11.80083370  112.76899719    0.38000000    2.61999989
   11.80416679  116.70899963    0.38000000    2.61999989
   11.80722237  115.88500214    0.40000001    2.59999990
   11.81055546  112.43099976    0.40000001    2.59999990
   11.81111145  114.21099854    0.40000001    2.59999990
   11.81416702  113.79399872    0.40000001    2.61999989
   11.81722260  113.93900299    0.41999999    2.59999990
   11.82055569  119.87699890    0.44000000    2.59999990
   11.82638836  119.87699890    0.47999999    2.59999990
   11.83055592  114.48600006    0.47999999    2.61999989
   11.83361053  114.20600128    0.47999999    2.61999989
   11.83694458  116.54799652    0.47999999    2.59999990
   11.84027767  114.60399628    0.47999999    2.59999990
   11.84333324  112.28099823    0.47999999    2.61999989
   11.84444427  112.04599762    0.46000001    2.61999989
   11.84694386  113.48300171    0.47999999    2.59999990
   11.85027790  117.62000275    0.52999997    2.61999989
   11.85361195  115.99099731    0.52999997    2.61999989
   11.85666752  113.56500244    0.56999999    2.61999989
   11.86000061  114.80400085    0.67000002    2.59999990
   11.86333370  118.72699738    0.89999998    2.59999990
   11.86916637  118.72699738    1.09000003    2.59999990
   11.87333393  119.68099976    1.28999996    2.59999990
   11.87666702  124.86100006    1.38000000    2.59999990
   11.87777805  119.08499908    1.38000000    2.57999992
   11.88000011  117.33599854    1.30999994    2.57999992
   11.88333321  119.63800049    1.30999994    2.57999992
   11.88666630  122.42400360    1.33000004    2.59999990
   11.88972187  122.45899963    1.34000003    2.57999992
   11.89305496  121.59700012    1.36000001    2.57999992
   11.89611053  124.44599915    1.41999996    2.57999992
   11.89944458  130.92999268    1.55999994    2.57999992
   11.90277767  116.12200165    1.55999994    2.57999992
   11.90583324  121.38400269    1.53999996    2.57999992
   11.91194439  121.38400269    1.30999994    2.59999990
   11.91611099  124.31199646    1.33000004    2.59999990
   11.91944504  120.00399780    1.33000004    2.59999990
   11.92250061  115.51100159    1.30999994    2.59999990
   11.92583370  118.69300079    1.46000004    2.59999990
   11.92916679  122.58499908    1.60000002    2.59999990
   11.93222237  119.46600342    1.69000006    2.59999990
   11.93555546  122.26599884    1.64999998    2.57999992
   11.93888855  121.12599945    1.63000000    2.59999990
   11.94194412  120.38400269    1.66999996    2.59999990
   11.94444466  119.40899658    1.60000002    2.59999990
   11.94555569  123.80999756    1.50000000    2.59999990
   11.94888878  121.95800018    1.36000001    2.59999990
   11.95499992  121.95800018    1.25000000    2.61999989
   11.95916653  120.54699707    1.19000006    2.61999989
   11.96222210  113.13099670    0.89999998    2.61999989
   11.96555519  119.29699707    0.80000001    2.61999989
   11.96861076  120.27100372    0.75000000    2.64000010
   11.97194386  116.26399994    0.70999998    2.64000010
   11.97527695  116.38400269    0.70999998    2.64000010
   11.97777748  119.33999634    0.73000002    2.64000010
   11.97861099  118.61100006    0.73000002    2.64000010
   11.98194408  117.23100281    0.63000000    2.64000010
   11.98527813  116.73200226    0.58999997    2.64000010
   11.98833370  123.96700287    0.58999997    2.64000010
   11.99166679  115.82199860    0.56999999    2.64000010
   11.99777794  115.82199860    0.52999997    2.64000010
   12.00194454  119.85700226    0.50000000    2.64000010
   12.00500011  118.59600067    0.47999999    2.64000010
   12.00833321  119.61199951    0.50000000    2.64000010
   12.01111126  116.96399689    0.50000000    2.64000010
   12.01222229  119.11399841    0.47999999    2.64000010
   12.01527786  125.51799774    0.47999999    2.64000010
   12.01861095  116.17700195    0.44000000    2.66000009
   12.02166653  116.39099884    0.46000001    2.66000009
   12.02499962  117.56400299    0.44000000    2.66000009
   12.02833271  118.67400360    0.44000000    2.66000009
   12.03166676  115.92299652    0.46000001    2.66000009
   12.03472233  115.50800323    0.47999999    2.66000009
   12.04055595  115.50800323    0.51999998    2.66000009
   12.04472256  121.11799622    0.52999997    2.66000009
   12.04805565  120.20700073    0.52999997    2.66000009
   12.05111122  113.77300262    0.51999998    2.66000009
   12.05444431  117.81400299    0.51999998    2.66000009
   12.05805588  118.41899872    0.51999998    2.66000009
   12.06111145  118.57599640    0.50000000    2.66000009
   12.06444454  117.25599670    0.44000000    2.66000009
   12.06750011  121.76599884    0.47999999    2.66000009
   12.07083321  115.05500031    0.47999999    2.66000009
   12.07416630  121.19200134    0.46000001    2.67000008
   12.07722187  115.68299866    0.44000000    2.67000008
   12.07777786  119.42299652    0.44000000    2.66000009
   12.08333302  119.42299652    0.44000000    2.66000009
   12.08749962  116.22000122    0.44000000    2.66000009
   12.09083271  114.79900360    0.41999999    2.67000008
   12.09388828  117.92900085    0.47999999    2.66000009
   12.09722233  120.97200012    0.52999997    2.66000009
   12.10055637  116.05000305    0.64999998    2.66000009
   12.10361195  123.03399658    0.73000002    2.66000009
   12.10694504  118.60299683    0.70999998    2.66000009
   12.11027813  116.38999939    0.69000000    2.66000009
   12.11111164  118.95999908    0.69000000    2.67000008
   12.11388969  123.62200165    0.69000000    2.67000008
   12.11722279  118.68199921    0.61000001    2.66000009
   12.12027836  114.95700073    0.63000000    2.66000009
   12.12638855  114.95700073    0.61000001    2.66000009
   12.13027763  115.55000305    0.58999997    2.66000009
   12.13361073  115.62599945    0.58999997    2.66000009
   12.13694477  115.50700378    0.58999997    2.66000009
   12.14000034  118.38200378    0.56999999    2.67000008
   12.14333344  116.37300110    0.61000001    2.67000008
   12.14444447  113.31600189    0.63000000    2.67000008
   12.14694405  117.80799866    0.61000001    2.67000008
   12.14999962  116.15399933    0.64999998    2.66000009
   12.15333271  119.21099854    0.64999998    2.67000008
   12.15666676  123.73300171    0.67000002    2.66000009
   12.15972137  126.50399780    0.64999998    2.66000009
   12.16305542  113.55200195    0.58999997    2.66000009
   12.16916656  113.55200195    0.55000001    2.66000009
   12.17333412  119.13099670    0.52999997    2.67000008
   12.17638874  117.13400269    0.55000001    2.67000008
   12.17777824  115.48899841    0.55000001    2.67000008
   12.18000031  117.76699829    0.55000001    2.67000008
   12.18305588  116.87799835    0.52999997    2.67000008
   12.18638897  112.84899902    0.51999998    2.69000006
   12.18972206  117.10700226    0.47999999    2.67000008
   12.19277763  113.09700012    0.46000001    2.67000008
   12.19611073  116.27500153    0.44000000    2.67000008
   12.19944477  114.12200165    0.44000000    2.67000008
   12.20249939  111.86199951    0.46000001    2.67000008
   12.20583344  116.41100311    0.46000001    2.69000006
   12.21194458  116.41100311    0.50000000    2.67000008
   12.21611118  117.80100250    0.51999998    2.67000008
   12.21944427  120.98899841    0.55000001    2.69000006
   12.22249985  120.15200043    0.56999999    2.67000008
   12.22583294  121.46700287    0.63000000    2.67000008
   12.22888851  118.42199707    0.63000000    2.67000008
   12.23222160  118.89099884    0.64999998    2.67000008
   12.23555565  116.30999756    0.64999998    2.67000008
   12.23861122  114.44400024    0.64999998    2.67000008
   12.24194431  112.62100220    0.64999998    2.67000008
   12.24444485  120.45600128    0.63000000    2.67000008
   12.24555588  117.28299713    0.63000000    2.67000008
   12.24861145  113.90000153    0.58999997    2.67000008
   12.25472260  113.90000153    0.58999997    2.69000006
   12.25888920  112.79199982    0.56999999    2.67000008
   12.26222229  112.59500122    0.52999997    2.69000006
   12.26555538  115.42400360    0.52999997    2.69000006
   12.26861095  117.87300110    0.58999997    2.69000006
   12.27194405  116.73000336    0.52999997    2.67000008
   12.27499962  118.59899902    0.55000001    2.67000008
   12.27777767  124.19200134    0.58999997    2.67000008
   12.27888870  114.43900299    0.58999997    2.69000006
   12.28194427  120.75499725    0.56999999    2.69000006
   12.28527832  117.08599854    0.55000001    2.69000006
   12.28861141  117.93900299    0.63000000    2.67000008
   12.29166698  117.62599945    0.70999998    2.67000008
   12.29777813  117.62599945    0.79000002    2.67000008
   12.30194473  115.76000214    0.76999998    2.67000008
   12.30500031  113.72000122    0.81999999    2.67000008
   12.30833340  116.58000183    0.86000001    2.69000006
   12.31111145  113.64399719    0.83999997    2.67000008
   12.31194496  112.78099823    0.83999997    2.69000006
   12.31500053  111.83100128    0.81999999    2.69000006
   12.31833363  115.47699738    0.76999998    2.69000006
   12.32166672  116.79199982    0.80000001    2.67000008
   12.32472229  111.23200226    0.81999999    2.69000006
   12.32805538  114.30899811    0.81999999    2.69000006
   12.33138847  114.76399994    0.79000002    2.67000008
   12.33444405  114.59700012    0.75000000    2.69000006
   12.34055519  114.59700012    0.56999999    2.69000006
   12.34472179  118.05999756    0.56999999    2.69000006
   12.34777737  113.91100311    0.58999997    2.69000006
   12.35111141  113.20600128    0.56999999    2.69000006
   12.35444450  114.98799896    0.55000001    2.69000006
   12.35750008  113.33699799    0.55000001    2.71000004
   12.36083412  120.82299805    0.55000001    2.71000004
   12.36416721  118.18900299    0.50000000    2.71000004
   12.36722279  112.05599976    0.41999999    2.71000004
   12.37055588  118.04599762    0.38000000    2.71000004
   12.37388897  116.64600372    0.40000001    2.69000006
   12.37694454  116.17400360    0.44000000    2.69000006
   12.37777805  110.32499695    0.46000001    2.71000004
   12.38333321  110.32499695    0.51999998    2.69000006
   12.38749981  116.63700104    0.51999998    2.71000004
   12.39083290  115.79699707    0.50000000    2.71000004
   12.39388847  115.25000000    0.44000000    2.71000004
   12.39722252  115.49099731    0.44000000    2.71000004
   12.40055561  114.13300323    0.40000001    2.71000004
   12.40361118  119.76399994    0.51999998    2.69000006
   12.40694427  115.02700043    0.61000001    2.69000006
   12.40999985  115.55699921    0.61000001    2.69000006
   12.41111088  123.57199860    0.64999998    2.69000006
   12.41361046  116.86900330    0.70999998    2.71000004
   12.41694450  119.78399658    0.73000002    2.69000006
   12.42000008  124.35700226    0.75000000    2.69000006
   12.42638874  124.35700226    0.69000000    2.71000004
   12.43027782  117.52899933    0.63000000    2.71000004
   12.43361092  116.76200104    0.64999998    2.71000004
   12.43694496  120.41000366    0.67000002    2.69000006
   12.44000053  115.34100342    0.61000001    2.71000004
   12.44333363  115.28900146    0.52999997    2.69000006
   12.44444466  118.70800018    0.55000001    2.71000004
   12.44694424  119.01100159    0.56999999    2.71000004
   12.45027733  117.08499908    0.58999997    2.71000004
   12.45333290  119.88099670    0.58999997    2.71000004
   12.45666695  117.06700134    0.58999997    2.71000004
   12.46000004  116.93499756    0.58999997    2.71000004
   12.46305561  118.24400330    0.55000001    2.71000004
   12.46916580  118.24400330    0.51999998    2.71000004
   12.47333336  113.42299652    0.44000000    2.71000004
   12.47638798  112.60800171    0.44000000    2.71000004
   12.47777748  114.51000214    0.41999999    2.71000004
   12.47999954  112.13099670    0.40000001    2.73000002
   12.48333359  112.27300262    0.38000000    2.73000002
   12.48638916  114.49900055    0.34000000    2.71000004
   12.48972225  108.89600372    0.31999999    2.73000002
   12.49277782  115.24800110    0.34000000    2.73000002
   12.49611092  120.11000061    0.34000000    2.73000002
   12.49944496  114.03399658    0.34000000    2.73000002
   12.50249958  112.01000214    0.31999999    2.73000002
   12.50583363  110.55200195    0.31999999    2.73000002
   12.51194477  110.55200195    0.30000001    2.73000002
   12.51611137  116.52799988    0.36000001    2.73000002
   12.51916599  111.98100281    0.44000000    2.73000002
   12.52250004  114.22100067    0.38000000    2.71000004
   12.52583313  117.30000305    0.38000000    2.73000002
   12.52888870  119.51799774    0.36000001    2.73000002
   12.53222179  122.16100311    0.38000000    2.73000002
   12.53555584  119.45700073    0.46000001    2.73000002
   12.53861141  117.78700256    0.52999997    2.73000002
   12.54194450  117.37899780    0.52999997    2.73000002
   12.54444504  119.41600037    0.51999998    2.73000002
   12.54555607  119.67700195    0.50000000    2.73000002
   12.54888916  122.55100250    0.55000001    2.73000002
   12.55472279  122.55100250    0.51999998    2.73000002
   12.55888939  118.83200073    0.50000000    2.73000002
   12.56222248  129.43299866    0.46000001    2.73000002
   12.56527805  111.54799652    0.50000000    2.73000002
   12.56861115  116.76999664    0.50000000    2.73000002
   12.57194424  115.68800354    0.47999999    2.73000002
   12.57499981  116.28099823    0.46000001    2.73000002
   12.57777786  119.89700317    0.44000000    2.73000002
   12.57861137  117.23500061    0.41999999    2.73000002
   12.58194447  114.30100250    0.44000000    2.73000002
   12.58500004  121.55599976    0.46000001    2.73000002
   12.58833313  114.43099976    0.46000001    2.73000002
   12.59138870  113.59700012    0.47999999    2.73000002
   12.59749985  113.59700012    0.50000000    2.73000002
   12.60166740  120.44300079    0.50000000    2.73000002
   12.60500050  113.93699646    0.51999998    2.73000002
   12.60833359  123.11100006    0.56999999    2.73000002
   12.61111164  125.95600128    0.56999999    2.73000002
   12.61194515  118.36499786    0.56999999    2.73000002
   12.61527824  120.26699829    0.51999998    2.73000002
   12.61833382  115.50900269    0.51999998    2.73000002
   12.62166691  115.42400360    0.46000001    2.73000002
   12.62472248  120.35199738    0.44000000    2.73000002
   12.62805557  115.62400055    0.40000001    2.75000000
   12.63138866  116.14600372    0.51999998    2.73000002
   12.63444424  115.50199890    0.58999997    2.73000002
   12.64055538  115.50199890    0.51999998    2.73000002
   12.64472198  118.41699982    0.47999999    2.75000000
   12.64777756  112.15899658    0.40000001    2.75000000
   12.65111065  112.42199707    0.41999999    2.75000000
   12.65416622  117.02300262    0.41999999    2.73000002
   12.65749931  115.42299652    0.44000000    2.71000004
   12.66083336  109.36799622    0.47999999    2.75000000
   12.66388893  116.69699860    0.47999999    2.75000000
   12.66722298  110.55200195    0.50000000    2.75000000
   12.67055607  111.29499817    0.51999998    2.75000000
   12.67361164  114.00700378    0.51999998    2.75000000
   12.67694473  117.09799957    0.55000001    2.75000000
   12.67777824  118.98400116    0.55000001    2.73000002
   12.68333340  118.98400116    0.70999998    2.73000002
   12.68750000  118.50099945    0.73000002    2.73000002
   12.69055557  115.08999634    0.79000002    2.73000002
   12.69388866  112.28399658    0.69000000    2.73000002
   12.71138859  106.16999817    0.38000000    2.75000000
   12.71388912  119.79199982    0.36000001    2.75000000
   12.71722221  116.69599915    0.31999999    2.75000000
   12.72027779  118.37100220    0.31999999    2.75000000
   12.72638798  118.37100220    0.41999999    2.75000000
   12.73055553  115.29499817    0.47999999    2.73000002
   12.73361111  117.31999969    0.55000001    2.75000000
   12.73694515  115.90499878    0.56999999    2.75000000
   12.74000072  113.39299774    0.61000001    2.75000000
   12.74333382  115.33699799    0.56999999    2.75000000
   12.74472237  115.70700073    0.58999997    2.73000002
   12.74694443  112.00099945    0.56999999    2.75000000
   12.75000000  116.98699951    0.58999997    2.75000000
   12.75333309  114.89700317    0.67000002    2.75000000
   12.75666714  116.04599762    0.64999998    2.75000000
   12.75972176  116.46900177    0.67000002    2.75000000
   12.76305580  119.22200012    0.64999998    2.73000002
   12.76916599  119.22200012    0.61000001    2.73000002
   12.77333355  114.05899811    0.76999998    2.75000000
   12.77638817  115.11399841    0.67000002    2.75000000
   12.77805519  122.00800323    0.64999998    2.73000002
   12.78027725  112.54299927    0.58999997    2.73000002
   12.78333378  117.47799683    0.52999997    2.75000000
   12.78666687  110.34200287    0.50000000    2.75000000
   12.79000092  112.05100250    0.47999999    2.75000000
   12.79305553  110.80899811    0.51999998    2.75000000
   12.79638958  114.75599670    0.51999998    2.75000000
   12.79972267  115.17299652    0.51999998    2.75000000
   12.80277824  121.11000061    0.51999998    2.75000000
   12.80611134  114.27999878    0.50000000    2.75000000
   12.81194496  114.27999878    0.52999997    2.75000000
   12.81611156  110.86399841    0.67000002    2.75000000
   12.81944466  117.11399841    0.70999998    2.75000000
   12.82250023  115.71099854    0.73000002    2.73000002
   12.82583332  117.65799713    0.67000002    2.75000000
   12.82916641  118.16400146    0.55000001    2.76999998
   12.83222198  115.48600006    0.50000000    2.75000000
   12.83555508  117.15100098    0.46000001    2.76999998
   12.83861065  117.10299683    0.38000000    2.76999998
   12.84194374  115.56500244    0.36000001    2.76999998
   12.84472179  119.09200287    0.40000001    2.76999998
   12.84555531  119.94200134    0.38000000    2.76999998
   12.84861088  114.89399719    0.41999999    2.75000000
   12.85472298  114.89399719    0.41999999    2.75000000
   12.85888958  116.31199646    0.41999999    2.75000000
   12.86222267  117.11100006    0.46000001    2.75000000
   12.86555576  120.13300323    0.46000001    2.76999998
   12.86861134  118.11399841    0.52999997    2.75000000
   12.87194443  113.52799988    0.56999999    2.75000000
   12.87500000  118.21099854    0.61000001    2.75000000
   12.87805557  118.30100250    0.52999997    2.76999998
   12.87888908  119.18199921    0.56999999    2.75000000
   12.88194466  116.87500000    0.58999997    2.76999998
   12.88527775  124.90899658    0.73000002    2.75000000
   12.88861084  119.57399750    0.81999999    2.73000002
   12.89166641  112.90799713    0.81999999    2.75000000
   12.89777756  112.90799713    1.25000000    2.71000004
   12.90166664  116.86399841    1.05999994    2.75000000
   12.90499973  117.98500061    0.94000000    2.75000000
   12.90833282  118.42700195    0.95999998    2.75000000
   12.91138840  117.85700226    0.95999998    2.75000000
   12.91194439  116.13400269    0.94000000    2.75000000
   12.91499996  120.73699951    1.01999998    2.75000000
   12.91833401  116.38700104    1.07000005    2.73000002
   12.92166710  114.14199829    1.03999996    2.73000002
   12.92472267  114.48300171    1.07000005    2.73000002
   12.92805576  112.77600098    0.89999998    2.75000000
   12.93111134  117.18800354    0.70999998    2.75000000
   12.93444443  112.00199890    0.67000002    2.76999998
   12.94055557  112.00199890    0.61000001    2.76999998
   12.94472218  114.29199982    0.51999998    2.75000000
   12.94499969  118.96299744    0.51999998    2.75000000
   12.94833374  115.61199951    0.50000000    2.75000000
   12.95166683  115.34799957    0.41999999    2.78999996
   12.95472240  119.71299744    0.40000001    2.76999998
   12.95805550  116.56400299    0.40000001    2.76999998
   12.96138859  119.64900208    0.40000001    2.76999998
   12.96444416  118.54499817    0.40000001    2.76999998
   12.96777725  115.18599701    0.41999999    2.76999998
   12.97083282  111.12799835    0.41999999    2.76999998
   12.97416592  113.08100128    0.41999999    2.76999998
   12.97749996  113.81199646    0.46000001    2.75000000
   12.97861099  118.97599792    0.44000000    2.76999998
   12.98333359  118.97599792    0.40000001    2.78999996
   12.98750019  113.65100098    0.38000000    2.78999996
   12.99083328  113.53700256    0.31999999    2.76999998
   12.99388885  113.69300079    0.31999999    2.76999998
   12.99722290  115.86000061    0.36000001    2.76999998
   13.00055599  118.21499634    0.40000001    2.76999998
   13.00361156  114.41400146    0.40000001    2.76999998
   13.00694466  116.63899994    0.36000001    2.78999996
   13.01027775  119.98000336    0.38000000    2.78999996
   13.01194477  120.31199646    0.38000000    2.78999996
   13.01361084  109.97499847    0.36000001    2.76999998
   13.01694393  110.56700134    0.40000001    2.76999998
   13.02027798  113.63400269    0.40000001    2.78999996
   13.02638817  113.63400269    0.36000001    2.78999996
   13.03027725  112.75299835    0.34000000    2.76999998
   13.03361130  114.86799622    0.34000000    2.78999996
   13.03694534  108.23699951    0.34000000    2.78999996
   13.04000092  108.34999847    0.31999999    2.78999996
   13.04333401  108.85299683    0.30000001    2.78999996
   13.04527855  108.76399994    0.30000001    2.78999996
   13.04694462  114.06199646    0.30000001    2.78999996
   13.05027771  116.73000336    0.30000001    2.78999996
   13.05361176  118.05699921    0.31999999    2.78999996
   13.05666733  111.40100098    0.31999999    2.78999996
   13.06000042  114.73200226    0.31999999    2.78999996
   13.06305599  113.43800354    0.34000000    2.78999996
   13.06916618  113.43800354    0.40000001    2.78999996
   13.07333374  117.12000275    0.38000000    2.78999996
   13.07638836  113.69999695    0.38000000    2.78999996
   13.07861137  117.47599792    0.38000000    2.78999996
   13.07999992  115.68099976    0.38000000    2.78999996
   13.08333302  113.65299988    0.40000001    2.76999998
   13.08638859  115.87999725    0.38000000    2.78999996
   13.08972168  112.33799744    0.36000001    2.76999998
   13.09305477  116.33899689    0.38000000    2.78999996
   13.09611034  115.45700073    0.38000000    2.78999996
   13.09944439  117.21600342    0.36000001    2.76999998
   13.10277843  114.64900208    0.31999999    2.78999996
   13.10583401  118.24600220    0.30000001    2.78999996
   13.11194515  118.24600220    0.28000000    2.78999996
   13.11611176  116.56300354    0.28000000    2.80999994
   13.11916637  120.84600067    0.30000001    2.78999996
   13.12250042  113.33999634    0.30000001    2.78999996
   13.12583351  111.99800110    0.30000001    2.78999996
   13.12888908  113.17299652    0.30000001    2.78999996
   13.13222218  113.81800079    0.28000000    2.78999996
   13.13555527  114.05500031    0.28000000    2.78999996
   13.13861084  120.16699982    0.28000000    2.80999994
   13.14194393  116.16999817    0.25999999    2.78999996
   13.14527798  112.44699860    0.28000000    2.78999996
   13.14555550  114.67500305    0.28000000    2.78999996
   13.14888859  116.37100220    0.25999999    2.80999994
   13.15472221  116.37100220    0.25999999    2.80999994
   13.15888882  114.61299896    0.25999999    2.78999996
   13.16222191  114.93399811    0.25999999    2.78999996
   13.16527748  116.85500336    0.25999999    2.80999994
   13.16861153  115.57299805    0.25999999    2.78999996
   13.17194462  115.09200287    0.25000000    2.78999996
   13.17500019  118.76899719    0.25000000    2.78999996
   13.17833328  118.79199982    0.25000000    2.80999994
   13.17888927  114.23799896    0.25000000    2.80999994
   13.18194485  119.53199768    0.25000000    2.80999994
   13.18527794  115.21499634    0.25000000    2.80999994
   13.18861103  119.77200317    0.25000000    2.80999994
   13.19166660  122.10700226    0.25000000    2.78999996
   13.19777775  122.10700226    0.25000000    2.80999994
   13.20166683  118.62699890    0.25000000    2.80999994
   13.20499992  125.10299683    0.25999999    2.80999994
   13.20833302  114.59700012    0.25999999    2.80999994
   13.21138859  121.12699890    0.25999999    2.78999996
   13.21222210  120.53600311    0.25999999    2.80999994
   13.21527767  122.04799652    0.25999999    2.80999994
   13.21833324  119.23100281    0.25999999    2.80999994
   13.22166634  113.90299988    0.28000000    2.80999994
   13.22472191  113.27700043    0.25999999    2.82999992
   13.22805500  123.04900360    0.28000000    2.80999994
   13.23138809  116.28600311    0.28000000    2.80999994
   13.23444462  117.80200195    0.28000000    2.80999994
   13.24055576  117.80200195    0.30000001    2.80999994
   13.24472237  113.48600006    0.31999999    2.80999994
   13.24555588  112.97799683    0.30000001    2.78999996
   13.24805546  110.74800110    0.30000001    2.78999996
   13.25138855  113.05000305    0.30000001    2.78999996
   13.25472260  116.93800354    0.30000001    2.80999994
   13.25777817  116.99700165    0.30000001    2.80999994
   13.26111126  119.25599670    0.30000001    2.80999994
   13.26416683  116.09100342    0.30000001    2.78999996
   13.26749992  116.66999817    0.30000001    2.78999996
   13.27083302  120.99299622    0.30000001    2.80999994
   13.27388859  120.86100006    0.31999999    2.80999994
   13.27722168  121.87799835    0.34000000    2.78999996
   13.27888870  130.08299255    0.41999999    2.80999994
   13.28333378  130.08299255    0.46000001    2.80999994
   13.28750038  120.36299896    0.38000000    2.80999994
   13.29083347  115.88200378    0.38000000    2.80999994
   13.29388905  125.44599915    0.36000001    2.78999996
   13.29722309  120.27899933    0.36000001    2.80999994
   13.30055618  119.49500275    0.36000001    2.80999994
   13.30361176  109.49800110    0.40000001    2.78999996
   13.30694485  117.42299652    0.41999999    2.78999996
   13.31027794  115.48400116    0.41999999    2.78999996
   13.31222248  118.17400360    0.40000001    2.78999996
   13.31361103  120.94699860    0.40000001    2.82999992
   13.31694412  121.36599731    0.38000000    2.78999996
   13.32027817  122.51499939    0.36000001    2.78999996
   13.32611084  122.51499939    0.36000001    2.80999994
   13.33027744  120.90399933    0.36000001    2.80999994
   13.33361053  118.68699646    0.34000000    2.80999994
   13.33666611  123.87799835    0.34000000    2.80999994
   13.34000015  114.54599762    0.31999999    2.80999994
   13.34333324  121.14900208    0.34000000    2.80999994
   13.34555531  115.51300049    0.34000000    2.80999994
   13.34666634  113.04399872    0.34000000    2.80999994
   13.35000038  117.20200348    0.31999999    2.80999994
   13.35333347  112.90100098    0.31999999    2.80999994
   13.35638905  114.87200165    0.30000001    2.80999994
   13.35972214  113.76799774    0.28000000    2.82999992
   13.36277771  114.59799957    0.30000001    2.80999994
   13.36916637  114.59799957    0.31999999    2.80999994
   13.37305546  117.53700256    0.28000000    2.80999994
   13.37638855  110.04199982    0.30000001    2.80999994
   13.37888908  115.78800201    0.31999999    2.78999996
   13.38000011  117.16100311    0.30000001    2.80999994
   13.38333321  118.18699646    0.30000001    2.80999994
   13.38666630  118.60600281    0.28000000    2.82999992
   13.38972187  118.42299652    0.28000000    2.80999994
   13.39305496  114.34999847    0.30000001    2.82999992
   13.39638901  116.72699738    0.31999999    2.82999992
   13.39944458  118.36699677    0.30000001    2.82999992
   13.40277767  115.59100342    0.31999999    2.80999994
   13.40611076  115.73799896    0.31999999    2.80999994
   13.41194439  115.73799896    0.30000001    2.80999994
   13.41611099  118.43599701    0.30000001    2.80999994
   13.41916656  120.65899658    0.31999999    2.80999994
   13.42250061  116.92700195    0.34000000    2.80999994
   13.42555618  125.39399719    0.38000000    2.80999994
   13.42888927  123.24600220    0.36000001    2.80999994
   13.43222237  119.76300049    0.38000000    2.82999992
   13.43527794  120.31300354    0.34000000    2.80999994
   13.43861103  123.05799866    0.34000000    2.80999994
   13.44194412  115.31099701    0.36000001    2.82999992
   13.44499969  111.33300018    0.31999999    2.80999994
   13.44694424  114.98600006    0.30000001    2.82999992
   13.44861126  110.46900177    0.30000001    2.82999992
   13.45472240  110.46900177    0.28000000    2.82999992
   13.45888901  117.56400299    0.28000000    2.80999994
   13.46194458  114.95999908    0.25999999    2.82999992
   13.46527767  114.56300354    0.25999999    2.82999992
   13.46861076  122.89199829    0.25999999    2.84999990
   13.47166634  123.83799744    0.25999999    2.82999992
   13.47499943  113.23200226    0.25999999    2.82999992
   13.47833252  115.71299744    0.25000000    2.82999992
   13.48027706  115.66500092    0.25000000    2.84999990
   13.48166656  120.52799988    0.25000000    2.82999992
   13.48500061  119.51999664    0.25000000    2.82999992
   13.48833370  112.87300110    0.23000000    2.82999992
   13.49138927  117.62799835    0.23000000    2.82999992
   13.49750042  117.62799835    0.23000000    2.82999992
   13.50166702  117.44899750    0.23000000    2.82999992
   13.50500011  117.29299927    0.20999999    2.82999992
   13.50805569  117.29199982    0.20999999    2.82999992
   13.51138878  115.37300110    0.20999999    2.82999992
   13.51361084  113.37899780    0.20999999    2.82999992
   13.51500034  109.42600250    0.20999999    2.82999992
   13.51833344  114.80899811    0.20999999    2.82999992
   13.52166653  112.31900024    0.23000000    2.80999994
   13.52472210  110.48300171    0.25000000    2.80999994
   13.52805519  113.45099640    0.25000000    2.84999990
   13.53111076  114.83000183    0.25999999    2.82999992
   13.53444481  110.95200348    0.25999999    2.82999992
   13.54027843  110.95200348    0.25999999    2.82999992
   13.54444504  107.74099731    0.23000000    2.82999992
   13.54694462  117.47200012    0.23000000    2.82999992
   13.54805565  115.92199707    0.20999999    2.82999992
   13.55138874  116.95200348    0.20999999    2.82999992
   13.55444431  120.57499695    0.20999999    2.82999992
   13.55777836  115.06199646    0.20999999    2.82999992
   13.56111145  119.73999786    0.23000000    2.84999990
   13.56416702  118.68699646    0.20999999    2.82999992
   13.56750011  120.07499695    0.20999999    2.84999990
   13.57055569  118.72000122    0.20999999    2.84999990
   13.57388878  123.50399780    0.20999999    2.84999990
   13.57722187  121.03800201    0.20999999    2.86999989
   13.58333302  121.03800201    0.20999999    2.86999989
   13.58749962  117.14800262    0.20999999    2.84999990
   13.59055519  116.26699829    0.20999999    2.86999989
   13.59388828  118.73200226    0.20999999    2.86999989
   13.59694386  117.95400238    0.20999999    2.84999990
   13.60027790  113.68000031    0.20999999    2.86999989
   13.60333347  119.24800110    0.23000000    2.86999989
   13.60666752  113.08699799    0.20999999    2.84999990
   13.61000061  109.77700043    0.20999999    2.86999989
   13.61305618  120.24299622    0.20999999    2.86999989
   13.61416721  116.93699646    0.23000000    2.84999990
   13.61694431  119.42700195    0.25000000    2.86999989
   13.61999989  120.84400177    0.25000000    2.84999990
   13.62611103  120.84400177    0.20999999    2.84999990
   13.63027763  116.70600128    0.17000000    2.84999990
   13.63333321  116.69599915    0.19000000    2.84999990
   13.63666630  119.61599731    0.17000000    2.84999990
   13.63972187  119.53299713    0.17000000    2.84999990
   13.64305496  123.06999969    0.19000000    2.82999992
   13.64638901  119.89099884    0.17000000    2.84999990
   13.64750004  123.61699677    0.19000000    2.82999992
   13.64999962  121.96700287    0.19000000    2.80999994
   13.65305519  119.86900330    0.17000000    2.82999992
   13.65638828  124.32800293    0.19000000    2.80999994
   13.65944386  117.43800354    0.17000000    2.78999996
   13.66277695  124.04100037    0.19000000    2.78999996
   13.66888905  124.04100037    0.20999999    2.75000000
   13.67305565  121.38999939    0.20999999    2.75000000
   13.67638874  122.67400360    0.23000000    2.73000002
   13.67944431  120.68399811    0.23000000    2.75000000
   13.68111134  118.55599976    0.20999999    2.75000000
   13.68305588  120.77600098    0.20999999    2.75000000
   13.68638897  115.47000122    0.20999999    2.73000002
   13.68972206  119.68699646    0.20999999    2.73000002
   13.69277763  117.62699890    0.20999999    2.75000000
   13.69611073  119.74099731    0.20999999    2.75000000
   13.69944477  119.04100037    0.20999999    2.73000002
   13.70249939  121.05000305    0.20999999    2.75000000
   13.70583344  119.87200165    0.20999999    2.75000000
   13.71166611  119.87200165    0.23000000    2.73000002
   13.73027706  110.29900360    0.20999999    2.73000002
   13.73333359  114.02899933    0.19000000    2.73000002
   13.73666668  116.41799927    0.19000000    2.73000002
   13.73972225  122.27500153    0.19000000    2.73000002
   13.74305534  123.67500305    0.17000000    2.75000000
   13.74638939  118.51100159    0.19000000    2.75000000
   13.74944496  117.70500183    0.17000000    2.75000000
   13.75472260  117.70500183    0.19000000    2.75000000
   13.75888920  123.22699738    0.20999999    2.75000000
   13.76222229  119.77899933    0.20999999    2.75000000
   13.76305580  116.74299622    0.20999999    2.75000000
   13.76583290  121.82700348    0.20999999    2.75000000
   13.76916599  120.40100098    0.19000000    2.75000000
   13.77222157  113.78700256    0.20999999    2.75000000
   13.77555561  117.51000214    0.19000000    2.75000000
   13.77888870  112.54100037    0.19000000    2.75000000
   13.78194427  122.30200195    0.19000000    2.75000000
   13.78527832  120.72000122    0.17000000    2.75000000
   13.78833389  114.07399750    0.19000000    2.75000000
   13.79166698  114.32199860    0.17000000    2.75000000
   13.79777813  114.32199860    0.19000000    2.75000000
   13.80166721  126.19499969    0.17000000    2.75000000
   13.80500031  122.20700073    0.17000000    2.75000000
   13.80833340  119.65799713    0.17000000    2.75000000
   13.81138897  120.63800049    0.17000000    2.75000000
   13.81472206  120.75800323    0.17000000    2.75000000
   13.81805515  124.45099640    0.17000000    2.75000000
   13.82111073  118.04399872    0.17000000    2.75000000
   13.82444477  115.61599731    0.17000000    2.75000000
   13.82777786  114.95099640    0.17000000    2.75000000
   13.83027744  122.98400116    0.17000000    2.75000000
   13.83166695  122.87300110    0.17000000    2.75000000
   13.83500004  117.91999817    0.17000000    2.75000000
   13.84083271  117.91999817    0.17000000    2.75000000
   13.84499931  113.60199738    0.17000000    2.75000000
   13.84805489  117.57599640    0.17000000    2.75000000
   13.85138893  115.77600098    0.17000000    2.75000000
   13.85472298  112.22899628    0.17000000    2.75000000
   13.85805607  120.29799652    0.17000000    2.75000000
   13.86111164  113.12999725    0.17000000    2.75000000
   13.86361122  122.75199890    0.17000000    2.75000000
   13.86500072  118.53900146    0.17000000    2.75000000
   13.86833382  117.81999969    0.17000000    2.75000000
   13.87166691  116.68000031    0.17000000    2.75000000
   13.87472248  119.47899628    0.17000000    2.75000000
   13.87805557  118.93299866    0.17000000    2.75000000
   13.88361073  118.93299866    0.15000001    2.75000000
   13.88777733  117.66600037    0.17000000    2.75000000
   13.89111137  118.50700378    0.17000000    2.75000000
   13.89416695  118.72100067    0.17000000    2.75000000
   13.89666653  119.75000000    0.17000000    2.75000000
   13.89805508  122.15499878    0.19000000    2.75000000
   13.90138817  119.90699768    0.17000000    2.75000000
   13.90444374  114.72499847    0.19000000    2.75000000
   13.90777779  118.78900146    0.19000000    2.75000000
   13.91111088  116.32099915    0.19000000    2.75000000
   13.91444397  115.28299713    0.19000000    2.73000002
   13.91777802  121.32800293    0.19000000    2.75000000
   13.92111111  118.43299866    0.19000000    2.75000000
   13.92611122  118.43299866    0.19000000    2.75000000
   13.93027782  116.77600098    0.19000000    2.75000000
   13.93333340  119.13099670    0.19000000    2.73000002
   13.93666649  125.43800354    0.17000000    2.75000000
   13.94000053  120.76200104    0.17000000    2.75000000
   13.94305515  118.68299866    0.19000000    2.75000000
   13.94638920  119.08100128    0.19000000    2.75000000
   13.94944477  114.26100159    0.17000000    2.76999998
   13.95277786  113.11699677    0.17000000    2.75000000
   13.95611095  115.89499664    0.17000000    2.75000000
   13.95916653  114.84899902    0.17000000    2.75000000
   13.96249962  117.13300323    0.17000000    2.76999998
   13.96305561  109.78800201    0.17000000    2.75000000
   13.96888828  109.78800201    0.17000000    2.75000000
   13.97305489  119.42700195    0.17000000    2.75000000
   13.97638798  113.56700134    0.17000000    2.75000000
   13.97972202  118.48699951    0.17000000    2.75000000
   13.98277760  119.29299927    0.17000000    2.76999998
   13.98611164  119.98999786    0.17000000    2.75000000
   13.98944473  121.83200073    0.17000000    2.75000000
   13.99250031  115.28700256    0.17000000    2.75000000
   13.99583340  115.91200256    0.17000000    2.75000000
   13.99666691  113.60299683    0.17000000    2.75000000
   13.99944496  123.32099915    0.17000000    2.75000000
   14.00277805  120.92099762    0.17000000    2.75000000
   14.00583363  116.77200317    0.17000000    2.75000000
   14.01194477  116.77200317    0.17000000    2.75000000
   14.01611137  121.26399994    0.17000000    2.75000000
   14.01916599  120.23999786    0.19000000    2.75000000
   14.02250004  120.36599731    0.19000000    2.75000000
   14.02583313  118.17299652    0.19000000    2.75000000
   14.02888870  117.94899750    0.20999999    2.75000000
   14.02999973  113.66200256    0.20999999    2.75000000
   14.03249931  116.93299866    0.19000000    2.75000000
   14.03583336  115.73899841    0.19000000    2.75000000
   14.03888893  113.65299988    0.20999999    2.76999998
   14.04222298  115.69599915    0.19000000    2.75000000
   14.04555607  114.33000183    0.19000000    2.75000000
   14.04861164  116.14199829    0.20999999    2.75000000
   14.05472279  116.14199829    0.20999999    2.75000000
   14.05888939  114.31900024    0.20999999    2.75000000
   14.06222248  119.93800354    0.19000000    2.75000000
   14.06333351  123.24800110    0.19000000    2.76999998
   14.06555557  115.80100250    0.20999999    2.76999998
   14.06888866  116.68399811    0.20999999    2.75000000
   14.07222176  114.00399780    0.19000000    2.75000000
   14.07527733  118.59500122    0.19000000    2.75000000
   14.07861137  113.53299713    0.19000000    2.76999998
   14.08166695  120.37400055    0.19000000    2.75000000
   14.08500004  120.03600311    0.19000000    2.75000000
   14.08833313  118.62899780    0.19000000    2.75000000
   14.09138870  133.83299255    0.19000000    2.75000000
   14.09749985  133.83299255    0.19000000    2.75000000
   14.10166740  141.60800171    0.19000000    2.75000000
   14.10500050  140.36700439    0.20999999    2.75000000
   14.10805607  130.16200256    0.20999999    2.75000000
   14.11138916  141.01899719    0.20999999    2.75000000
   14.11472225  146.92799377    0.20999999    2.75000000
   14.11777782  157.14799500    0.19000000    2.75000000
   14.12111092  142.50599670    0.20999999    2.75000000
   14.12444496  138.41000366    0.23000000    2.75000000
   14.12750053  149.50199890    0.23000000    2.75000000
   14.13000011  145.91000366    0.23000000    2.75000000
   14.13111115  143.62399292    0.23000000    2.75000000
   14.13444424  142.00599670    0.23000000    2.75000000
   14.14055538  142.00599670    0.23000000    2.75000000
   14.14444447  143.76699829    0.25000000    2.75000000
   14.14777756  140.68600464    0.28000000    2.75000000
   14.15111065  139.52999878    0.28000000    2.75000000
   14.15416622  142.05499268    0.23000000    2.75000000
   14.15749931  139.33700562    0.20999999    2.75000000
   14.16083336  143.92100525    0.25000000    2.75000000
   14.16333294  154.52499390    0.25000000    2.75000000
   14.16416645  151.75399780    0.25000000    2.75000000
   14.16750050  147.79299927    0.23000000    2.75000000
   14.17055607  149.06399536    0.25999999    2.75000000
   14.17388916  143.42799377    0.25999999    2.75000000
   14.17722225  139.35699463    0.25999999    2.75000000
   14.18333340  139.35699463    0.25999999    2.75000000
   14.18750000  168.37399292    0.25999999    2.75000000
   14.19055557  152.32699585    0.25999999    2.76999998
   14.19388866  158.24400330    0.28000000    2.75000000
   14.19666672  154.46400452    0.25999999    2.75000000
   14.19750023  161.60200500    0.25999999    2.76999998
   14.20083332  158.85000610    0.25000000    2.75000000
   14.20388889  165.09300232    0.25000000    2.76999998
   14.20722198  168.25799561    0.25999999    2.75000000
   14.21055508  180.68200684    0.25999999    2.76999998
   14.21361065  194.62500000    0.25000000    2.75000000
   14.21694374  203.98899841    0.23000000    2.75000000
   14.22027779  200.93699646    0.20999999    2.75000000
   14.22611046  200.93699646    0.20999999    2.75000000
   14.23027706  169.18299866    0.20999999    2.75000000
   14.23361111  201.57600403    0.19000000    2.75000000
   14.23694515  195.86999512    0.20999999    2.76999998
   14.24000072  205.48100281    0.19000000    2.75000000
   14.24333382  192.23800659    0.20999999    2.75000000
   14.24638939  219.83500671    0.20999999    2.75000000
   14.24972248  194.79499817    0.20999999    2.75000000
   14.25305557  194.40699768    0.20999999    2.75000000
   14.25611115  208.54600525    0.20999999    2.75000000
   14.25944424  194.97500610    0.20999999    2.75000000
   14.26277733  202.94400024    0.23000000    2.75000000
   14.26333332  189.58900452    0.20999999    2.76999998
   14.26888847  189.58900452    0.23000000    2.75000000
   14.27305508  176.44099426    0.20999999    2.75000000
   14.27638817  175.95300293    0.20999999    2.75000000
   14.27944374  187.58099365    0.20999999    2.75000000
   14.28277779  218.46200562    0.20999999    2.80999994
   14.28611183  189.96800232    0.20999999    2.80999994
   14.28916740  191.35200500    0.23000000    2.80999994
   14.29250050  181.06700134    0.23000000    2.80999994
   14.29583359  191.28900146    0.25000000    2.80999994
   14.29666710  188.73899841    0.25000000    2.80999994
   14.29916668  187.34599304    0.25999999    2.80999994
   14.30249977  175.62899780    0.30000001    2.80999994
   14.30583382  181.04699707    0.31999999    2.82999992
   14.31194496  181.04699707    0.36000001    2.80999994
   14.31583309  162.51199341    0.40000001    2.78999996
   14.31916618  193.14399719    0.40000001    2.78999996
   14.32250023  171.80900574    0.50000000    2.78999996
   14.32555580  178.56500244    0.56999999    2.78999996
   14.32888889  163.82499695    0.61000001    2.78999996
   14.32999992  178.47099304    0.58999997    2.78999996
   14.33249950  179.58000183    0.55000001    2.80999994
   14.33583260  190.08500671    0.50000000    2.78999996
   14.33916664  169.99600220    0.50000000    2.78999996
   14.34222221  178.50000000    0.47999999    2.80999994
   14.34555531  178.35699463    0.36000001    2.78999996
   14.34861088  172.70399475    0.36000001    2.78999996
   14.35472298  172.70399475    0.34000000    2.80999994
   14.35888958  167.79899597    0.31999999    2.80999994
   14.36194515  181.12100220    0.31999999    2.78999996
   14.36333370  175.61099243    0.31999999    2.80999994
   14.36555576  174.47200012    0.30000001    2.80999994
   14.36888885  184.72500610    0.31999999    2.80999994
   14.37222195  172.12500000    0.30000001    2.82999992
   14.37527752  174.50000000    0.30000001    2.82999992
   14.37861156  184.06300354    0.30000001    2.80999994
   14.38166714  187.43299866    0.28000000    2.82999992
   14.38500023  193.78500366    0.30000001    2.80999994
   14.38833332  172.52499390    0.30000001    2.80999994
   14.39138889  182.36799622    0.30000001    2.82999992
   14.39750004  182.36799622    0.30000001    2.82999992
   14.40166664  157.27099609    0.31999999    2.80999994
   14.40499973  169.18200684    0.30000001    2.80999994
   14.40805531  172.84199524    0.30000001    2.82999992
   14.41138840  172.97999573    0.28000000    2.80999994
   14.41444397  168.20300293    0.28000000    2.80999994
   14.41777802  172.54200745    0.25999999    2.82999992
   14.51805496   -1.00000000   -1.00000000   -1.00000000
   14.63888836   -1.00000000   -1.00000000   -1.00000000
   14.74583340   -1.00000000   -1.00000000   -1.00000000
   14.80333328   75.71720123    0.38000000    2.75000000
   14.80666733  127.01100159    0.38000000    2.80999994
   14.81000042  125.06700134    0.38000000    2.80999994
   14.81333351  129.14100647    0.44000000    2.80999994
   14.81666660  123.25199890    0.44000000    2.82999992
   14.81972218  122.32599640    0.44000000    2.82999992
   14.82388878  122.32599640    0.40000001    2.82999992
   14.82805538  121.23999786    0.36000001    2.82999992
   14.83138847  128.93800354    0.34000000    2.82999992
   14.83444405  123.50700378    0.34000000    2.80999994
   14.83666611  124.24199677    0.38000000    2.80999994
   14.83805561  124.43399811    0.38000000    2.80999994
   14.84138870  120.78600311    0.38000000    2.80999994
   14.84444427  120.59300232    0.38000000    2.80999994
   14.84777737  124.70999908    0.36000001    2.80999994
   14.85083389  119.25399780    0.31999999    2.82999992
   14.85416698  121.42299652    0.31999999    2.80999994
   14.85750008  121.56700134    0.34000000    2.80999994
   14.86055565  123.35700226    0.31999999    2.80999994
   14.86666679  123.35700226    0.30000001    2.82999992
   14.87083340  117.37999725    0.25999999    2.82999992
   14.87416649  122.47000122    0.25999999    2.82999992
   14.87722206  121.53299713    0.25999999    2.82999992
   14.88083363  123.70099640    0.25999999    2.82999992
   14.88416672  118.99900055    0.25000000    2.82999992
   14.88722229  115.68699646    0.23000000    2.82999992
   14.89055538  123.16300201    0.23000000    2.82999992
   14.89388847  126.36799622    0.23000000    2.82999992
   14.89694405  125.07499695    0.23000000    2.82999992
   14.90027714  127.56700134    0.20999999    2.82999992
   14.90333271  120.26300049    0.23000000    2.82999992
   14.90388870  125.77500153    0.23000000    2.82999992
   14.90972137  125.77500153    0.23000000    2.82999992
   14.91361046  117.64299774    0.23000000    2.80999994
   14.91694450  116.90499878    0.23000000    2.82999992
   14.92027855  121.05100250    0.25999999    2.82999992
   14.92333412  114.70400238    0.25999999    2.82999992
   14.92666721  124.14499664    0.28000000    2.89000010
   14.93000031  121.19200134    0.36000001    2.89000010
   14.93305588  124.05999756    0.38000000    2.86999989
   14.93638897  118.08399963    0.40000001    2.86999989
   14.93666649  119.01799774    0.40000001    2.86999989
   14.93972206  120.67400360    0.41999999    2.86999989
   14.94305515  111.34600067    0.40000001    2.86999989
   14.94611073  116.70800018    0.36000001    2.89000010
   14.95249939  116.70800018    0.36000001    2.86999989
   14.95666695  116.11199951    0.34000000    2.89000010
   14.95972157  121.44499969    0.34000000    2.89000010
   14.96305561  123.63500214    0.30000001    2.89000010
   14.96638870  122.95700073    0.28000000    2.86999989
   14.96944427  120.21199799    0.28000000    2.89000010
   14.97027779  123.62899780    0.25999999    2.89000010
   14.97305489  115.80699921    0.25999999    2.89000010
   14.97638798  116.02999878    0.25999999    2.89000010
   14.97944355  115.79599762    0.25999999    2.89000010
   14.98277760  119.73100281    0.25999999    2.89000010
   14.98611164  120.50000000    0.28000000    2.89000010
   14.98916721  120.54199982    0.28000000    2.89000010
   14.99527836  120.54199982    0.30000001    2.89000010
   14.99944496  120.86100006    0.28000000    2.86999989
   15.00249958  115.14800262    0.28000000    2.89000010
   15.00361156  117.88500214    0.28000000    2.89000010
   15.00611115  116.28199768    0.30000001    2.86999989
   15.00944424  114.01599884    0.28000000    2.89000010
   15.01249981  110.84700012    0.28000000    2.89000010
   15.01583290  117.76599884    0.28000000    2.86999989
   15.01916599  121.38200378    0.28000000    2.86999989
   15.02222157  117.27200317    0.30000001    2.89000010
   15.02555561  125.55799866    0.30000001    2.86999989
   15.02888870  118.89199829    0.30000001    2.89000010
   15.03194427  120.95500183    0.31999999    2.89000010
   15.03805637  120.95500183    0.28000000    2.89000010
   15.04222298  122.92600250    0.31999999    2.89000010
   15.04555607  117.01100159    0.31999999    2.86999989
   15.04861164  116.56500244    0.30000001    2.89000010
   15.05194473  117.79599762    0.30000001    2.86999989
   15.05527782  124.99900055    0.31999999    2.86999989
   15.05833340  111.35600281    0.30000001    2.89000010
   15.06166649  118.55400085    0.30000001    2.89000010
   15.06500053  119.48699951    0.31999999    2.86999989
   15.06805515  113.17299652    0.30000001    2.86999989
   15.07027817  115.20899963    0.30000001    2.86999989
   15.07166672  116.98100281    0.28000000    2.86999989
   15.07499981  118.03600311    0.28000000    2.89000010
   15.08111095  118.03600311    0.28000000    2.89000010
   15.08500004  118.76399994    0.28000000    2.89000010
   15.08833313  124.12999725    0.28000000    2.89000010
   15.09166622  124.85199738    0.25999999    2.89000010
   15.09472179  119.77400208    0.25999999    2.89000010
   15.09805489  125.12500000    0.25999999    2.89000010
   15.10111141  120.30899811    0.25999999    2.89000010
   15.10361195  119.63300323    0.25999999    2.89000010
   15.10472298  124.42099762    0.25999999    2.89000010
   15.10805607  121.40000153    0.25999999    2.89000010
   15.11138916  118.99500275    0.25999999    2.89000010
   15.11444473  115.69899750    0.28000000    2.89000010
   15.11777782  113.53299713    0.28000000    2.89000010
   15.12388897  113.53299713    0.28000000    2.89000010
   15.12805557  112.10199738    0.28000000    2.89000010
   15.13111115  112.43800354    0.25999999    2.86999989
   15.13444424  115.61499786    0.28000000    2.89000010
   15.13694477  116.22499847    0.28000000    2.89000010
   15.13805580  119.53900146    0.28000000    2.89000010
   15.14138889  114.32199860    0.28000000    2.89000010
   15.14444447  118.28600311    0.25999999    2.86999989
   15.14777756  115.83100128    0.25000000    2.89000010
   15.15111065  116.47200012    0.25999999    2.89000010
   15.15416622  115.29900360    0.25000000    2.89000010
   15.15749931  123.47899628    0.25000000    2.89000010
   15.16083336  124.33300018    0.25999999    2.89000010
   15.16666698  124.33300018    0.25999999    2.89000010
   15.17083359  120.49299622    0.25999999    2.89000010
   15.17388916  123.18900299    0.25999999    2.89000010
   15.17722225  123.74800110    0.25999999    2.89000010
   15.18055630  117.74199677    0.25000000    2.89000010
   15.18361092  118.15000153    0.25000000    2.89000010
   15.18694496  122.83100128    0.25000000    2.89000010
   15.19027805  117.40599823    0.25000000    2.89000010
   15.19333363  123.55000305    0.25000000    2.89000010
   15.19666672  119.99900055    0.25000000    2.89000010
   15.19972229  121.00700378    0.25000000    2.91000009
   15.20305538  121.54699707    0.25000000    2.91000009
   15.20361137  118.23000336    0.25000000    2.89000010
   15.20944405  118.23000336    0.25000000    2.91000009
   15.21361065  117.35900116    0.25000000    2.89000010
   15.21694374  119.15100098    0.25000000    2.89000010
   15.21999931  117.94000244    0.25000000    2.89000010
   15.22333336  116.21499634    0.25999999    2.89000010
   15.22666645  110.11900330    0.25000000    2.89000010
   15.22999954  120.18000031    0.25000000    2.89000010
   15.23305511  120.36699677    0.25999999    2.91000009
   15.23638916  116.22699738    0.25000000    2.89000010
   15.23694515  117.81099701    0.25000000    2.91000009
   15.23972225  116.03299713    0.25000000    2.91000009
   15.24305534  118.58499908    0.25000000    2.89000010
   15.24638939  118.59300232    0.25000000    2.91000009
   15.25249958  118.59300232    0.25000000    2.89000010
   15.25638866  118.72299957    0.25000000    2.89000010
   15.25972176  119.92400360    0.25000000    2.89000010
   15.26305580  119.06900024    0.25000000    2.89000010
   15.26611137  122.49900055    0.25000000    2.89000010
   15.26944447  120.14299774    0.25999999    2.91000009
   15.27027798  125.28600311    0.25000000    2.91000009
   15.27305508  126.88899994    0.25999999    2.89000010
   15.27611065  125.93499756    0.25000000    2.91000009
   15.27944374  119.60199738    0.25999999    2.91000009
   15.28249931  119.89099884    0.25999999    2.89000010
   15.28583336  118.35399628    0.25999999    2.89000010
   15.28916740  113.17199707    0.25999999    2.89000010
   15.29527855  113.17199707    0.25999999    2.89000010
   15.29944515  114.72699738    0.25999999    2.89000010
   15.30249977  119.49800110    0.25999999    2.89000010
   15.30361176  115.68399811    0.25999999    2.91000009
   15.30638885  112.58599854    0.25999999    2.89000010
   15.30944443  109.40599823    0.25000000    2.89000010
   15.31277752  119.13600159    0.25000000    2.91000009
   15.31611156  113.09400177    0.25000000    2.89000010
   15.31916618  108.78600311    0.25000000    2.89000010
   15.32250023  106.47399902    0.25999999    2.89000010
   15.32555580  108.34100342    0.25000000    2.89000010
   15.32888889  119.69999695    0.25000000    2.91000009
   15.33222198  120.19400024    0.25000000    2.89000010
   15.33805561  120.19400024    0.25999999    2.91000009
   15.34222221  117.65000153    0.25999999    2.89000010
   15.34527779  114.44499969    0.25999999    2.89000010
   15.34861088  116.82099915    0.28000000    2.89000010
   15.35194492  121.09600067    0.28000000    2.89000010
   15.35500050  114.37999725    0.28000000    2.91000009
   15.35833359  120.75700378    0.28000000    2.89000010
   15.36166668  120.50399780    0.30000001    2.89000010
   15.36472225  119.33899689    0.28000000    2.89000010
   15.36805534  117.81600189    0.28000000    2.89000010
   15.37027836  116.61100006    0.28000000    2.89000010
   15.37166691  109.14399719    0.28000000    2.91000009
   15.37472248  109.09899902    0.28000000    2.91000009
   15.38083363  109.09899902    0.28000000    2.89000010
   15.38500023  122.11799622    0.28000000    2.89000010
   15.38833332  124.82499695    0.28000000    2.89000010
   15.39166641  108.67400360    0.25999999    2.89000010
   15.39472198  115.13500214    0.28000000    2.91000009
   15.39805508  115.80300140    0.28000000    2.89000010
   15.40138817  117.91999817    0.25999999    2.89000010
   15.40361118  117.39399719    0.28000000    2.89000010
   15.40499973  115.27100372    0.25999999    2.89000010
   15.40805531  113.86100006    0.28000000    2.91000009
   15.41138840  117.86199951    0.25999999    2.89000010
   15.41444397  119.08899689    0.25999999    2.91000009
   15.41777802  117.71600342    0.28000000    2.89000010
   15.42361164  117.71600342    0.25999999    2.89000010
   15.42777824  111.26000214    0.25999999    2.89000010
   15.43111134  126.29699707    0.28000000    2.89000010
   15.43444443  122.57800293    0.25999999    2.91000009
   15.43694496  118.37500000    0.25999999    2.91000009
   15.43805599  115.48699951    0.25999999    2.91000009
   15.44138908  112.69499969    0.25999999    2.91000009
   15.44472218  114.54699707    0.25999999    2.91000009
   15.44805527  115.81199646    0.25000000    2.91000009
   15.45111084  114.69799805    0.25000000    2.89000010
   15.45444393  117.81900024    0.25000000    2.91000009
   15.45777798  115.13800049    0.25999999    2.89000010
   15.46083355  113.81900024    0.25999999    2.91000009
   15.46666622  113.81900024    0.25999999    2.89000010
   15.47083282  120.29699707    0.25999999    2.91000009
   15.47388840  114.52700043    0.25999999    2.91000009
   15.47722149  113.05500031    0.25999999    2.91000009
   15.48027706  115.78399658    0.25999999    2.91000009
   15.48361111  114.70999908    0.25999999    2.89000010
   15.48694515  119.79699707    0.25999999    2.89000010
   15.49000072  113.26699829    0.25999999    2.91000009
   15.49333382  121.65200043    0.28000000    2.89000010
   15.49666691  116.02700043    0.25999999    2.89000010
   15.49972248  119.86000061    0.28000000    2.89000010
   15.50305557  111.83000183    0.28000000    2.91000009
   15.50361156  119.47100067    0.28000000    2.89000010
   15.50944424  119.47100067    0.28000000    2.91000009
   15.51361084  122.45600128    0.28000000    2.89000010
   15.51666641  109.18199921    0.28000000    2.89000010
   15.51999950  116.57299805    0.28000000    2.91000009
   15.52333355  113.06199646    0.28000000    2.89000010
   15.52638817  117.81500244    0.28000000    2.89000010
   15.52972221  112.26999664    0.28000000    2.91000009
   15.53305531  106.92600250    0.28000000    2.91000009
   15.53611183  116.18099976    0.28000000    2.91000009
   15.53694534  112.61799622    0.28000000    2.89000010
   15.53972244  110.25299835    0.28000000    2.91000009
   15.54277802  113.04900360    0.28000000    2.91000009
   15.54611111  115.80000305    0.28000000    2.89000010
   15.55222225  115.80000305    0.30000001    2.89000010
   15.55638885  116.71800232    0.30000001    2.91000009
   15.55972195  116.91300201    0.30000001    2.91000009
   15.56305599  117.04399872    0.28000000    2.89000010
   15.56611156  122.62999725    0.28000000    2.91000009
   15.56944466  116.88800049    0.30000001    2.89000010
   15.57027817  119.22799683    0.28000000    2.91000009
   15.57305527  120.29299927    0.30000001    2.89000010
   15.57611084  110.99199677    0.30000001    2.89000010
   15.57944393  116.35099792    0.30000001    2.91000009
   15.58277798  116.37500000    0.30000001    2.91000009
   15.58583260  123.23000336    0.30000001    2.89000010
   15.58916664  122.18199921    0.30000001    2.91000009
   15.59499931  122.18199921    0.30000001    2.89000010
   15.59916592  113.61599731    0.30000001    2.89000010
   15.60277843  112.13600159    0.30000001    2.91000009
   15.60361195  112.42700195    0.30000001    2.91000009
   15.60638905  114.42199707    0.30000001    2.89000010
   15.60944462  114.62999725    0.30000001    2.89000010
   15.61277771  121.60500336    0.28000000    2.89000010
   15.61611176  123.41600037    0.28000000    2.89000010
   15.61916637  114.10099792    0.30000001    2.89000010
   15.62250042  120.29900360    0.31999999    2.89000010
   15.62555599  119.63500214    0.34000000    2.89000010
   15.62888908  116.19499969    0.31999999    2.89000010
   15.63222218  113.52300262    0.31999999    2.89000010
   15.63805580  113.52300262    0.31999999    2.89000010
   15.64222240  115.61900330    0.31999999    2.91000009
   15.64555550  113.70099640    0.30000001    2.89000010
   15.64861107  112.86299896    0.36000001    2.89000010
   15.65194416  111.39499664    0.34000000    2.89000010
   15.65499973  111.16200256    0.34000000    2.89000010
   15.65833282  110.10399628    0.34000000    2.89000010
   15.66166592  114.25800323    0.34000000    2.89000010
   15.66472149  114.82599640    0.31999999    2.91000009
   15.66805553  117.71099854    0.31999999    2.89000010
   15.67027855  112.24500275    0.31999999    2.91000009
   15.67166710  113.92600250    0.31999999    2.91000009
   15.67472267  114.69400024    0.30000001    2.89000010
   15.68083382  114.69400024    0.31999999    2.89000010
   15.68500042  116.86699677    0.31999999    2.89000010
   15.68833351  111.71499634    0.31999999    2.91000009
   15.69138908  114.55999756    0.44000000    2.94000006
   15.69472218  114.09300232    4.90999985    2.91000009
   15.69777775  118.61299896    4.90999985    2.91000009
   15.70111084  119.53900146    4.90999985    2.89000010
   15.70361137  106.83200073    4.90999985    2.89000010
   15.70472240  110.79599762    4.90999985    2.86999989
   15.70777798  118.46099854    4.90999985    2.86999989
   15.71111107  125.00399780    4.90999985    2.89000010
   15.71444416  118.39099884    4.90999985    2.84999990
   15.71749973  117.81700134    4.90999985    2.86999989
   15.72361088  117.81700134    4.90999985    2.86999989
   15.72777748  119.64600372    4.90999985    2.86999989
   15.73111057  112.35500336    4.90999985    2.86999989
   15.73416710  109.94300079    4.90999985    2.86999989
   15.73694515  121.55500031    4.90999985    2.84999990
   15.73805618  119.42099762    4.90999985    2.86999989
   15.74111176  118.38099670    4.90999985    2.86999989
   15.74444485  123.65399933    4.90999985    2.86999989
   15.74777794  122.05200195    4.90999985    2.86999989
   15.75083351  119.58599854    4.90999985    2.86999989
   15.75416660  118.12999725    4.90999985    2.84999990
   15.75722218  123.28399658    4.90999985    2.86999989
   15.76055527  119.93199921    4.90999985    2.84999990
   15.76666641  119.93199921    4.90999985    2.86999989
   15.77055550  123.79299927    4.90999985    2.86999989
   15.77388859  121.27500153    4.90999985    2.86999989
   15.77722168  125.39199829    4.90999985    2.86999989
   15.78027725  121.37899780    4.90999985    2.86999989
   15.78361130  118.59799957    4.90999985    2.86999989
   15.78666687  118.11499786    4.90999985    2.86999989
   15.79000092  119.38999939    4.90999985    2.84999990
   15.79333401  118.71199799    4.90999985    2.86999989
   15.79638958  112.09700012    4.90999985    2.84999990
   15.79972267  112.71900177    4.90999985    2.84999990
   15.80305576  118.46399689    4.90999985    2.84999990
   15.80361176  119.25199890    4.90999985    2.86999989
   15.82444477  119.25199890    4.90999985    2.84999990
   15.82833290  120.93199921    4.90999985    2.80999994
   15.83166695  117.92099762    1.03999996    2.84999990
   15.83500004  111.84400177    1.01999998    2.84999990
   15.83694458  117.85299683    1.05999994    2.84999990
   15.83861065  123.74800110    1.01999998    2.82999992
   15.84166622  111.77799988    1.00000000    2.84999990
   15.84499931  115.21399689    1.14999998    2.82999992
   15.84833336  112.72499847    1.21000004    2.82999992
   15.85138893  120.56800079    1.63000000    2.82999992
   15.85472298  121.54100037    1.55999994    2.82999992
   15.85805607  118.09999847    1.73000002    2.82999992
   15.86111164  119.41500092    1.83000004    2.82999992
   15.86722279  119.41500092    1.71000004    2.82999992
   15.87111092  111.45899963    1.38000000    2.82999992
   15.87444496  122.81500244    1.38000000    2.84999990
   15.87777805  124.20200348    1.34000003    2.80999994
   15.88083363  116.24600220    1.33000004    2.82999992
   15.88416672  118.10800171    1.36000001    2.84999990
   15.88749981  111.08300018    1.34000003    2.82999992
   15.89055538  111.70800018    1.34000003    2.82999992
   15.89388847  109.98300171    1.34000003    2.82999992
   15.89694405  109.93399811    1.36000001    2.82999992
   15.90027714  108.53600311    1.30999994    2.82999992
   15.90361118  106.61499786    1.28999996    2.82999992
   15.90388870  103.65599823    1.28999996    2.82999992
   15.90999985  103.65599823    1.28999996    2.82999992
   15.91416645  109.98200226    1.01999998    2.82999992
   15.91722298  111.71099854    1.09000003    2.82999992
   15.92055607  111.81700134    0.98000002    2.84999990
   15.92361164  110.78399658    1.09000003    2.82999992
   15.92694473  107.53399658    1.13000000    2.84999990
   15.93027782  112.88999939    1.16999996    2.84999990
   15.93333340  111.77200317    1.14999998    2.82999992
   15.93666649  115.34899902    1.21000004    2.82999992
   15.93750000  110.56400299    1.23000002    2.82999992
   15.94027805  113.01799774    1.19000006    2.84999990
   15.94361115  109.14199829    0.95999998    2.82999992
   15.94694424  108.45099640    0.98000002    2.84999990
   15.95277786  108.45099640    1.00000000    2.82999992
   15.95694447  110.60500336    0.98000002    2.84999990
   15.96000004  112.18099976    0.95999998    2.82999992
   15.96333313  113.19300079    0.98000002    2.84999990
   15.96666622  105.74299622    1.16999996    2.84999990
   15.96972179  101.39900208    1.09000003    2.84999990
   15.97083282  102.09400177    1.05999994    2.84999990
   15.97333336  110.38800049    1.00000000    2.84999990
   15.97666645  110.07900238    0.89999998    2.84999990
   15.97972202  106.74600220    0.81999999    2.86999989
   15.98305511  111.90899658    0.79000002    2.84999990
   15.98638916  104.70600128    0.70999998    2.86999989
   15.98944473  104.51599884    0.75000000    2.82999992
   15.99555588  104.51599884    0.79000002    2.84999990
   15.99972248  105.52600098    0.70999998    2.84999990
   16.00305557  109.90599823    0.70999998    2.82999992
   16.00416756  109.42099762    0.70999998    2.82999992
   16.00666618  110.55599976    0.70999998    2.82999992
   16.01000023  110.23400116    0.76999998    2.84999990
   16.01305580  117.57099915    0.75000000    2.84999990
   16.01638794  108.48300171    0.75000000    2.84999990
   16.01972198  107.87500000    0.73000002    2.82999992
   16.02277756  113.56199646    0.73000002    2.84999990
   16.02611160  105.83899689    0.75000000    2.82999992
   16.02944374  111.38500214    0.75000000    2.84999990
   16.03249931  111.73699951    0.76999998    2.84999990
   16.03833199  111.73699951    0.76999998    2.84999990
   16.04249954  107.50700378    0.81999999    2.84999990
   16.04583359  110.92700195    0.83999997    2.86999989
   16.04916573  103.04100037    0.86000001    2.84999990
   16.05222130  106.87999725    0.86000001    2.84999990
   16.05555534  107.15000153    0.88000000    2.84999990
   16.05861092  104.62200165    0.94000000    2.84999990
   16.06194305  108.60099792    1.00000000    2.82999992
   16.06527710  110.65599823    0.98000002    2.84999990
   16.06833458  111.10500336    0.92000002    2.84999990
   16.07083511  106.73100281    0.92000002    2.84999990
   16.07194519  110.80400085    0.92000002    2.82999992
   16.07555580  111.14600372    0.92000002    2.84999990
   16.08139038  111.14600372    0.98000002    2.84999990
   16.08555603  106.84999847    1.01999998    2.82999992
   16.08861160  105.91600037    1.03999996    2.82999992
   16.09194565  113.51599884    1.11000001    2.82999992
   16.09500122  112.74199677    1.21000004    2.84999990
   16.09833336  112.51399994    1.23000002    2.84999990
   16.10166740  110.82700348    1.25000000    2.82999992
   16.10416794  111.31500244    1.25000000    2.82999992
   16.10499954  113.85700226    1.21000004    2.82999992
   16.10833359  117.00399780    1.36000001    2.84999990
   16.11138916  113.84200287    1.36000001    2.84999990
   16.11472321  111.40200043    1.48000002    2.82999992
   16.11805534  112.46199799    1.44000006    2.82999992
   16.12416649  112.46199799    1.30999994    2.84999990
   16.12833405  110.51999664    1.11000001    2.82999992
   16.13138962  117.15200043    0.92000002    2.82999992
   16.13472176  109.41600037    0.94000000    2.82999992
   16.13750076  116.21499634    0.94000000    2.82999992
   16.13833237  117.79499817    0.89999998    2.84999990
   16.14166641  116.98000336    0.89999998    2.84999990
   16.14472198  109.23899841    0.89999998    2.84999990
   16.14805603  114.38500214    0.88000000    2.82999992
   16.15138817  112.73300171    0.94000000    2.82999992
   16.15444374  108.39800262    1.01999998    2.82999992
   16.15777779  108.91100311    1.05999994    2.82999992
   16.16110992  114.34200287    1.14999998    2.82999992
   16.16694450  114.34200287    1.21000004    2.84999990
   16.17111015  114.60800171    1.34000003    2.84999990
   16.17444420  108.00299835    1.25000000    2.82999992
   16.17749977  112.62300110    1.25000000    2.82999992
   16.18083191  112.43699646    1.14999998    2.84999990
   16.18416595  110.38700104    1.07000005    2.82999992
   16.18722153  115.08999634    1.07000005    2.82999992
   16.19055557  108.46600342    0.92000002    2.82999992
   16.19388771  108.89199829    0.79000002    2.84999990
   16.19694328  109.61699677    0.79000002    2.84999990
   16.20027924  113.72899628    0.80000001    2.84999990
   16.20333481  117.08799744    0.81999999    2.82999992
   16.20416832  115.44200134    0.81999999    2.82999992
   16.20972252  115.44200134    0.80000001    2.82999992
   16.21389008  120.85199738    0.81999999    2.84999990
   16.21722221  113.53500366    0.83999997    2.82999992
   16.22055626  111.16400146    0.83999997    2.84999990
   16.22361183  113.19300079    0.81999999    2.84999990
   16.22694588  114.93900299    0.81999999    2.84999990
   16.23027802  110.85800171    0.79000002    2.82999992
   16.23333359  110.36199951    0.70999998    2.84999990
   16.23666763  118.02100372    0.69000000    2.84999990
   16.23750114  118.27500153    0.69000000    2.84999990
   16.23999977  116.24500275    0.67000002    2.82999992
   16.24333382  111.48699951    0.63000000    2.84999990
   16.24666786  115.96600342    0.61000001    2.84999990
   16.25277710  115.96600342    0.56999999    2.84999990
   16.25666618  108.62100220    0.56999999    2.84999990
   16.26000023  112.91899872    0.56999999    2.84999990
   16.26333427  111.75700378    0.58999997    2.84999990
   16.26638794  110.18000031    0.56999999    2.84999990
   16.26972198  110.97299957    0.56999999    2.84999990
   16.27083397  108.64900208    0.56999999    2.84999990
   16.27333260  110.18000031    0.55000001    2.84999990
   16.27666664  113.03299713    0.55000001    2.84999990
   16.28000069  111.52700043    0.55000001    2.84999990
   16.28305435  111.23899841    0.55000001    2.84999990
   16.28666687  109.20500183    0.56999999    2.84999990
   16.28999901  110.17700195    0.58999997    2.84999990
   16.29555511  110.17700195    0.63000000    2.82999992
   16.29972076  109.58599854    0.67000002    2.84999990
   16.30305481  109.70500183    0.69000000    2.84999990
   16.30416679  109.98300171    0.70999998    2.84999990
   16.30638885  100.21499634    0.70999998    2.84999990
   16.30972099  113.42400360    0.73000002    2.82999992
   16.31305504  104.87899780    0.69000000    2.82999992
   16.31611061  114.34700012    0.64999998    2.84999990
   16.31944466  108.63700104    0.61000001    2.84999990
   16.32250023  114.31800079    0.63000000    2.86999989
   16.32583427  105.73100281    0.63000000    2.84999990
   16.32916832  111.85700226    0.63000000    2.84999990
   16.33222389  119.66200256    0.63000000    2.84999990
   16.33833313  119.66200256    0.64999998    2.86999989
   16.34250069  117.62799835    0.64999998    2.86999989
   16.34583473  109.38099670    0.70999998    2.82999992
   16.34889030  109.31900024    0.81999999    2.82999992
   16.35222244  111.98799896    0.86000001    2.82999992
   16.35555649  112.76100159    0.86000001    2.84999990
   16.35861206  110.54100037    0.89999998    2.84999990
   16.36222267  110.82800293    0.95999998    2.84999990
   16.36527824  109.86799622    1.16999996    2.84999990
   16.36861038  109.09400177    1.16999996    2.84999990
   16.37083435  107.65399933    1.34000003    2.82999992
   16.37194443  112.50000000    1.34000003    2.82999992
   16.37527847  108.31999969    1.58000004    2.80999994
   16.38138962  108.31999969    1.75000000    2.80999994
   16.38527679  103.23200226    1.80999994    2.82999992
   16.38861084  107.25599670    1.51999998    2.80999994
   16.39194489  114.14800262    1.13000000    2.82999992
   16.39500046  114.34799957    1.05999994    2.82999992
   16.39833260  112.31099701    1.05999994    2.82999992
   16.40166664  109.60600281    1.07000005    2.84999990
   16.40416718  112.36799622    1.03999996    2.82999992
   16.40499878  112.21299744    1.03999996    2.82999992
   16.40833282  111.05000305    1.01999998    2.84999990
   16.41166687  112.38099670    0.80000001    2.84999990
   16.41472244  113.61199951    0.73000002    2.82999992
   16.41805458  114.38899994    0.67000002    2.84999990
   16.42416573  114.38899994    0.64999998    2.84999990
   16.42833328  113.80000305    0.64999998    2.82999992
   16.43166542  112.02799988    0.67000002    2.84999990
   16.43499947  115.87100220    0.67000002    2.84999990
   16.43750000  114.11699677    0.67000002    2.84999990
   16.43833160  117.15200043    0.67000002    2.84999990
   16.44166565  110.97200012    0.67000002    2.84999990
   16.44499969  106.85500336    0.69000000    2.84999990
   16.44805527  110.69499969    0.64999998    2.84999990
   16.45138931  114.96499634    0.63000000    2.84999990
   16.45444489  119.03099823    0.63000000    2.84999990
   16.45777893  116.88200378    0.64999998    2.82999992
   16.46111107  116.42600250    0.69000000    2.84999990
   16.46694565  116.42600250    0.69000000    2.82999992
   16.47111130  111.48799896    0.69000000    2.84999990
   16.47444534  113.23100281    0.73000002    2.84999990
   16.47750092  112.74600220    0.73000002    2.84999990
   16.48083305  112.93800354    0.76999998    2.84999990
   16.48388863  119.97899628    0.79000002    2.82999992
   16.48722267  118.36900330    0.76999998    2.84999990
   16.49055672  112.86100006    0.75000000    2.84999990
   16.49361229  114.33000183    0.83999997    2.84999990
   16.49694443  113.32800293    0.83999997    2.84999990
   16.50027847  111.76399994    0.76999998    2.84999990
   16.50333405  113.42099762    0.76999998    2.84999990
   16.50416756  110.90499878    0.76999998    2.84999990
   16.50972176  110.90499878    0.80000001    2.84999990
   16.51388931  116.93199921    0.76999998    2.84999990
   16.51722145  116.50399780    0.75000000    2.84999990
   16.52027702  112.56400299    0.75000000    2.84999990
   16.52361107  117.74900055    0.80000001    2.84999990
   16.52694511  119.46800232    0.89999998    2.84999990
   16.53000069  114.89099884    0.88000000    2.84999990
   16.53333282  115.96299744    0.88000000    2.84999990
   16.53666687  108.89499664    0.89999998    2.84999990
   16.53750038  116.80400085    0.89999998    2.84999990
   16.54055595  114.02700043    0.94000000    2.84999990
   16.54361153  120.49900055    0.98000002    2.82999992
   16.54694366  114.13300323    1.00000000    2.82999992
   16.55277634  114.13300323    0.89999998    2.84999990
   16.55666542  118.30200195    0.89999998    2.84999990
   16.55999947  112.00499725    0.88000000    2.84999990
   16.56333351  116.70600128    0.81999999    2.84999990
   16.56638718  116.57900238    0.76999998    2.84999990
   16.56972313  115.26899719    0.76999998    2.84999990
   16.57083511  111.21700287    0.76999998    2.84999990
   16.57305717  112.54900360    0.81999999    2.84999990
   16.57638931  115.74099731    0.88000000    2.84999990
   16.57972336  113.65699768    0.88000000    2.84999990
   16.58277893  114.22000122    1.03999996    2.84999990
   16.58611107  117.01399994    1.25000000    2.84999990
   16.58944511  115.27100372    1.13000000    2.82999992
   16.59555626  115.27100372    1.00000000    2.84999990
   16.59972191  108.68499756    0.98000002    2.84999990
   16.60277748  113.63300323    0.98000002    2.84999990
   16.60416794  113.71600342    0.92000002    2.84999990
   16.60666656  114.89299774    0.92000002    2.84999990
   16.60972214  111.04199982    1.03999996    2.84999990
   16.61305618  114.62799835    1.11000001    2.82999992
   16.61611176  110.89199829    1.11000001    2.82999992
   16.61944389  111.51100159    1.11000001    2.82999992
   16.62277794  114.39299774    1.09000003    2.84999990
   16.62583351  109.27899933    1.13000000    2.84999990
   16.62916756  109.62100220    1.14999998    2.84999990
   16.63249969  110.43099976    1.14999998    2.84999990
   16.63833237  110.43099976    1.03999996    2.84999990
   16.64249992  115.71800232    0.95999998    2.84999990
   16.64583397  114.84899902    0.83999997    2.84999990
   16.64888954  115.69999695    0.86000001    2.82999992
   16.65222168  107.17700195    0.92000002    2.84999990
   16.65527725  108.53299713    0.92000002    2.84999990
   16.65861130  113.28600311    0.92000002    2.84999990
   16.66194344  108.58599854    1.00000000    2.84999990
   16.66499901  110.46600342    0.95999998    2.84999990
   16.66833305  114.91799927    0.95999998    2.84999990
   16.67083359  110.36199951    1.01999998    2.84999990
   16.67194366  118.71099854    1.01999998    2.84999990
   16.67499924  109.78500366    0.98000002    2.84999990
   16.68111038  109.78500366    0.86000001    2.84999990
   16.68527603  116.57499695    1.23000002    2.82999992
   16.68861008  112.97499847    1.23000002    2.82999992
   16.69166565  114.77200317    1.25000000    2.82999992
   16.69499969  115.32700348    1.38000000    2.84999990
   16.69833183  113.80799866    1.19000006    2.82999992
   16.70138931  113.31999969    1.16999996    2.84999990
   16.70416832  110.30300140    1.25000000    2.84999990
   16.70527840  114.71199799    1.25000000    2.84999990
   16.70833397  110.77600098    1.21000004    2.84999990
   16.71166801  112.09500122    1.16999996    2.84999990
   16.71472359  115.59700012    1.16999996    2.84999990
   16.71805573  118.18699646    1.05999994    2.84999990
   16.72416687  118.18699646    0.92000002    2.82999992
   16.72805595  115.49500275    0.80000001    2.86999989
   16.73139000  115.33100128    0.76999998    2.84999990
   16.73472214  111.97899628    0.69000000    2.84999990
   16.73750114  104.29699707    0.69000000    2.84999990
   16.73833275  108.42900085    0.70999998    2.84999990
   16.74138832  111.27700043    0.70999998    2.84999990
   16.74472237  110.16300201    0.70999998    2.84999990
   16.74777794  114.31700134    0.70999998    2.86999989
   16.75111198  106.76100159    0.76999998    2.84999990
   16.75444412  106.98699951    0.79000002    2.84999990
   16.75749969  110.40399933    0.76999998    2.84999990
   16.76083374  112.93099976    0.75000000    2.84999990
   16.76694489  112.93099976    0.69000000    2.84999990
   16.77111053  116.65499878    0.67000002    2.84999990
   16.77416611  114.75099945    0.67000002    2.84999990
   16.77750015  117.29699707    0.64999998    2.84999990
   16.78083229  113.92600250    0.67000002    2.86999989
   16.78388786  113.79799652    0.73000002    2.84999990
   16.78722191  115.37500000    0.76999998    2.84999990
   16.79055595  113.93699646    0.80000001    2.84999990
   16.79361153  117.79799652    0.80000001    2.84999990
   16.79694366  110.66500092    0.88000000    2.84999990
   16.79999924  114.54000092    0.95999998    2.84999990
   16.80333328  117.31999969    0.92000002    2.84999990
   16.80416679  116.25000000    0.92000002    2.84999990
   16.80972099  116.25000000    0.89999998    2.84999990
   16.81388855  118.06400299    1.01999998    2.82999992
   16.81722260  113.96199799    1.00000000    2.82999992
   16.82027817  113.12799835    1.00000000    2.84999990
   16.83777809  121.68199921    0.92000002    2.84999990
   16.84027863  116.35600281    0.92000002    2.84999990
   16.84361267  113.46199799    0.95999998    2.84999990
   16.84666824  113.11399841    0.98000002    2.82999992
   16.85277748  113.11399841    1.01999998    2.84999990
   16.85694504  112.35099792    1.13000000    2.82999992
   16.86000061  112.88099670    1.14999998    2.84999990
   16.86333466  115.94999695    1.14999998    2.84999990
   16.86638832  112.56500244    1.16999996    2.82999992
   16.86972237  113.35700226    1.23000002    2.82999992
   16.87111092  112.48400116    1.23000002    2.82999992
   16.87333298  115.23300171    1.09000003    2.84999990
   16.87638855  108.88700104    1.09000003    2.82999992
   16.87972260  108.93599701    1.07000005    2.84999990
   16.88305473  114.56400299    1.01999998    2.82999992
   16.88611031  118.83899689    1.01999998    2.82999992
   16.88944435  117.05200195    1.01999998    2.84999990
   16.89555550  117.05200195    1.07000005    2.82999992
   16.89972115  115.96099854    1.07000005    2.82999992
   16.90305519  114.26899719    1.14999998    2.84999990
   16.90472221  115.46299744    1.14999998    2.84999990
   16.90666580  114.82399750    1.14999998    2.84999990
   16.90999985  117.98899841    1.21000004    2.82999992
   16.91333389  117.18099976    1.21000004    2.84999990
   16.91638756  115.91500092    1.21000004    2.82999992
   16.91972160  113.63800049    1.21000004    2.84999990
   16.92305565  118.64800262    1.21000004    2.84999990
   16.92611122  108.76499939    1.09000003    2.84999990
   16.92944336  113.58000183    1.00000000    2.84999990
   16.93249893  114.26899719    0.92000002    2.84999990
   16.93833160  114.26899719    0.92000002    2.84999990
   16.94249916  118.82299805    1.05999994    2.84999990
   16.94583321  118.03399658    1.05999994    2.84999990
   16.94916534  118.65000153    1.01999998    2.82999992
   16.95222282  117.16899872    1.05999994    2.82999992
   16.95555687  111.04199982    1.09000003    2.84999990
   16.95861244  116.71199799    1.07000005    2.84999990
   16.96194458  113.15499878    1.03999996    2.82999992
   16.96527863  116.27600098    1.03999996    2.82999992
   16.96833420  113.26100159    1.00000000    2.82999992
   16.97111130  116.73200226    1.07000005    2.84999990
   16.97194481  112.62000275    1.07000005    2.84999990
   16.97500038  118.51699829    1.00000000    2.84999990
   16.98139000  118.51699829    1.01999998    2.84999990
   16.98527718  115.32299805    1.03999996    2.82999992
   16.98861122  111.03600311    1.00000000    2.84999990
   16.99194527  112.35500336    0.94000000    2.84999990
   16.99500084  116.51999664    0.95999998    2.84999990
   16.99833298  114.15200043    0.89999998    2.84999990
   17.00138855  119.69999695    0.89999998    2.84999990
   17.00444412  113.62300110    0.86000001    2.86999989
   17.00527763  108.13300323    0.86000001    2.86999989
   17.00833321  115.46900177    0.88000000    2.86999989
   17.01166725  115.52999878    0.88000000    2.86999989
   17.01499939  111.63999939    0.94000000    2.84999990
   17.01805496  118.52100372    0.95999998    2.84999990
   17.02416611  118.52100372    0.89999998    2.84999990
   17.02833366  113.45899963    0.86000001    2.84999990
   17.03138924  113.92400360    0.86000001    2.84999990
   17.03472137  113.53099823    0.80000001    2.84999990
   17.03777695  112.21499634    0.80000001    2.84999990
   17.03833199  110.46800232    0.80000001    2.84999990
   17.04138756  106.56300354    0.80000001    2.84999990
   17.04472160  114.17500305    0.80000001    2.84999990
   17.04805565  107.34799957    0.80000001    2.84999990
   17.05111122  113.79599762    0.79000002    2.84999990
   17.05444336  107.02700043    0.76999998    2.84999990
   17.05777740  110.78199768    0.81999999    2.82999992
   17.06083298  115.40399933    0.81999999    2.82999992
   17.06694603  115.40399933    0.88000000    2.84999990
   17.07111168  109.72799683    0.86000001    2.84999990
   17.07166672  112.48500061    0.86000001    2.84999990
   17.07472229  114.41699982    0.81999999    2.84999990
   17.07805634  107.96399689    0.81999999    2.84999990
   17.08111191  113.97499847    0.80000001    2.84999990
   17.08444595  105.20600128    0.76999998    2.84999990
   17.08777809  111.07599640    0.79000002    2.84999990
   17.09111214  120.49600220    0.80000001    2.84999990
   17.09444427  111.44599915    0.80000001    2.84999990
   17.09749985  111.36900330    0.81999999    2.84999990
   17.10083389  110.06199646    0.83999997    2.84999990
   17.10388947  109.26200104    0.88000000    2.84999990
   17.10499954  114.37899780    0.88000000    2.84999990
   17.10972214  114.37899780    0.86000001    2.84999990
   17.11388969  113.06600189    0.79000002    2.84999990
   17.11722183  115.21099854    0.79000002    2.84999990
   17.12027740  113.33000183    0.92000002    2.84999990
   17.12361145  112.05799866    0.89999998    2.84999990
   17.12694550  109.19899750    1.05999994    2.84999990
   17.13000107  111.99400330    1.05999994    2.84999990
   17.13333321  112.42199707    1.13000000    2.84999990
   17.13666725  115.29000092    1.13000000    2.84999990
   17.13833237  116.01300049    1.19000006    2.82999992
   17.13999939  121.08100128    1.19000006    2.82999992
   17.14333344  121.87999725    1.23000002    2.82999992
   17.14666748  116.29900360    1.21000004    2.82999992
   17.15250015  116.29900360    1.19000006    2.82999992
   17.15666580  118.88200378    1.21000004    2.82999992
   17.15999985  113.57800293    1.21000004    2.84999990
   17.16333389  113.36900330    1.19000006    2.84999990
   17.16638756  112.39399719    1.14999998    2.84999990
   17.16972160  108.30000305    1.07000005    2.82999992
   17.17166519  114.05100250    1.07000005    2.82999992
   17.17333221  115.25499725    1.09000003    2.84999990
   17.17666626  109.58799744    1.09000003    2.82999992
   17.18000031  114.01300049    1.01999998    2.84999990
   17.18305397  111.80999756    1.01999998    2.84999990
   17.18638802  111.07800293    0.95999998    2.84999990
   17.18944359   99.11450195    0.86000001    2.84999990
   17.19555473   99.11450195    0.92000002    2.84999990
   17.19972038  109.65399933    0.88000000    2.84999990
   17.20305634  114.49900055    0.86000001    2.84999990
   17.20499992  110.35500336    0.86000001    2.84999990
   17.20639038  109.92600250    0.92000002    2.80999994
   17.20972252  110.55899811    0.98000002    2.84999990
   17.21305656  114.43499756    0.98000002    2.84999990
   17.21611214  115.81600189    1.01999998    2.82999992
   17.21944427  112.48600006    0.98000002    2.84999990
   17.22249985  113.28399658    0.98000002    2.84999990
   17.22583389  114.58899689    0.98000002    2.84999990
   17.22916794  110.02999878    1.01999998    2.84999990
   17.23222351  112.38200378    1.07000005    2.82999992
   17.23833275  112.38200378    0.92000002    2.84999990
   17.24250031  114.53600311    0.83999997    2.84999990
   17.24583435  114.61699677    0.95999998    2.82999992
   17.24888992  113.61000061    0.88000000    2.84999990
   17.25222206  114.34799957    0.88000000    2.84999990
   17.25527763  113.68299866    0.80000001    2.82999992
   17.25861168  114.57299805    0.80000001    2.84999990
   17.26194382  112.78900146    0.75000000    2.82999992
   17.26499939  119.05500031    0.75000000    2.82999992
   17.26833344  114.72200012    0.81999999    2.82999992
   17.27166557  116.17199707    0.75000000    2.82999992
   17.27194405  116.57199860    0.75000000    2.82999992
   17.27527809  120.07399750    0.75000000    2.84999990
   17.28111076  120.07399750    0.73000002    2.82999992
   17.28527641  114.53900146    0.75000000    2.84999990
   17.28861046  112.70600128    0.75000000    2.84999990
   17.29166603  114.36499786    0.75000000    2.84999990
   17.29500008  120.81900024    0.75000000    2.84999990
   17.29833221  111.15799713    0.75000000    2.84999990
   17.30138779  112.56800079    0.73000002    2.82999992
   17.30472183  113.29900360    0.70999998    2.84999990
   17.30527687  113.59300232    0.70999998    2.84999990
   17.30833244  109.93900299    0.69000000    2.84999990
   17.31166649  115.37599945    0.69000000    2.82999992
   17.31472206  116.73699951    0.73000002    2.84999990
   17.31805611  110.23799896    0.73000002    2.84999990
   17.32389069  110.23799896    0.73000002    2.86999989
   17.32805634  110.30999756    0.83999997    2.84999990
   17.33139038  112.72799683    0.83999997    2.84999990
   17.33472252  114.39199829    1.03999996    2.84999990
   17.33777809  110.60500336    1.03999996    2.82999992
   17.33861160  106.54699707    1.03999996    2.82999992
   17.34166718  110.21299744    1.16999996    2.84999990
   17.34472275  107.58899689    1.16999996    2.80999994
   17.34805679  114.57099915    1.13000000    2.82999992
   17.35111237  111.30699921    1.14999998    2.82999992
   17.35444450  114.80999756    1.05999994    2.84999990
   17.35777855  110.86499786    1.05999994    2.84999990
   17.36083412  110.63400269    1.01999998    2.84999990
   17.36694527  110.63400269    0.94000000    2.82999992
   17.37111092  111.64099884    0.88000000    2.84999990
   17.37194443  112.08000183    0.88000000    2.84999990
   17.37444496  112.83100128    0.86000001    2.84999990
   17.37777710  113.56400299    0.86000001    2.84999990
   17.38083267  112.30999756    0.79000002    2.84999990
   17.38416672  112.89499664    0.89999998    2.82999992
   17.38750076  113.01499939    1.16999996    2.84999990
   17.39055634  108.12300110    1.16999996    2.84999990
   17.39388847  114.55100250    1.41999996    2.82999992
   17.39722252  118.43900299    1.48000002    2.82999992
   17.40027809  111.94699860    1.38000000    2.80999994
   17.40361023  116.47799683    1.14999998    2.82999992
   17.40527725  112.61599731    1.19000006    2.82999992
   17.40972137  112.61599731    1.16999996    2.82999992
   17.41388893  114.06400299    1.01999998    2.84999990
   17.41694450  118.08499908    0.94000000    2.84999990
   17.42027664  108.60800171    0.94000000    2.82999992
   17.42361069  112.79699707    1.01999998    2.84999990
   17.42694473  111.61000061    0.92000002    2.82999992
   17.43000031  107.58599854    0.86000001    2.84999990
   17.43333244  112.67900085    0.83999997    2.84999990
   17.43638802  110.25299835    0.83999997    2.84999990
   17.43861008  115.95600128    0.83999997    2.84999990
   17.43999863  114.65499878    0.83999997    2.84999990
   17.44333267  115.58300018    0.89999998    2.84999990
   17.44666672  110.80400085    1.00000000    2.84999990
   17.45250130  110.80400085    0.89999998    2.84999990
   17.45666695  106.43299866    0.94000000    2.84999990
   17.46000099  110.89099884    0.92000002    2.84999990
   17.46305656  116.61199951    0.92000002    2.84999990
   17.46638870  119.19000244    0.94000000    2.84999990
   17.46972275  118.69599915    1.03999996    2.84999990
   17.47194481  117.83200073    1.01999998    2.84999990
   17.47305679  118.90399933    1.01999998    2.84999990
   17.47638893  117.32299805    1.01999998    2.84999990
   17.47972298  118.67099762    0.95999998    2.84999990
   17.48277855  123.61699677    0.95999998    2.84999990
   17.48611069  117.83599854    1.07000005    2.82999992
   17.48916626  119.08399963    1.09000003    2.82999992
   17.49555588  119.08399963    1.13000000    2.82999992
   17.49944496  113.60900116    1.14999998    2.84999990
   17.50277710  113.49600220    1.19000006    2.84999990
   17.50527763  108.91100311    1.19000006    2.84999990
   17.50638962  119.10900116    1.21000004    2.84999990
   17.50972176  113.35700226    1.19000006    2.82999992
   17.51305580  119.23600006    1.19000006    2.82999992
   17.51611137  117.55999756    1.16999996    2.84999990
   17.51944351  116.76999664    1.16999996    2.84999990
   17.52249908  120.45500183    1.16999996    2.84999990
   17.52583313  119.58599854    1.23000002    2.82999992
   17.52916718  110.45200348    1.14999998    2.82999992
   17.53222275  109.70400238    1.14999998    2.82999992
   17.53833199  109.70400238    1.01999998    2.84999990
   17.54249954  115.97899628    0.94000000    2.82999992
   17.54555511  117.46700287    0.89999998    2.84999990
   17.54888916  119.26200104    0.86000001    2.84999990
   17.55194283  119.19699860    0.83999997    2.82999992
   17.55527687  121.47299957    0.81999999    2.84999990
   17.55861092  115.67700195    0.81999999    2.84999990
   17.56166649  122.62599945    0.81999999    2.84999990
   17.56499863  120.35299683    0.81999999    2.84999990
   17.56833458  115.74400330    0.86000001    2.82999992
   17.57139015  120.29900360    1.05999994    2.82999992
   17.57333374  122.23600006    1.05999994    2.82999992
   17.57500076  119.92199707    1.01999998    2.84999990
   17.58111191  119.92199707    0.95999998    2.84999990
   17.58527756  118.56700134    0.98000002    2.82999992
   17.58833313  118.00499725    0.92000002    2.82999992
   17.59166718  116.19100189    0.88000000    2.82999992
   17.59500122  118.95600128    0.81999999    2.82999992
   17.59805679  118.09500122    0.81999999    2.82999992
   17.60138893  116.66000366    0.80000001    2.82999992
   17.60472298  119.33799744    0.80000001    2.84999990
   17.60666656  117.59500122    0.80000001    2.84999990
   17.60805511  111.05500031    0.86000001    2.84999990
   17.61138916  117.54100037    0.86000001    2.84999990
   17.61472321  119.28299713    0.86000001    2.84999990
   17.61777878  112.00000000    0.92000002    2.84999990
   17.62388992  112.00000000    0.89999998    2.84999990
   17.62805557  115.26300049    0.83999997    2.84999990
   17.63138962  123.74400330    0.80000001    2.82999992
   17.63444519  123.62699890    0.75000000    2.82999992
   17.63777733  121.43599701    0.75000000    2.82999992
   17.63999939  126.31700134    0.75000000    2.82999992
   17.64138794  120.99199677    0.73000002    2.82999992
   17.64472198  121.16100311    0.73000002    2.82999992
   17.64777756  121.77899933    0.73000002    2.82999992
   17.65111160  119.08699799    0.73000002    2.82999992
   17.65444374  123.03099823    0.73000002    2.82999992
   17.65749931  119.74199677    0.73000002    2.82999992
   17.66083336  117.77899933    0.76999998    2.82999992
   17.66666603  117.77899933    0.79000002    2.84999990
   17.67083359  117.76000214    0.80000001    2.82999992
   17.67333221  117.13200378    0.80000001    2.82999992
   17.67444420  118.88500214    0.80000001    2.82999992
   17.67777634  123.52899933    0.79000002    2.82999992
   17.68083191  121.91500092    0.75000000    2.82999992
   17.68416595  120.50399780    0.70999998    2.82999992
   17.68750000  116.58999634    0.69000000    2.82999992
   17.69083214  119.97499847    0.70999998    2.84999990
   17.69388771  115.74400330    0.70999998    2.84999990
   17.69722176  115.35900116    0.67000002    2.84999990
   17.70055580  116.55699921    0.69000000    2.82999992
   17.70361137  119.82499695    0.76999998    2.82999992
   17.70972252  119.82499695    0.83999997    2.84999990
   17.71389008  120.97799683    0.81999999    2.82999992
   17.71694565  116.72699738    0.81999999    2.82999992
   17.72027779  115.06400299    0.79000002    2.84999990
   17.72333336  121.65699768    0.75000000    2.84999990
   17.72666740  122.87300110    0.76999998    2.82999992
   17.73000145  111.15899658    0.76999998    2.84999990
   17.73305511  120.78900146    0.75000000    2.84999990
   17.73638916  120.66500092    0.76999998    2.86999989
   17.73972321  115.93699646    0.75000000    2.82999992
   17.74055672  115.19200134    0.75000000    2.82999992
   17.74333382  117.89900208    0.75000000    2.82999992
   17.74638939  123.70700073    0.76999998    2.82999992
   17.75250053  123.70700073    0.95999998    2.84999990
   17.75666618  119.95300293    1.11000001    2.82999992
   17.76000023  111.16600037    1.01999998    2.82999992
   17.76305580  116.13700104    0.92000002    2.82999992
   17.76638794  124.51699829    0.89999998    2.82999992
   17.76972198  115.31500244    0.89999998    2.82999992
   17.77277756  126.53900146    0.80000001    2.82999992
   17.77388954  127.45600128    0.80000001    2.82999992
   17.77666664  123.07499695    0.79000002    2.82999992
   17.77972221  123.83499908    0.76999998    2.84999990
   17.78305435  116.63200378    0.79000002    2.84999990
   17.78638840  122.06700134    0.79000002    2.82999992
   17.78944397  126.07199860    0.80000001    2.82999992
   17.79527664  126.07199860    0.92000002    2.82999992
   17.79944420  117.70999908    1.00000000    2.82999992
   17.80277634  121.72399902    0.95999998    2.82999992
   17.80583191  117.93599701    1.03999996    2.82999992
   17.80749893  112.63099670    1.03999996    2.82999992
   17.80944443  133.47999573    0.98000002    2.82999992
   17.81277657  122.64099884    1.00000000    2.82999992
   17.81611061  124.89399719    1.00000000    2.82999992
   17.81916809  118.67299652    1.00000000    2.82999992
   17.82250023  123.81500244    1.07000005    2.82999992
   17.82555580  115.66899872    1.11000001    2.82999992
   17.82888985  124.61000061    1.09000003    2.82999992
   17.83222389  120.99900055    1.09000003    2.82999992
   17.83805656  120.99900055    1.09000003    2.82999992
   17.85666656  120.44599915    0.92000002    2.82999992
   17.85972214  114.67700195    1.09000003    2.82999992
   17.86305618  117.20300293    1.01999998    2.82999992
   17.86638832  122.80899811    0.89999998    2.82999992
   17.86944389  114.68900299    0.86000001    2.84999990
   17.87277794  122.43099976    0.80000001    2.82999992
   17.87583351  125.46900177    0.80000001    2.82999992
   17.88111115  125.46900177    0.86000001    2.84999990
   17.88527679  121.16699982    0.86000001    2.82999992
   17.88861084  127.95099640    0.88000000    2.84999990
   17.88944435  122.24700165    0.88000000    2.84999990
   17.89222145  127.82099915    0.88000000    2.84999990
   17.89555550  116.64700317    0.89999998    2.82999992
   17.89861107  114.76899719    0.92000002    2.82999992
   17.90194321  115.89900208    0.92000002    2.82999992
   17.90527725  116.27799988    0.89999998    2.82999992
   17.90833282  124.20999908    0.94000000    2.82999992
   17.91166687  121.72899628    1.00000000    2.82999992
   17.91499901  125.31800079    1.00000000    2.82999992
   17.91805458  122.86799622    1.13000000    2.80999994
   17.92416573  122.86799622    1.50000000    2.82999992
   17.92833328  116.08100128    1.25000000    2.80999994
   17.93166542  121.26000214    1.13000000    2.82999992
   17.93472099  119.33999634    1.13000000    2.82999992
   17.93805504  117.63200378    1.09000003    2.82999992
   17.94138718  118.36299896    1.01999998    2.82999992
   17.94444275  120.61599731    0.98000002    2.82999992
   17.94777679  117.83999634    0.98000002    2.82999992
   17.95111275  123.84300232    0.94000000    2.82999992
   17.95416832  120.37599945    0.92000002    2.82999992
   17.95639038  117.00499725    0.89999998    2.82999992
   17.95777893  123.59600067    0.89999998    2.82999992
   17.96111107  119.90599823    0.89999998    2.82999992
   17.96694565  119.90599823    0.94000000    2.82999992
   17.97111130  118.58999634    0.92000002    2.84999990
   17.97416687  140.92100525    0.92000002    2.84999990
   17.97750092  116.60199738    0.98000002    2.82999992
   17.98083305  115.55200195    1.88000000    1.94000006
   17.98388863  116.16400146    0.81999999    2.82999992
   17.98722267  120.03099823    0.81999999    2.82999992
   17.98972321  118.17099762    0.81999999    2.82999992
   17.99083328  122.04199982    0.81999999    2.82999992
   17.99416733  120.39600372    0.81999999    2.82999992
   17.99749947  123.81800079    0.81999999    2.82999992
   18.00055504  116.86799622    0.80000001    2.82999992
   18.00388908  125.83399963    0.80000001    2.82999992
   18.00972176  125.83399963    0.79000002    2.82999992
   18.01388931  124.99600220    0.76999998    2.82999992
   18.01722145  122.50199890    0.79000002    2.82999992
   18.02055550  120.50099945    0.76999998    2.82999992
   18.02305603  118.18000031    0.76999998    2.82999992
   18.02388954  118.92500305    0.79000002    2.82999992
   18.02722168  124.42800140    0.79000002    2.82999992
   18.03055573  118.27100372    0.81999999    2.82999992
   18.03361130  118.41200256    0.83999997    2.82999992
   18.03694344  125.08899689    0.83999997    2.82999992
   18.04027748  120.56300354    0.86000001    2.80999994
   18.04333305  119.17299652    0.86000001    2.82999992
   18.04666710  115.75299835    0.86000001    2.82999992
   18.05277634  115.75299835    0.88000000    2.82999992
   18.05666542  120.02999878    0.94000000    2.82999992
   18.05999947  117.23699951    0.94000000    2.82999992
   18.06333351  120.77500153    0.94000000    2.82999992
   18.06638718  118.45099640    0.94000000    2.82999992
   18.06972313  127.13200378    0.92000002    2.82999992
   18.07277870  115.36699677    0.88000000    2.80999994
   18.07611275  119.20999908    0.88000000    2.80999994
   18.07944489  118.81099701    0.88000000    2.82999992
   18.08250046  116.01499939    0.86000001    2.82999992
   18.08583450  115.85099792    0.83999997    2.82999992
   18.08916664  121.44599915    0.81999999    2.82999992
   18.08972359  117.59999847    0.81999999    2.82999992
   18.09555626  117.59999847    0.83999997    2.82999992
   18.09972191  125.88200378    0.83999997    2.80999994
   18.10305595  117.68000031    0.92000002    2.82999992
   18.10639000  118.20200348    0.95999998    2.80999994
   18.10972214  113.20600128    0.95999998    2.82999992
   18.11277771  117.51100159    0.95999998    2.82999992
   18.11611176  113.88400269    0.94000000    2.82999992
   18.11916733  111.48500061    0.92000002    2.80999994
   18.12249947  120.70999908    0.89999998    2.80999994
   18.12305641  118.52100372    0.89999998    2.80999994
   18.12611198  120.03099823    0.92000002    2.80999994
   18.12916756  114.85800171    0.92000002    2.80999994
   18.13249969  111.12300110    0.88000000    2.80999994
   18.13833237  111.12300110    0.92000002    2.82999992
   18.14249992  123.01000214    0.94000000    2.80999994
   18.14555550  122.51599884    1.09000003    2.80999994
   18.14888954  119.63800049    1.28999996    2.80999994
   18.15222168  117.88800049    1.28999996    2.78999996
   18.15527725  119.55500031    1.28999996    2.78999996
   18.15638924  117.63300323    1.28999996    2.78999996
   18.15888786  125.64600372    1.55999994    2.78999996
   18.16222191  125.94799805    1.53999996    2.82999992
   18.16555595  123.73699951    1.63000000    2.80999994
   18.16860962  119.40499878    1.07000005    2.82999992
   18.17194366  117.52500153    0.98000002    2.80999994
   18.17499924  113.92700195    0.95999998    2.82999992
   18.18111038  113.92700195    0.89999998    2.82999992
   18.18527603  124.66600037    0.94000000    2.82999992
   18.18861008  122.52899933    0.94000000    2.82999992
   18.18972206  118.19000244    0.89999998    2.80999994
   18.19222069  116.94899750    0.89999998    2.80999994
   18.19527626  113.92099762    0.83999997    2.82999992
   18.19861031  118.09400177    0.86000001    2.80999994
   18.20194435  111.28399658    0.88000000    2.82999992
   18.20499992  114.97100067    0.83999997    2.82999992
   18.20833397  118.45500183    0.80000001    2.82999992
   18.21166801  115.00099945    0.86000001    2.82999992
   18.21500015  110.96099854    0.98000002    2.82999992
   18.21805573  110.63600159    0.98000002    2.82999992
   18.22389030  110.63600159    1.09000003    2.82999992
   18.22805595  111.24500275    1.46000004    2.80999994
   18.23139000  111.89299774    1.46000004    2.80999994
   18.23472214  111.34100342    1.66999996    2.80999994
   18.23777771  118.32399750    2.05999994    2.78999996
   18.24111176  115.93399811    2.05999994    2.78999996
   18.24416733  118.04900360    1.91999996    2.76999998
   18.24749947  115.05300140    1.39999998    2.78999996
   18.25083351  117.38999939    1.39999998    2.78999996
   18.25388908  112.65100098    1.36000001    2.80999994
   18.25638962  121.66000366    1.39999998    2.80999994
   18.25777817  110.48600006    1.39999998    2.80999994
   18.26083374  117.73300171    1.61000001    2.78999996
   18.26694489  117.73300171    1.94000006    2.78999996
   18.27111053  112.73699951    1.73000002    2.80999994
   18.27416611  173.57200623    4.90999985    2.89000010
   18.27750015  114.12599945    4.90999985    2.01999998
   18.28055573  116.26899719    4.51000023    2.84999990
   18.28388786  117.71700287    1.28999996    2.80999994
   18.28722191  121.71800232    1.05999994    2.80999994
   18.28972244  115.46800232    1.01999998    2.78999996
   18.29055595  117.62699890    0.95999998    2.78999996
   18.29388809  105.99600220    0.95999998    2.78999996
   18.29722214  109.99600220    1.01999998    2.78999996
   18.30027771  119.81800079    1.05999994    2.80999994
   18.30360985  117.00499725    1.05999994    2.82999992
   18.30972099  117.00499725    1.21000004    2.80999994
   18.31388855  116.41500092    1.21000004    2.82999992
   18.31722260  116.36100006    1.21000004    2.80999994
   18.32027817  120.88300323    1.21000004    2.80999994
   18.32305717  119.75800323    1.11000001    2.80999994
   18.32389069  116.83399963    1.11000001    2.80999994
   18.32694626  119.84500122    1.07000005    2.80999994
   18.33027840  122.91300201    1.11000001    2.80999994
   18.33361244  117.24800110    1.11000001    2.80999994
   18.33666801  116.46900177    1.30999994    2.80999994
   18.34000015  121.19599915    1.44000006    2.80999994
   18.34305573  117.56800079    1.36000001    2.80999994
   18.34638977  122.64399719    1.39999998    2.80999994
   18.35250092  122.64399719    1.39999998    2.80999994
   18.35666656  104.41899872    1.41999996    2.80999994
   18.36000061  122.56199646    1.51999998    2.80999994
   18.36333466  120.61900330    1.51999998    2.80999994
   18.36638832  121.26799774    1.64999998    2.78999996
   18.36972237  114.51799774    1.75000000    2.78999996
   18.37305641  111.75299835    1.66999996    2.78999996
   18.37611198  119.00700378    1.51999998    2.80999994
   18.37972260  114.28600311    1.48000002    2.80999994
   18.38305473  110.48999786    1.39999998    2.80999994
   18.38611031  123.78500366    1.28999996    2.80999994
   18.38944435  123.40499878    1.28999996    2.80999994
   18.38999939  127.72299957    1.25000000    2.80999994
   18.39527702  127.72299957    1.25000000    2.80999994
   18.39944458  118.77600098    1.23000002    2.80999994
   18.40277672  122.55699921    1.11000001    2.80999994
   18.40611076  117.45500183    1.09000003    2.80999994
   18.40916634  113.59899902    1.11000001    2.80999994
   18.41250038  113.58100128    1.11000001    2.80999994
   18.41583252  120.18499756    1.05999994    2.80999994
   18.41888809  122.13700104    1.00000000    2.80999994
   18.42222214  113.28600311    1.05999994    2.80999994
   18.42333221  115.97100067    1.05999994    2.80999994
   18.42555428  114.92700195    1.13000000    2.80999994
   18.42888832  113.78800201    1.26999998    2.80999994
   18.43194389  119.30000305    1.36000001    2.78999996
   18.43833160  119.30000305    1.38000000    2.80999994
   18.44249916  120.84799957    1.38000000    2.78999996
   18.44555473  131.75199890    1.48000002    2.80999994
   18.44888878  133.55299377    2.66000009    2.78999996
   18.45222282  118.08899689    2.42000008    2.78999996
   18.45527840  124.38300323    1.75000000    2.80999994
   18.45666695  114.84100342    1.73000002    2.78999996
   18.45888901  126.13600159    1.78999996    2.78999996
   18.46222305  121.33999634    1.94000006    2.76999998
   18.46527863  118.13800049    2.13000011    2.78999996
   18.46861076  115.74500275    2.28999996    2.78999996
   18.47194481  110.27200317    2.34999990    2.78999996
   18.47500038  123.67299652    4.90999985    2.82999992
   18.48500061  206.55499268    4.90999985    0.80000001
   18.48833275  124.26599884    4.90999985    2.86999989
   18.48972321  117.47100067    4.90999985    2.86999989
   18.49194527  118.13200378    3.16000009    2.86999989
   18.49527740  118.22399902    1.75000000    2.80999994
   18.49833298  123.13200378    1.78999996    2.78999996
   18.50166702  123.53800201    1.78999996    2.78999996
   18.50499916  113.49299622    1.78999996    2.78999996
   18.50805473  131.97599792    1.73000002    2.78999996
   18.51138878  125.89199829    1.71000004    2.80999994
   18.51444435  125.41200256    1.71000004    2.80999994
   18.51777840  122.72499847    1.63000000    2.78999996
   18.52388954  122.72499847    1.30999994    2.78999996
   18.52805519  124.05500031    1.30999994    2.78999996
   18.53138924  124.46800232    1.36000001    2.78999996
   18.53444481  120.70200348    1.36000001    2.78999996
   18.53777695  118.94599915    1.46000004    2.78999996
   18.54111099  122.81800079    1.46000004    2.78999996
   18.54416656  121.95200348    1.46000004    2.78999996
   18.54749870  122.03399658    1.33000004    2.78999996
   18.55083275  120.15100098    1.33000004    2.80999994
   18.55388832  124.00599670    1.38000000    2.78999996
   18.55638885  127.76599884    1.38000000    2.78999996
   18.55749893  122.83100128    1.33000004    2.78999996
   18.56083298  123.64399719    1.33000004    2.78999996
   18.56666756  123.64399719    1.26999998    2.80999994
   18.57083511  118.25099945    2.48000002    2.76999998
   18.57416725  120.88300323    2.59999990    2.78999996
   18.57722282  113.31199646    2.86999989    2.78999996
   18.58055687  112.34300232    3.00000000    2.76999998
   18.58388901  125.55400085    3.20000005    2.78999996
   18.58694458  123.29799652    3.53999996    2.76999998
   18.58972359  121.64399719    3.43000007    2.76999998
   18.59055710  120.22699738    3.20000005    2.78999996
   18.59388924  113.69000244    2.32999992    2.78999996
   18.59694481  112.39499664    2.21000004    2.76999998
   18.60027885  121.83100128    2.03999996    2.80999994
   18.60361099  114.55300140    1.94000006    2.78999996
   18.60972214  114.55300140    1.69000006    2.78999996
   18.61361122  121.90799713    1.63000000    2.78999996
   18.61694527  121.57099915    1.48000002    2.78999996
   18.62027740  113.02500153    1.44000006    2.78999996
   18.62305641  126.60800171    1.38000000    2.80999994
   18.62388992  129.80599976    1.38000000    2.80999994
   18.62722206  117.79399872    1.36000001    2.78999996
   18.63027763  119.26599884    1.26999998    2.78999996
   18.63388824  122.83399963    1.26999998    2.78999996
   18.63694382  127.91000366    1.26999998    2.80999994
   18.64027786  130.36799622    1.25000000    2.80999994
   18.64361191  124.20300293    1.25000000    2.80999994
   18.64666748  123.38899994    1.28999996    2.78999996
   18.65250015  123.38899994    1.26999998    2.80999994
   18.65666580  119.67400360    1.26999998    2.78999996
   18.65999985  116.53299713    1.23000002    2.78999996
   18.66305542  120.34500122    1.19000006    2.80999994
   18.66638756  120.31199646    1.19000006    2.80999994
   18.66944313  120.51300049    1.19000006    2.80999994
   18.67277718  116.06700134    1.16999996    2.80999994
   18.67611122  119.31999969    1.14999998    2.80999994
   18.67916679  123.11000061    4.90999985    2.89000010
   18.68249893  115.70200348    4.90999985    2.84999990
   18.68555450  103.72299957    1.86000001    2.78999996
   18.68888855  119.70700073    1.50000000    2.80999994
   18.68999863  123.61799622    1.50000000    2.80999994
   18.69527626  123.61799622    1.34000003    2.78999996
   18.69944382  119.27500153    1.48000002    2.78999996
   18.70277786  126.62799835    1.60000002    2.78999996
   18.70583344  123.62300110    1.80999994    2.76999998
   18.70916748  128.07699585    1.89999998    2.78999996
   18.71250153  128.74600220    2.53999996    2.76999998
   18.71583366  124.04900360    2.66000009    2.76999998
   18.71888924  123.19899750    2.69000006    2.76999998
   18.72222328  123.06400299    2.36999989    2.76999998
   18.72333336  124.23400116    2.34999990    2.75000000
   18.72555542  123.71900177    2.28999996    2.76999998
   18.72888947  120.70899963    2.23000002    2.76999998
   18.73222351  118.97499847    1.98000002    2.76999998
   18.73833275  118.97499847    2.09999990    2.78999996
   18.74222183  119.37300110    2.39000010    2.76999998
   18.74555588  118.53399658    2.40000010    2.76999998
   18.74888992  118.35399628    2.07999992    2.78999996
   18.75194359  124.80999756    1.83000004    2.78999996
   18.75527763  122.89199829    1.83000004    2.75000000
   18.75666618  116.96700287    1.85000002    2.76999998
   18.75861168  133.83399963    1.88000000    2.76999998
   18.76194382  124.50299835    2.00000000    2.76999998
   18.76527786  121.21800232    2.15000010    2.76999998
   18.76833344  131.90299988    2.19000006    2.76999998
   18.77166557  126.59500122    2.21000004    2.76999998
   18.77499962  106.31300354    2.21000004    2.78999996
   18.78111076  106.31300354    1.98000002    2.78999996
   18.78527641  199.19099426    1.91999996    2.78999996
   18.78833199  204.15800476    1.83000004    2.76999998
   18.78999901  176.78100586    1.83000004    2.76999998
   18.79194450  235.97399902    1.75000000    2.78999996
   18.79527664  227.63000488    1.75000000    2.78999996
   18.79861069  221.55200195    1.85000002    2.76999998
   18.80166626  235.63299561    3.86999989    2.75000000
   18.80499840  242.60899353    3.99000001    2.75000000
   18.80833244  232.43899536    3.91000009    2.75000000
   18.81138802  224.69000244    2.55999994    2.76999998
   18.81472206  207.10099792    2.23000002    2.78999996
   18.81777954  208.21400452    2.21000004    2.78999996
   18.82389069  208.21400452    2.17000008    2.76999998
   18.82805634  190.49099731    1.86000001    2.76999998
   18.83111191  160.07299805    1.83000004    2.76999998
   18.83444595  163.12100220    1.98000002    2.76999998
   18.83777809  216.35299683    1.98000002    2.76999998
   18.84083366  173.28599548    2.25000000    2.76999998
   18.84416771  177.71200562    2.36999989    2.76999998
   18.84749985  176.16000366    2.46000004    2.76999998
   18.85055542  188.94000244    2.69000006    2.76999998
   18.85388947  160.81500244    2.59999990    2.76999998
   18.85666656  176.77999878    2.25000000    2.78999996
   18.87722206  176.77999878    1.50000000    2.76999998
   18.88138962  118.48500061    1.51999998    2.78999996
   18.88444519  120.65499878    1.58000004    2.78999996
   18.88777733  161.65199280    1.55999994    2.76999998
   18.88999939  160.56799316    1.58000004    2.78999996
   18.89166641  149.80499268    1.58000004    2.78999996
   18.89472198  147.00799561    1.60000002    2.76999998
   18.89805603  156.07400513    1.60000002    2.76999998
   18.90111160  172.54899597    1.64999998    2.78999996
   18.90444374  150.38600159    1.75000000    2.76999998
   18.90777779  187.27900696    1.89999998    2.76999998
   18.91083336  190.17199707    1.91999996    2.76999998
   18.91416550  112.45899963    2.11999989    2.78999996
   18.92000008  112.45899963    2.03999996    2.76999998
   18.92388916  191.79600525    1.88000000    2.76999998
   18.92722130  175.86500549    1.94000006    2.76999998
   18.93055534  158.61900330    1.94000006    2.76999998
   18.93361092  166.73599243    1.94000006    2.76999998
   18.93694305  159.32000732    1.78999996    2.78999996
   18.94027710  143.50300598    1.75000000    2.76999998
   18.94333267  164.03900146    1.75000000    2.76999998
   18.94666672  163.13499451    1.71000004    2.76999998
   18.94972038  167.98500061    1.66999996    2.76999998
   18.95305634  166.16700745    1.69000006    2.76999998
   18.95639038  145.67399597    1.61000001    2.78999996
   18.95666695  174.29299927    1.61000001    2.78999996
   18.96277809  174.29299927    1.60000002    2.76999998
   18.96694565  141.52200317    1.58000004    2.76999998
   18.97000122  156.39300537    1.51999998    2.76999998
   18.97333336  134.31399536    1.53999996    2.76999998
   18.97666740  179.09100342    1.60000002    2.76999998
   18.97972298  151.52900696    1.33000004    2.76999998
   18.98305511  180.28399658    1.36000001    2.75000000
   18.98611069  155.00700378    1.44000006    2.78999996
   18.98944473  145.83399963    1.50000000    2.76999998
   18.99027824  145.72000122    1.50000000    2.76999998
   18.99305534  123.38899994    1.50000000    2.76999998
   18.99638939  173.81900024    1.51999998    2.76999998
   18.99944496  160.39399719    1.51999998    2.78999996
   19.00555611  160.39399719    3.11999989    2.78999996
   19.00972176  165.94700623    4.90999985    2.76999998
   19.01305580  155.22799683    4.90999985    2.78999996
   19.01611137  157.31399536    4.90999985    2.76999998
   19.01944351  167.09199524    3.64000010    2.75000000
   19.02249908  161.64599609    3.21000004    2.75000000
   19.02361107  148.27900696    3.16000009    2.75000000
   19.02611160  148.54100037    2.94000006    2.75000000
   19.02944374  123.82900238    2.86999989    2.75000000
   19.03249931  137.83000183    2.76999998    2.75000000
   19.03583336  172.65199280    2.55999994    2.75000000
   19.03916550  163.44400024    2.50000000    2.75000000
   19.04222107  155.82400513    2.51999998    2.75000000
   19.04833221  155.82400513    2.34999990    2.75000000
   19.05249977  143.65299988    2.53999996    2.75000000
   19.05583191  143.64700317    2.84999990    2.75000000
   19.05694389  147.49000549    2.61999989    2.75000000
   19.05944443  146.94000244    2.59999990    2.75000000
   19.06277657  109.19400024    2.32999992    2.75000000
   19.06611061  130.49099731    2.17000008    2.75000000
   19.06916809  139.98100281    1.83000004    2.75000000
   19.07250023  133.71200562    1.66999996    2.75000000
   19.07555580  136.63099670    1.58000004    2.75000000
   19.07888985  170.11199951    1.38000000    2.75000000
   19.08222389  141.76800537    1.36000001    2.75000000
   19.08527756  134.24200439    1.30999994    2.75000000
   19.09138870  134.24200439    1.38000000    2.75000000
   19.09555626  123.29000092    1.39999998    2.75000000
   19.09861183  120.41200256    1.38000000    2.76999998
   19.10194397  121.74800110    1.38000000    2.76999998
   19.10499954   89.12139893    1.34000003    2.76999998
   19.10833359  116.80799866    1.28999996    2.75000000
   19.11166763  102.47200012    1.25000000    2.75000000
   19.11472321  121.54499817    1.23000002    2.76999998
   19.11805534  135.81399536    1.23000002    2.76999998
   19.12138939  135.63800049    1.23000002    2.76999998
   19.12361145  122.97299957    1.23000002    2.76999998
   19.12472153  115.99900055    1.33000004    2.75000000
   19.12805557  100.33699799    1.33000004    2.75000000
   19.13416672  100.33699799    1.58000004    2.75000000
   19.13833237  130.44700623    4.90999985    2.75000000
   19.14138794  132.98300171    4.90999985    2.64000010
   19.14472198  196.02099609    4.90999985    2.75000000
   19.14805603   -1.00000000    4.90999985    1.25000000
   19.15111160   -1.00000000    4.90999985    0.47999999
   19.15444374   -1.00000000    4.90999985    0.50000000
   19.15805435   -1.00000000    4.90999985    0.64999998
   19.16138840  148.30099487    4.90999985    1.36000001
   19.16444397  306.95999146    4.90999985    2.59999990
   19.16777802   -1.00000000    4.90999985    0.17000000
   19.17111015   -1.00000000    4.90999985    0.17000000
   19.18111038   -1.00000000    4.90999985    0.25000000
   19.18444443   -1.00000000    4.90999985    0.25999999
   19.18750000  275.36999512    4.90999985    0.80000001
   19.19027710  124.34999847    4.90999985    2.03999996
   19.19111061  154.59700012    4.90999985    2.61999989
   19.19444275  157.13800049    4.90999985    2.51999998
   19.19777679   -1.00000000    4.90999985    2.42000008
   19.20083427   -1.00000000    4.90999985    0.25000000
   19.20416832   -1.00000000    4.90999985    0.30000001
   19.20722389  181.44099426    4.90999985    0.41999999
   19.21055603  136.50599670    4.90999985    2.36999989
   19.21389008  130.23199463    2.76999998    2.78999996
   19.22000122  130.23199463    2.78999996    2.73000002
   19.22389030  136.33200073    2.57999992    2.73000002
   19.22722244  125.86199951    2.53999996    2.73000002
   19.23055649  121.78299713    2.36999989    2.75000000
   19.23361206  125.62999725    1.86000001    2.75000000
   19.23694420  123.06099701    1.73000002    2.73000002
   19.23999977  120.08300018    1.75000000    2.71000004
   19.24333382  121.92199707    1.76999998    2.73000002
   19.24666786  118.57599640    1.73000002    2.73000002
   19.24972153  117.20300293    1.76999998    2.75000000
   19.25305557  121.98699951    1.89999998    2.75000000
   19.25638962  122.90899658    2.28999996    2.75000000
   19.25694466  123.65399933    2.28999996    2.75000000
   19.26277733  123.65399933    2.66000009    2.73000002
   19.26694489  117.99700165    2.50000000    2.75000000
   19.27000046  122.25499725    2.50000000    2.73000002
   19.27333260  119.79599762    2.61999989    2.75000000
   19.27638817  118.88500214    2.78999996    2.75000000
   19.27972221  121.52100372    2.80999994    2.73000002
   19.28305435  123.68099976    2.89000010    2.75000000
   19.28610992  116.51999664    2.84999990    2.73000002
   19.28944397  127.56099701    2.84999990    2.73000002
   19.29027748  112.60099792    2.86999989    2.73000002
   19.29277802  118.22499847    2.93000007    2.71000004
   19.29611015  120.73799896    2.80999994    2.73000002
   19.29944420  117.43599701    2.67000008    2.73000002
   19.30555534  117.43599701    2.30999994    2.75000000
   19.30972099  127.27400208    2.23000002    2.75000000
   19.31277657  119.24099731    2.32999992    2.73000002
   19.31611061  120.12999725    2.32999992    2.73000002
   19.31944466  129.61999512    2.25000000    2.75000000
   19.32250023  126.51999664    2.07999992    2.75000000
   19.32361221  128.29299927    2.07999992    2.75000000
   19.32611275  127.65000153    1.96000004    2.75000000
   19.32944489  124.03099823    2.03999996    2.73000002
   19.33277893  123.57299805    2.01999998    2.73000002
   19.33583450  121.64199829    1.80999994    2.73000002
   19.33916664  125.40699768    1.85000002    2.75000000
   19.34222221  113.22000122    1.88000000    2.75000000
   19.34833336  113.22000122    2.17000008    2.76999998
   19.35250092   -1.00000000    4.90999985    2.76999998
   19.35583305  182.58999634    4.90999985    2.78999996
   19.35694504   95.35630035    4.90999985    2.78999996
   19.35916710  143.33000183    4.90999985    1.75000000
   19.36250114  150.14999390    4.90999985    2.00000000
   19.36583328  120.38600159    4.90999985    2.50000000
   19.36888885  128.88600159    2.89000010    2.78999996
   19.37222290  124.95300293    4.90999985    2.80999994
   19.37527847   76.33209991    4.90999985    1.96000004
   19.37861061   -1.00000000    4.90999985    0.70999998
   19.38194466   -1.00000000    4.90999985    0.31999999
   19.38500023  119.97899628    4.90999985    0.80000001
   19.39111137  119.97899628    2.46000004    2.75000000
   19.39527702  118.11499786    2.05999994    2.71000004
   19.39861107  121.53299713    2.15000010    2.73000002
   19.40222168  122.10299683    2.03999996    2.73000002
   19.40527725  125.34200287    2.00000000    2.73000002
   19.40861130  127.71499634    2.03999996    2.73000002
   19.41166687  121.52500153    2.13000011    2.71000004
   19.41499901  126.17299652    2.44000006    2.71000004
   19.41833305  123.19000244    2.46000004    2.71000004
   19.42138863  125.11000061    2.36999989    2.73000002
   19.42361069  127.23300171    2.25000000    2.75000000
   19.42499924  118.82299805    2.25000000    2.75000000
   19.42833328  134.72399902    4.90999985    2.75000000
   19.43416595  134.72399902    4.90999985    2.75000000
   19.43805504  126.95400238    4.90999985    2.76999998
   19.44138718  125.63999939    4.90999985    2.76999998
   19.44472122  123.68199921    4.90999985    2.76999998
   19.44777679  125.34700012    4.00000000    2.71000004
   19.45111275  123.73699951    4.48999977    2.67000008
   19.45444489  131.04400635    4.67999983    2.67000008
   19.45694542  122.49299622    4.38999987    2.69000006
   19.45777893  122.54699707    4.17999983    2.67000008
   19.46111107  126.54000092    3.53999996    2.69000006
   19.46444511  129.64900208    4.19999981    2.69000006
   19.46750069  129.80799866    4.90999985    2.69000006
   19.47083473  129.58999634    2.82999992    2.71000004
   19.47694588  129.58999634    1.89999998    2.73000002
   19.48111153  131.19400024    1.86000001    2.73000002
   19.48416710  121.98899841    2.01999998    2.73000002
   19.48750114  127.54399872    1.91999996    2.73000002
   19.49027824  128.25700378    1.64999998    2.73000002
   19.49111176  127.57599640    1.63000000    2.73000002
   19.49444389  130.14100647    1.76999998    2.73000002
   19.49777794  127.60199738    1.58000004    2.73000002
   19.50083351  126.95099640    1.44000006    2.73000002
   19.50416756  127.22699738    1.48000002    2.73000002
   19.50749969  128.53399658    1.36000001    2.73000002
   19.51055527  127.28299713    1.36000001    2.73000002
   19.51388931  124.84100342    1.44000006    2.73000002
   19.51972198  124.84100342    1.48000002    2.73000002
   19.52388954  127.69799805    1.39999998    2.73000002
   19.52722168  128.82899475    1.39999998    2.73000002
   19.53027725  128.72000122    1.36000001    2.73000002
   19.53361130  122.39099884    1.36000001    2.73000002
   19.53694344  123.20200348    1.39999998    2.75000000
   19.53999901  122.96900177    1.61000001    2.75000000
   19.54333305  124.98000336    2.17000008    2.73000002
   19.54638863  121.25700378    2.17000008    2.71000004
   19.54972076  128.22399902    2.32999992    2.71000004
   19.55305481  118.13800049    3.30999994    2.71000004
   19.55611038  119.89800262    3.00000000    2.71000004
   19.55694389  123.21199799    2.75000000    2.71000004
   19.56250000  123.21199799    2.26999998    2.71000004
   19.56666756  130.97300720    1.89999998    2.73000002
   19.57000160  132.43800354    1.80999994    2.73000002
   19.57333374  125.86199951    1.75000000    2.71000004
   19.57638931  125.42299652    1.98000002    2.71000004
   19.57972336  121.24800110    2.25000000    2.71000004
   19.58305550  127.64800262    2.39000010    2.71000004
   19.58611107  123.65799713    2.46000004    2.71000004
   19.58944511  118.71499634    2.46000004    2.71000004
   19.59027863  121.99199677    2.42000008    2.71000004
   19.59305573  128.27299500    2.36999989    2.71000004
   19.59611130  125.59500122    2.21000004    2.71000004
   19.59944534  125.97799683    2.23000002    2.71000004
   19.60555649  125.97799683    2.46000004    2.71000004
   19.60972214  121.35900116    2.39000010    2.71000004
   19.61277771  124.20300293    2.30999994    2.71000004
   19.61611176  125.47000122    2.61999989    2.71000004
   19.61916733  121.71299744    2.80999994    2.71000004
   19.62249947  130.13099670    2.42000008    2.71000004
   19.62361145  131.09599304    2.36999989    2.71000004
   19.62611198  125.03199768    2.36999989    2.71000004
   19.62916756  111.11399841    2.07999992    2.73000002
   19.63249969  132.36900330    2.17000008    2.71000004
   19.63555527  126.27500153    1.80999994    2.73000002
   19.63888931  125.19400024    2.09999990    2.71000004
   19.64222145   96.57409668    1.85000002    2.71000004
   19.64833260   96.57409668    1.61000001    2.75000000
   19.65250015  125.82199860    1.69000006    2.73000002
   19.65555573  125.27400208    1.88000000    2.71000004
   19.65694427  124.45200348    1.89999998    2.71000004
   19.65944481  121.35800171    2.09999990    2.71000004
   19.66250038  121.74199677    2.23000002    2.71000004
   19.66583252  119.03800201    2.23000002    2.71000004
   19.66916656  127.85199738    2.23000002    2.71000004
   19.67222214  121.11199951    2.00000000    2.71000004
   19.67555428  122.25900269    1.89999998    2.73000002
   19.67888832  117.82900238    1.89999998    2.71000004
   19.68194389  120.95700073    1.89999998    2.71000004
   19.68527603  125.29000092    1.88000000    2.71000004
   19.69111061  125.29000092    2.13000011    2.71000004
   19.69527626  121.09799957    2.39000010    2.71000004
   19.69861031  123.95999908    2.53999996    2.71000004
   19.70166779  117.91000366    2.78999996    2.71000004
   19.70499992  130.83399963    2.80999994    2.71000004
   19.70833397  124.92199707    3.05999994    2.69000006
   19.71138954  134.95899963    3.32999992    2.71000004
   19.71472359  124.27700043    3.43000007    2.69000006
   19.71777916  129.16700745    3.45000005    2.69000006
   19.72111130  121.72799683    3.46000004    2.69000006
   19.72361183  121.10500336    3.55999994    2.69000006
   19.72472191  123.81999969    3.64000010    2.69000006
   19.72777748  125.08599854    3.73000002    2.67000008
   19.73388863  125.08599854    3.68000007    2.69000006
   19.73805618  124.76499939    3.50000000    2.71000004
   19.74138832  123.79599762    3.45000005    2.69000006
   19.74472237  122.29699707    3.41000009    2.69000006
   19.74777794  121.75900269    3.34999990    2.71000004
   19.75111198  125.75499725    3.32999992    2.69000006
   19.75444412  119.54000092    3.28999996    2.71000004
   19.75694466  127.08899689    3.28999996    2.71000004
   19.75805473  124.57499695    3.26999998    2.69000006
   19.76111031  126.46700287    3.09999990    2.69000006
   19.76444435  123.40399933    3.05999994    2.71000004
   19.76749992  122.59400177    2.91000009    2.69000006
   19.77083397  130.24600220    2.86999989    2.71000004
   19.77694511  130.24600220    2.55999994    2.71000004
   19.78111076  121.49600220    2.42000008    2.71000004
   19.78416634  124.28900146    2.42000008    2.69000006
   19.78750038  116.94599915    2.36999989    2.71000004
   19.79027748  118.68499756    2.36999989    2.69000006
   19.79111099  112.66000366    2.36999989    2.71000004
   19.79416656  120.87699890    2.36999989    2.69000006
   19.79749870  116.06800079    2.30999994    2.71000004
   19.80055428  134.87800598    2.34999990    2.71000004
   19.80388832  128.61199951    2.36999989    2.71000004
   19.80722237  125.46600342    2.40000010    2.69000006
   19.81027794  129.54400635    2.46000004    2.69000006
   19.81361008  124.42700195    2.44000006    2.69000006
   19.81972313  124.42700195    2.40000010    2.71000004
   19.82389069  116.77500153    2.44000006    2.71000004
   19.82694626  122.76100159    2.53999996    2.69000006
   19.83027840  123.68199921    2.64000010    2.69000006
   19.83361244  118.42099762    2.73000002    2.69000006
   19.83666801  126.12300110    2.80999994    2.69000006
   19.84000015  120.11299896    2.84999990    2.69000006
   19.84305573  121.06099701    2.86999989    2.69000006
   19.84638977  118.72399902    2.89000010    2.69000006
   19.84972191  119.52400208    2.86999989    2.69000006
   19.85277748  123.98799896    2.80999994    2.69000006
   19.85611153  131.04299927    2.78999996    2.69000006
   19.85694504  122.48300171    2.78999996    2.69000006
   19.86250114  122.48300171    2.76999998    2.69000006
   19.86666679  125.82499695    2.71000004    2.69000006
   19.87000084  124.35700226    2.55999994    2.69000006
   19.87305641  124.67900085    2.39000010    2.69000006
   19.89055634  131.53900146    2.11999989    2.69000006
   19.89305496  114.81900024    2.05999994    2.69000006
   19.89611053  129.71000671    2.00000000    2.71000004
   19.89944458  115.75000000    1.98000002    2.69000006
   19.90555573  115.75000000    2.17000008    2.67000008
   19.90972137   85.26419830    2.25000000    2.67000008
   19.91277695  104.47799683    1.94000006    2.69000006
   19.91611099  128.97500610    1.85000002    2.71000004
   19.91944313  127.47399902    1.75000000    2.71000004
   19.92249870  123.64900208    1.71000004    2.69000006
   19.92388916  113.28099823    1.71000004    2.69000006
   19.92638779   96.85340118    1.73000002    2.69000006
   19.92944336  129.26699829    1.71000004    2.69000006
   19.93277740  129.70700073    1.71000004    2.69000006
   19.93610954  130.84100342    1.69000006    2.69000006
   19.93916512  148.62300110    1.71000004    2.69000006
   19.94249916  110.25599670    2.40000010    2.69000006
   19.94833183  110.25599670    2.71000004    2.69000006
   19.95250130  129.35899353    2.71000004    2.69000006
   19.95583344  119.17099762    2.96000004    2.67000008
   19.95722389  137.30700684    2.78999996    2.67000008
   19.95944595  127.79599762    2.46000004    2.67000008
   19.96250153  135.21200562    2.34999990    2.69000006
   19.96583366  113.73000336    2.46000004    2.69000006
   19.96916771  122.90200043    2.23000002    2.69000006
   19.97222328  124.27400208    2.32999992    2.69000006
   19.97555542  121.10600281    2.42000008    2.69000006
   19.97888947  112.44699860    2.42000008    2.69000006
   19.98194504  161.59700012    2.19000006    2.69000006
   19.98527718   96.91159821    2.09999990    2.69000006
   19.99111176   96.91159821    2.09999990    2.69000006
   19.99527740   76.07499695    2.40000010    2.67000008
   19.99861145  107.80500031    2.44000006    2.67000008
   20.00194359  138.86199951    2.50000000    2.67000008
   20.00499916  136.93800354    2.84999990    2.67000008
   20.00833321  142.12300110    2.69000006    2.67000008
   20.01138878  130.83099365    2.55999994    2.67000008
   20.01472282  133.36599731    2.40000010    2.69000006
   20.01805496  133.39300537    2.44000006    2.67000008
   20.02111053  127.50399780    2.26999998    2.67000008
   20.02388954  133.93899536    2.44000006    2.69000006
   20.02472115  138.01699829    2.50000000    2.67000008
   20.02805519  150.78999329    2.50000000    2.67000008
   20.03416634  150.78999329    2.21000004    2.67000008
   20.03833199  110.53500366    1.96000004    2.69000006
   20.04138756  131.89100647    1.91999996    2.67000008
   20.04472160  125.60600281    1.89999998    2.67000008
   20.04777718  147.35099792    1.98000002    2.67000008
   20.05111122  114.20899963    2.03999996    2.67000008
   20.05444336  130.30099487    1.96000004    2.67000008
   20.05722237  129.48800659    2.03999996    2.67000008
   20.05805397  124.82199860    2.03999996    2.67000008
   20.06110954  128.85600281    2.03999996    2.67000008
   20.06444359  131.52499390    2.26999998    2.67000008
   20.06777954  137.77099609    2.26999998    2.67000008
   20.07083511  135.01800537    2.07999992    2.67000008
   20.07694626  135.01800537    2.01999998    2.67000008
   20.08111191  143.86399841    1.96000004    2.67000008
   20.08416748  131.92599487    1.94000006    2.69000006
   20.08750153  123.22399902    1.94000006    2.67000008
   20.09055710  141.06799316    1.89999998    2.67000008
   20.09111214  141.77799988    1.89999998    2.67000008
   20.09444427  143.76499939    1.78999996    2.67000008
   20.09749985  125.00199890    1.78999996    2.67000008
   20.10083389  130.11199951    1.66999996    2.67000008
   20.10416794  107.56700134    1.64999998    2.67000008
   20.10722351  130.43699646    1.63000000    2.67000008
   20.11055565  141.16499329    1.58000004    2.67000008
   20.11388969  136.63000488    1.53999996    2.67000008
   20.11972237  136.63000488    1.48000002    2.67000008
   20.12388992  130.21299744    1.39999998    2.67000008
   20.12444496  122.90200043    1.39999998    2.67000008
   20.12750053  135.16000366    1.38000000    2.67000008
   20.13083267  127.38300323    1.38000000    2.67000008
   20.13416672  130.01300049    1.41999996    2.67000008
   20.13722229  144.69999695    1.48000002    2.69000006
   20.14055634  138.15100098    1.48000002    2.67000008
   20.14388847  135.76100159    1.48000002    2.67000008
   20.14694405  135.79600525    1.46000004    2.67000008
   20.15027809  126.53099823    1.41999996    2.67000008
   20.15361023  144.86099243    1.38000000    2.69000006
   20.15666580  133.31700134    1.38000000    2.69000006
   20.15777779  148.12600708    1.38000000    2.67000008
   20.16250038  148.12600708    1.38000000    2.67000008
   20.16666603  135.16400146    1.36000001    2.67000008
   20.17000008  132.00799561    1.30999994    2.67000008
   20.17333221  138.99899292    1.26999998    2.69000006
   20.17638779  125.12999725    1.23000002    2.67000008
   20.17972183  143.30700684    1.21000004    2.67000008
   20.18305397  136.02200317    1.21000004    2.67000008
   20.18610954  136.96400452    1.21000004    2.67000008
   20.18944359  135.98300171    1.16999996    2.67000008
   20.19111061  138.44500732    1.16999996    2.67000008
   20.19305420  129.02699280    1.16999996    2.67000008
   20.19610977  111.94400024    1.19000006    2.67000008
   20.19944382  135.21099854    1.21000004    2.69000006
   20.20555687  135.21099854    1.16999996    2.67000008
   20.20972252  139.44700623    1.19000006    2.67000008
   20.21277809  136.12199402    1.13000000    2.67000008
   20.21611214  143.48699951    1.13000000    2.67000008
   20.21916771  138.77999878    1.11000001    2.67000008
   20.22249985  135.21200562    1.11000001    2.67000008
   20.22444534  137.13699341    1.11000001    2.67000008
   20.22611237  132.28500366    1.13000000    2.67000008
   20.22944450  139.81399536    1.13000000    2.67000008
   20.23277855  138.60600281    1.13000000    2.66000009
   20.23583412  142.01699829    1.13000000    2.67000008
   20.23916626  143.93800354    1.13000000    2.67000008
   20.24250031  147.11900330    1.13000000    2.67000008
   20.24833298  147.11900330    1.09000003    2.67000008
   20.25250053  136.26899719    1.14999998    2.67000008
   20.25555611  134.96899414    1.14999998    2.67000008
   20.25777817  132.70500183    1.13000000    2.67000008
   20.25944519  132.51800537    1.13000000    2.67000008
   20.26250076  132.41099548    1.11000001    2.67000008
   20.26583290  139.42599487    1.11000001    2.67000008
   20.26916695  135.99000549    1.07000005    2.67000008
   20.27222252  134.38600159    1.07000005    2.67000008
   20.27555466  128.04499817    1.07000005    2.67000008
   20.27861023  134.13299561    1.05999994    2.66000009
   20.28194427  129.43099976    1.05999994    2.66000009
   20.28527641  129.81500244    1.05999994    2.67000008
   20.29111099  129.81500244    1.01999998    2.67000008
   20.29527664  137.67399597    1.01999998    2.66000009
   20.29861069  136.20599365    0.98000002    2.67000008
   20.30166626  137.02999878    0.98000002    2.67000008
   20.30499840  144.85000610    0.98000002    2.67000008
   20.30805397  146.49099731    0.95999998    2.67000008
   20.31138802  135.31199646    0.95999998    2.67000008
   20.31472206  144.48100281    1.01999998    2.67000008
   20.31777954  142.18800354    1.05999994    2.66000009
   20.32111168  136.78700256    1.05999994    2.66000009
   20.32444572  140.27499390    1.14999998    2.67000008
   20.32472229  138.93800354    1.14999998    2.67000008
   20.32805634  140.78100586    1.16999996    2.67000008
   20.33388901  140.78100586    1.16999996    2.66000009
   20.33805656  149.27400208    1.19000006    2.67000008
   20.34138870  139.60299683    1.16999996    2.66000009
   20.34444427  147.02499390    1.16999996    2.66000009
   20.34777832  147.11999512    1.16999996    2.66000009
   20.35111237  132.79899597    1.13000000    2.67000008
   20.35416794  142.79600525    1.13000000    2.66000009
   20.35750008  139.82499695    1.14999998    2.66000009
   20.35805511  148.91900635    1.09000003    2.66000009
   20.36111069  144.15600586    1.03999996    2.66000009
   20.36444473  145.35699463    1.00000000    2.66000009
   20.36750031  129.13400269    0.98000002    2.66000009
   20.37083435  138.89100647    0.94000000    2.66000009
   20.37666702  138.89100647    0.94000000    2.66000009
   20.38083267  121.58799744    0.92000002    2.66000009
   20.38416672  144.38200378    0.88000000    2.66000009
   20.38750076  120.06600189    0.88000000    2.66000009
   20.39055634  160.13999939    0.89999998    2.66000009
   20.39138794  122.55000305    0.89999998    2.66000009
   20.39416695  133.72000122    0.89999998    2.66000009
   20.39749908  146.72000122    0.89999998    2.64000010
   20.40055466  130.27699280    0.89999998    2.64000010
   20.40388870  143.65199280    0.92000002    2.66000009
   20.40722275  145.58399963    0.95999998    2.66000009
   20.41027832  138.21400452    0.98000002    2.66000009
   20.41361046  137.57800293    1.00000000    2.64000010
   20.41972160  137.57800293    1.01999998    2.64000010
   20.42388916  140.63900757    1.03999996    2.64000010
   20.42472076  133.75900269    1.03999996    2.64000010
   20.42749977  129.49600220    1.03999996    2.64000010
   20.43083191  138.81100464    1.07000005    2.66000009
   20.43388748  144.12500000    1.07000005    2.66000009
   20.43722153  140.88600159    1.09000003    2.66000009
   20.44055557  141.97999573    1.11000001    2.64000010
   20.44361115  137.37800598    1.09000003    2.64000010
   20.44694328  143.66299438    1.09000003    2.64000010
   20.45000076  143.30299377    1.13000000    2.64000010
   20.45333481  123.45899963    1.14999998    2.64000010
   20.45666695  139.40699768    1.14999998    2.64000010
   20.45805550  142.38699341    1.09000003    2.64000010
   20.46250153  142.38699341    1.11000001    2.64000010
   20.46666718  141.24400330    1.11000001    2.64000010
   20.47000122  135.56500244    1.11000001    2.64000010
   20.47305679  133.71699524    1.13000000    2.64000010
   20.47638893  136.00500488    1.11000001    2.64000010
   20.47972298  119.70300293    1.11000001    2.64000010
   20.48277855  133.17799377    1.11000001    2.64000010
   20.48611069  131.02900696    1.11000001    2.64000010
   20.48916626  134.96000671    1.07000005    2.64000010
   20.49138832  126.98100281    1.07000005    2.64000010
   20.49277878  136.49099731    1.07000005    2.64000010
   20.49611092  129.55400085    1.07000005    2.64000010
   20.49916649  134.92300415    1.07000005    2.64000010
   20.50527763  134.92300415    1.05999994    2.64000010
   20.50944519  140.72799683    1.03999996    2.64000010
   20.51277733  134.32699585    1.01999998    2.64000010
   20.51611137  141.25100708    1.00000000    2.61999989
   20.51916695  127.49600220    0.98000002    2.64000010
   20.52249908  138.95300293    0.98000002    2.64000010
   20.52472115  137.37800598    0.98000002    2.64000010
   20.52611160  140.01800537    1.00000000    2.64000010
   20.52944374  135.56900024    1.00000000    2.64000010
   20.53249931  143.30299377    1.11000001    2.61999989
   20.53583336  132.13999939    1.07000005    2.61999989
   20.53916550  135.37800598    1.13000000    2.64000010
   20.54222107  136.17999268    1.23000002    2.64000010
   20.54833221  136.17999268    1.34000003    2.61999989
   20.55222130  130.78300476    1.34000003    2.61999989
   20.55555534  140.45899963    1.44000006    2.64000010
   20.55805397  134.56599426    1.44000006    2.64000010
   20.55916595  143.57699585    1.51999998    2.61999989
   20.56250000  133.78599548    1.51999998    2.61999989
   20.56555557  142.55299377    1.55999994    2.61999989
   20.56888962  139.23899841    1.51999998    2.61999989
   20.57222366  128.76800537    1.36000001    2.61999989
   20.57527924  120.61699677    1.39999998    2.61999989
   20.57861137  140.61999512    1.55999994    2.61999989
   20.58166695  137.04400635    1.55999994    2.61999989
   20.58500099  142.38900757    1.71000004    2.61999989
   20.59111214  142.38900757    1.51999998    2.61999989
   20.59527779  109.86100006    1.28999996    2.61999989
   20.59833336  123.09799957    1.28999996    2.61999989
   20.60166740  143.49800110    1.26999998    2.61999989
   20.60499954  121.66000366    1.34000003    2.61999989
   20.60805511  133.10699463    1.26999998    2.61999989
   20.61138916  138.52499390    1.34000003    2.61999989
   20.61472321  132.29699707    1.66999996    2.59999990
   20.61805534  129.65600586    1.51999998    2.61999989
   20.62111092  136.26199341    1.51999998    2.61999989
   20.62444496  138.32000732    1.26999998    2.61999989
   20.62611198  139.04499817    1.16999996    2.61999989
   20.62805557  135.14900208    1.16999996    2.61999989
   20.63388824  135.14900208    1.03999996    2.61999989
   20.63805580  118.82099915    0.98000002    2.61999989
   20.64138794  125.88500214    1.05999994    2.64000010
   20.64472198  141.12300110    1.00000000    2.61999989
   20.64777756  127.01699829    0.98000002    2.61999989
   20.65111160  136.32699585    0.98000002    2.61999989
   20.65444374  131.47099304    0.98000002    2.61999989
   20.65749931  132.23699951    0.95999998    2.61999989
   20.65944481  129.21099854    0.98000002    2.61999989
   20.66138840  130.55499268    0.98000002    2.61999989
   20.66444397  128.85400391    1.00000000    2.59999990
   20.66777802  135.88000488    1.00000000    2.61999989
   20.67083359  137.12399292    1.00000000    2.59999990
   20.67666626  137.12399292    0.98000002    2.61999989
   20.68083191  142.35200500    1.00000000    2.61999989
   20.68416595  129.25700378    1.00000000    2.61999989
   20.68722153  135.57499695    1.01999998    2.61999989
   20.69055557  127.95600128    1.03999996    2.61999989
   20.69305420  141.11099243    1.05999994    2.59999990
   20.69416618  126.87200165    1.05999994    2.59999990
   20.69749832  129.02299500    1.05999994    2.59999990
   20.70083427  133.93600464    1.09000003    2.59999990
   20.70388985  133.96400452    1.09000003    2.59999990
   20.70722389  133.22099304    1.09000003    2.59999990
   20.71027946  134.63699341    1.11000001    2.57999992
   20.71361160  134.71400452    1.14999998    2.59999990
   20.71972275  134.71400452    1.11000001    2.59999990
   20.72361183  135.92500305    1.14999998    2.61999989
   20.72638893  132.03300476    1.21000004    2.59999990
   20.72722244  133.48500061    1.21000004    2.59999990
   20.73055649  124.06999969    1.33000004    2.59999990
   20.73361206  130.18899536    1.38000000    2.59999990
   20.73694420  129.23599243    1.46000004    2.59999990
   20.74027824  136.17799377    1.58000004    2.59999990
   20.74333382  122.28900146    1.61000001    2.59999990
   20.74666786  136.20599365    1.61000001    2.59999990
   20.75000000  135.69000244    1.60000002    2.59999990
   20.75305557  134.92999268    1.66999996    2.57999992
   20.75638962  124.99299622    1.44000006    2.57999992
   20.76250076  124.99299622    1.44000006    2.57999992
   20.76666641  130.28300476    1.44000006    2.57999992
   20.76972198  121.83799744    1.51999998    2.57999992
   20.77305603  124.07099915    1.53999996    2.57999992
   20.77638817  118.52400208    1.53999996    2.57999992
   20.77972221  142.49099731    1.55999994    2.57999992
   20.78277779  122.82099915    1.58000004    2.57999992
   20.78610992   -1.00000000    1.66999996    2.57999992
   20.78916550  130.81700134    1.55999994    2.57999992
   20.79249954  127.55799866    1.53999996    2.57999992
   20.79333305  140.63000488    1.53999996    2.57999992
   20.79611015  131.28900146    1.53999996    2.57999992
   20.79916573  132.54699707    1.51999998    2.57999992
   20.80527687  132.54699707    1.73000002    2.55999994
   20.80944443  126.53399658    1.75000000    2.55999994
   20.81277657  141.05900574    1.78999996    2.57999992
   20.81611061  131.91000366    1.73000002    2.55999994
   20.81916809  135.67900085    1.60000002    2.57999992
   20.82250023  133.43200684    1.53999996    2.57999992
   20.82583427  145.65899658    1.53999996    2.57999992
   20.82694626  145.45100403    1.44000006    2.57999992
   20.82944489  143.55099487    1.44000006    2.57999992
   20.83277893  144.77299500    1.39999998    2.57999992
   20.83611107  136.77999878    1.86000001    2.55999994
   20.83916664  134.53900146    2.36999989    2.55999994
   20.84250069  143.44200134    2.36999989    2.53999996
   20.84805679  143.44200134    2.44000006    2.55999994
   20.85222244  137.27900696    2.40000010    2.55999994
   20.85555649  137.77200317    2.69000006    2.53999996
   20.85861206  146.06100464    3.14000010    2.53999996
   20.86027908  144.99400330    3.21000004    2.53999996
   20.86250114  142.65100098    3.43000007    2.53999996
   20.86555672  134.10800171    3.34999990    2.53999996
   20.86888885  146.11300659    3.51999998    2.53999996
   20.87194443  139.44900513    3.18000007    2.53999996
   20.87527847  143.89399719    2.94000006    2.53999996
   20.87861061  134.82200623    2.75000000    2.53999996
   20.88166618  132.96499634    2.66000009    2.55999994
   20.88500023  142.86399841    2.46000004    2.55999994
   20.89083290  142.86399841    2.40000010    2.53999996
   20.90944481  133.67399597    1.71000004    2.53999996
   20.91250038  137.27499390    1.69000006    2.55999994
   20.91583252  130.69299316    1.60000002    2.55999994
   20.91916656  127.52600098    1.55999994    2.55999994
   20.92222214  139.75999451    1.53999996    2.55999994
   20.92555428  129.93899536    1.41999996    2.55999994
   20.92860985  140.88400269    1.41999996    2.55999994
   20.93388748  140.88400269    1.39999998    2.55999994
   20.93805504  138.59800720    1.39999998    2.55999994
   20.94138718  142.50700378    1.53999996    2.55999994
   20.94249916  134.34399414    1.53999996    2.55999994
   20.94499969  142.40100098    1.64999998    2.55999994
   20.94833183  134.42300415    1.75000000    2.53999996
   20.95138931  145.04499817    1.78999996    2.53999996
   20.95472336  138.58900452    1.75000000    2.53999996
   20.95805550  142.36300659    1.75000000    2.53999996
   20.96138954  138.90800476    1.80999994    2.55999994
   20.96444511  142.58000183    1.76999998    2.53999996
   20.96777916  137.70700073    1.76999998    2.53999996
   20.97083473  145.79299927    1.66999996    2.53999996
   20.97694588  145.79299927    1.38000000    2.53999996
   20.98111153  141.16700745    1.41999996    2.53999996
   20.98416710  147.39599609    1.44000006    2.53999996
   20.98750114  122.32599640    1.63000000    2.53999996
   20.99083328  133.01899719    1.60000002    2.53999996
   20.99388885  137.37800598    1.60000002    2.53999996
   20.99722290  133.18800354    1.48000002    2.53999996
   21.00027847  138.81100464    1.51999998    2.53999996
   21.00361061  137.78300476    1.48000002    2.53999996
   21.00694466  135.87899780    1.48000002    2.53999996
   21.00916672  142.87500000    1.44000006    2.53999996
   21.01027870  123.86499786    1.39999998    2.51999998
   21.01361084  134.81300354    1.38000000    2.53999996
   21.01972198  134.81300354    1.53999996    2.51999998
   21.02388954  150.16200256    1.50000000    2.51999998
   21.02694511  149.21899414    1.44000006    2.51999998
   21.03027725  148.95899963    1.41999996    2.51999998
   21.03361130  159.50300598    1.39999998    2.51999998
   21.03666687  161.69299316    1.50000000    2.51999998
   21.03999901  176.31500244    1.61000001    2.51999998
   21.04249954  170.80099487    1.64999998    2.51999998
   21.04361153  180.31500244    1.66999996    2.51999998
   21.04694366  182.68200684    1.85000002    2.51999998
   21.05027771  194.33700562    1.86000001    2.51999998
   21.05360985  188.02200317    1.85000002    2.51999998
   21.05666542  185.12100220    1.83000004    2.51999998
   21.06250000  185.12100220    2.01999998    2.50000000
   21.06666756  195.38900757    2.01999998    2.50000000
   21.07000160  201.35099792    2.03999996    2.50000000
   21.07333374  182.44799805    2.13000011    2.51999998
   21.07583427  180.40199280    2.21000004    2.50000000
   21.07666779  185.31300354    2.28999996    2.50000000
   21.08000183  188.66799927    2.36999989    2.50000000
   21.08305550  195.11399841    2.46000004    2.50000000
   21.08638954  166.10099792    2.50000000    2.50000000
   21.08972359  185.99499512    2.48000002    2.50000000
   21.09277916  168.76499939    2.51999998    2.50000000
   21.09611130  171.71299744    2.48000002    2.50000000
   21.09944534  188.44400024    2.53999996    2.48000002
   21.10555649  188.44400024    2.48000002    2.50000000
   21.10944557  174.61000061    2.21000004    2.50000000
   21.11277771  198.12600708    2.09999990    2.50000000
   21.11611176  196.36399841    2.00000000    2.50000000
   21.11916733  190.92599487    2.03999996    2.50000000
   21.12249947  183.46299744    2.00000000    2.50000000
   21.12583351  195.52499390    1.94000006    2.48000002
   21.12888908  184.07000732    1.88000000    2.50000000
   21.13222313  182.21099854    1.96000004    2.50000000
   21.13527679  172.90600586    1.94000006    2.50000000
   21.13861084  176.50300598    1.91999996    2.50000000
   21.14194489  184.29100037    1.80999994    2.48000002
   21.14249992  186.96699524    1.80999994    2.48000002
   21.14833260  186.96699524    1.61000001    2.50000000
   21.15250015  231.24499512    1.64999998    2.48000002
