    HOUR (UT)   FLARE FACTOR    SKY TESTER    SUN TESTER
   10.48805618   -1.00000000   -1.00000000   -1.00000000
   10.50749969  185.58000183    3.72000003    1.58000004
   10.51194477  240.80000305    3.72000003    1.58000004
   10.51527786  173.60000610    3.73000002    1.58000004
   10.51861095  121.30500031    3.73000002    1.58000004
   10.52166653  201.50599670    3.75000000    1.58000004
   10.52583313  206.05999756    3.75000000    1.60000002
   10.52888870  195.62199402    3.75000000    1.60000002
   10.53222179  220.94700623    3.75000000    1.60000002
   10.53555584  191.55499268    3.75000000    1.61000001
   10.53861141  192.38499451    3.76999998    1.61000001
   10.54083347  169.94000244    3.75000000    1.61000001
   10.54222298  205.94200134    3.75000000    1.63000000
   10.54555607  192.17300415    3.75000000    1.63000000
   10.54888916  206.25700378    3.75000000    1.63000000
   10.55249977  183.38900757    3.73000002    1.63000000
   10.55555534  194.63999939    3.73000002    1.63000000
   10.55888939  186.28999329    3.73000002    1.64999998
   10.56194496  129.27400208    3.72000003    1.64999998
   10.56527805  178.78599548    3.72000003    1.64999998
   10.56861115  181.14999390    3.70000005    1.66999996
   10.57166672  191.62899780    3.68000007    1.66999996
   10.57416630  160.99699402    3.68000007    1.66999996
   10.57555580  168.08099365    3.68000007    1.66999996
   10.57861137  195.67199707    3.66000009    1.66999996
   10.58194447  165.84399414    3.64000010    1.69000006
   10.58500004  153.59399414    3.61999989    1.69000006
   10.58833313  173.16400146    3.59999990    1.69000006
   10.59166622  191.75799561    3.59999990    1.71000004
   10.59499931  174.53300476    3.57999992    1.71000004
   10.59805489  164.85200500    3.55999994    1.71000004
   10.60138893  155.39599609    3.53999996    1.71000004
   10.60472298  165.76300049    3.51999998    1.73000002
   10.60750008  162.48800659    3.51999998    1.73000002
   10.60833359  160.49099731    3.51999998    1.73000002
   10.61138916  164.33700562    3.50000000    1.73000002
   10.61472225  165.16999817    3.48000002    1.73000002
   10.61777782  162.11000061    3.46000004    1.73000002
   10.62111092  168.07400513    3.46000004    1.75000000
   10.62444496  140.68800354    3.45000005    1.75000000
   10.62750053  167.90800476    3.43000007    1.75000000
   10.63083363  166.24800110    3.43000007    1.75000000
   10.63388920  156.63499451    3.41000009    1.75000000
   10.63722229  167.93800354    3.41000009    1.76999998
   10.64055538  159.78300476    3.39000010    1.76999998
   10.64111137  156.36199951    3.39000010    1.76999998
   10.64416695  164.43600464    3.39000010    1.78999996
   10.64750004  129.03100586    3.36999989    1.76999998
   10.65055561  145.60200500    3.36999989    1.78999996
   10.65388870  141.24899292    3.34999990    1.78999996
   10.65722179  137.60400391    3.32999992    1.78999996
   10.66027737  150.67300415    3.30999994    1.78999996
   10.66361046  140.77299500    3.30999994    1.80999994
   10.66666698  147.82600403    3.28999996    1.80999994
   10.67000008  144.41200256    3.28999996    1.80999994
   10.67333412  138.66400146    3.26999998    1.83000004
   10.67416668  147.15100098    3.26999998    1.83000004
   10.67666721  143.75799561    3.26999998    1.83000004
   10.68000031  139.73100281    3.25000000    1.83000004
   10.68305588  145.97999573    3.23000002    1.83000004
   10.68638897  144.37699890    3.23000002    1.83000004
   10.68972206  140.07000732    3.21000004    1.83000004
   10.69277763  137.69000244    3.21000004    1.83000004
   10.69611073  149.24099731    3.20000005    1.85000002
   10.69916630  143.75900269    3.18000007    1.83000004
   10.70249939  138.83999634    3.18000007    1.85000002
   10.70583344  151.78700256    3.16000009    1.86000001
   10.70777798  140.79200745    3.16000009    1.85000002
   10.70944405  143.31599426    3.16000009    1.85000002
   10.71277714  133.04100037    3.11999989    1.86000001
   10.71583271  144.94500732    3.09999990    1.86000001
   10.71916580  144.94599915    3.07999992    1.88000000
   10.72249985  148.08200073    3.07999992    1.86000001
   10.72555542  142.78399658    3.05999994    1.86000001
   10.72888851  140.46499634    3.03999996    1.88000000
   10.73222160  134.50300598    3.03999996    1.88000000
   10.73527813  148.68200684    3.01999998    1.88000000
   10.73861122  131.20700073    3.00000000    1.89999998
   10.74111176  130.23100281    3.00000000    1.89999998
   10.74222279  151.76899719    3.00000000    1.89999998
   10.74555588  144.07699585    2.98000002    1.89999998
   10.74861145  145.46099854    2.96000004    1.89999998
   10.75194454  147.03599548    2.94000006    1.89999998
   10.75527763  147.65199280    2.94000006    1.89999998
   10.75833321  156.59100342    2.94000006    1.91999996
   10.76166630  160.49600220    2.93000007    1.91999996
   10.76472187  146.96400452    2.91000009    1.91999996
   10.76805496  157.56799316    2.91000009    1.91999996
   10.77138901  153.63099670    2.89000010    1.91999996
   10.77444458  141.19200134    2.86999989    1.94000006
   10.77472210  141.22000122    2.86999989    1.94000006
   10.77805519  140.19799805    2.86999989    1.94000006
   10.78111076  130.91499329    2.84999990    1.94000006
   10.78444481  142.88999939    2.84999990    1.94000006
   10.78777790  128.40400696    2.82999992    1.94000006
   10.79083347  131.37199402    2.82999992    1.96000004
   10.79416752  143.77200317    2.80999994    1.94000006
   10.79722309  143.21000671    2.78999996    1.96000004
   10.80055618  134.39100647    2.78999996    1.96000004
   10.80388927  133.67900085    2.78999996    1.96000004
   10.80694485  135.11399841    2.76999998    1.98000002
   10.80777836  141.81700134    2.76999998    1.98000002
   10.81055546  132.23300171    2.76999998    1.98000002
   10.81388950  127.67700195    2.75000000    1.98000002
   10.81694412  137.06300354    2.73000002    1.98000002
   10.82027817  139.19500732    2.73000002    1.98000002
   10.82361126  138.59100342    2.71000004    1.98000002
   10.82666683  145.14799500    2.71000004    1.98000002
   10.82999992  137.65800476    2.69000006    2.00000000
   10.83333302  135.27600098    2.69000006    2.00000000
   10.83638859  148.11500549    2.69000006    2.00000000
   10.83972168  136.29699707    2.69000006    2.00000000
   10.84111118  142.95399475    2.67000008    2.00000000
   10.84333324  146.66700745    2.67000008    2.00000000
   10.84666634  141.03700256    2.67000008    2.01999998
   10.84972191  148.30400085    2.66000009    2.01999998
   10.85305595  146.88800049    2.66000009    2.01999998
   10.85638905  151.37600708    2.64000010    2.01999998
   10.85944462  135.76800537    2.64000010    2.01999998
   10.86277771  133.44000244    2.64000010    2.01999998
   10.86611176  143.65400696    2.61999989    2.01999998
   10.86916637  141.33500671    2.61999989    2.01999998
   10.87250042  139.37399292    2.59999990    2.01999998
   10.87444496  125.44599915    2.59999990    2.03999996
   10.87611103  132.35499573    2.59999990    2.03999996
   10.87944412  141.12100220    2.57999992    2.03999996
   10.88249969  151.08799744    2.57999992    2.03999996
   10.88583279  146.19200134    2.55999994    2.05999994
   10.88916683  137.38400269    2.55999994    2.05999994
   10.89222240  124.59200287    2.55999994    2.05999994
   10.89555550  130.75000000    2.53999996    2.05999994
   10.89888859  141.08299255    2.53999996    2.05999994
   10.90194416  148.05200195    2.51999998    2.05999994
   10.90527725  131.93499756    2.51999998    2.05999994
   10.90777779  139.80299377    2.50000000    2.05999994
   10.90888882  142.37600708    2.50000000    2.05999994
   10.91222191  147.62600708    2.48000002    2.05999994
   10.91527748  137.91600037    2.48000002    2.07999992
   10.91861153  139.24200439    2.46000004    2.07999992
   10.92194462  136.36599731    2.46000004    2.07999992
   10.92500019  134.28399658    2.44000006    2.09999990
   10.92833328  131.85400391    2.44000006    2.07999992
   10.93166733  137.16600037    2.42000008    2.07999992
   10.93472195  133.80000305    2.42000008    2.07999992
   10.93805599  143.08599854    2.42000008    2.09999990
   10.94111156  144.08900452    2.40000010    2.09999990
   10.94166660  146.95799255    2.40000010    2.09999990
   10.94499969  141.81900024    2.40000010    2.09999990
   10.94805527  157.38999939    2.40000010    2.09999990
   10.95138836  187.94500732    2.39000010    2.09999990
   10.95472240  156.67900085    2.39000010    2.09999990
   10.95777798  185.12199402    2.36999989    2.09999990
   10.96111107  159.80099487    2.36999989    2.09999990
   10.96444416  163.21099854    2.36999989    2.11999989
   10.96749973  136.81199646    2.34999990    2.11999989
   10.97083282  153.74400330    2.34999990    2.11999989
   10.97388840  149.24000549    2.32999992    2.11999989
   10.97444439  139.00100708    2.32999992    2.11999989
   10.97777748  164.54299927    2.30999994    2.11999989
   10.98083305  150.06100464    2.28999996    2.11999989
   10.98416710  143.26100159    2.28999996    2.13000011
   10.98750019  140.38000488    2.26999998    2.13000011
   10.99055576  138.48599243    2.26999998    2.13000011
   10.99388885  142.00599670    2.25000000    2.13000011
   10.99722290  136.70100403    2.25000000    2.13000011
   11.00027752  129.35600281    2.25000000    2.13000011
   11.00361156  134.55700684    2.23000002    2.13000011
   11.00666714  142.37600708    2.23000002    2.15000010
   11.00777817  141.76699829    2.23000002    2.15000010
   11.01027775  145.49299622    2.23000002    2.13000011
   11.01333332  137.87800598    2.23000002    2.15000010
   11.01666641  130.08599854    2.23000002    2.15000010
   11.01999950  142.60499573    2.23000002    2.15000010
   11.02305508  136.66099548    2.23000002    2.15000010
   11.02638817  141.67399597    2.21000004    2.17000008
   11.02972221  144.69500732    2.21000004    2.17000008
   11.03277779  149.51100159    2.21000004    2.17000008
   11.03611183  145.71800232    2.21000004    2.17000008
   11.03916740  147.03500366    2.19000006    2.17000008
   11.04111195  142.88099670    2.19000006    2.17000008
   11.04305553  135.39999390    2.19000006    2.17000008
   11.04638958  141.58099365    2.17000008    2.17000008
   11.04944515  151.30400085    2.17000008    2.17000008
   11.05277824  140.55099487    2.17000008    2.17000008
   11.05583382  147.24200439    2.15000010    2.17000008
   11.05916691  138.13299561    2.15000010    2.17000008
   11.06250000  152.25799561    2.15000010    2.17000008
   11.06555557  129.63299561    2.15000010    2.19000006
   11.06888866  145.66700745    2.13000011    2.19000006
   11.07222176  141.41999817    2.13000011    2.19000006
   11.07444477  133.39500427    2.13000011    2.19000006
   11.07583332  136.78100586    2.13000011    2.19000006
   11.07916641  131.79800415    2.11999989    2.19000006
   11.08222198  148.24200439    2.11999989    2.21000004
   11.08555508  133.22300720    2.11999989    2.21000004
   11.08861065  139.93499756    2.09999990    2.21000004
   11.09194374  136.42500305    2.09999990    2.19000006
   11.09527779  143.87399292    2.09999990    2.21000004
   11.09833336  134.55999756    2.09999990    2.21000004
   11.10166740  140.59800720    2.07999992    2.21000004
   11.10500050  140.11500549    2.07999992    2.21000004
   11.10777855  132.98100281    2.07999992    2.21000004
   11.10861111  137.72900391    2.07999992    2.21000004
   11.11166668  140.62699890    2.07999992    2.21000004
   11.11500072  139.84800720    2.05999994    2.21000004
   11.11833382  143.39300537    2.05999994    2.21000004
   11.12138939  139.78100586    2.03999996    2.21000004
   11.12472248  140.68299866    2.03999996    2.23000002
   11.12805557  139.14399719    2.01999998    2.23000002
   11.13111115  156.59700012    2.01999998    2.23000002
   11.13444424  127.16799927    2.00000000    2.23000002
   11.13749981  138.07699585    2.00000000    2.23000002
   11.14083290  140.96099854    4.90999985    2.25000000
   11.14138889  135.81799316    4.90999985    2.32999992
   11.14416695  137.28399658    4.90999985    2.32999992
   11.14750004  134.60800171    4.90999985    2.34999990
   11.15083313  143.48800659    4.90999985    2.32999992
   11.15388870  143.19999695    4.90999985    2.34999990
   11.15722179  142.75599670    4.90999985    2.34999990
   11.16055489  159.03500366    4.90999985    2.34999990
   11.16361046  186.50599670    4.90999985    2.34999990
   11.16694450  177.49200439    4.90999985    2.34999990
   11.17000008  153.32499695    4.90999985    2.36999989
   11.17333412  194.89100647    4.90999985    2.36999989
   11.17472267  178.00799561    4.90999985    2.36999989
   11.17694473  166.18200684    4.90999985    2.34999990
   11.18027782  199.51699829    4.90999985    2.36999989
   11.18361092  177.45899963    4.90999985    2.36999989
   11.18666649  186.21800232    4.90999985    2.36999989
   11.19000053  157.08999634    4.90999985    2.36999989
   11.19333363  155.30200195    4.90999985    2.36999989
   11.19638920  147.85200500    4.90999985    2.36999989
   11.19972229  144.26699829    4.90999985    2.36999989
   11.20277786  141.04600525    4.90999985    2.36999989
   11.20611095  138.15600586    4.90999985    2.36999989
   11.20805550  126.41799927    4.90999985    2.39000010
   11.21000004  129.49099731    4.90999985    2.36999989
   11.21305561  143.34300232    4.90999985    2.36999989
   11.21638870  126.62400055    4.90999985    2.39000010
   11.21944427  134.46099854    4.90999985    2.39000010
   11.22277737  135.10600281    4.90999985    2.39000010
   11.22611046  122.84300232    4.90999985    2.39000010
   11.22916603  129.75900269    4.90999985    2.39000010
   11.23249912  133.13499451    4.90999985    2.39000010
   11.23583317  132.89799500    4.90999985    2.39000010
   11.23888874  137.72099304    4.90999985    2.39000010
   11.24138927  136.74699402    4.90999985    2.40000010
   11.24277782  137.18099976    4.90999985    2.39000010
   11.24583340  132.40699768    4.90999985    2.40000010
   11.24916649  135.47799683    4.90999985    2.40000010
   11.25222206  140.22700500    4.90999985    2.40000010
   11.25555515  142.06799316    4.90999985    2.40000010
   11.25888920  138.30599976    4.90999985    2.40000010
   11.26194477  135.46800232    4.90999985    2.40000010
   11.26527786  136.82000732    4.90999985    2.40000010
   11.26861095  134.60099792    4.90999985    2.40000010
   11.27166653  133.28599548    4.90999985    2.40000010
   11.27472210  134.06399536    4.90999985    2.42000008
   11.27527714  136.27000427    4.90999985    2.42000008
   11.27861118  148.45799255    4.90999985    2.40000010
   11.28194427  135.14700317    4.90999985    2.40000010
   11.28500080  137.47700500    4.90999985    2.40000010
   11.28833389  139.54499817    4.90999985    2.40000010
   11.29166698  129.53100586    4.90999985    2.42000008
   11.29472256  130.18099976    4.90999985    2.42000008
   11.29805565  131.85200500    4.90999985    2.42000008
   11.30111122  132.71800232    4.90999985    2.42000008
   11.30444431  137.25799561    4.90999985    2.42000008
   11.30777836  135.66499329    4.90999985    2.42000008
   11.30805588  135.44400024    4.90999985    2.42000008
   11.31111145  130.81799316    4.90999985    2.42000008
   11.31444454  128.94000244    4.90999985    2.42000008
   11.31750011  142.49600220    4.90999985    2.44000006
   11.32083321  135.27999878    4.90999985    2.44000006
   11.32416630  137.99499512    4.90999985    2.44000006
   11.32722187  139.39599609    4.90999985    2.44000006
   11.33055592  136.01300049    4.90999985    2.44000006
   11.33361053  140.66299438    4.90999985    2.44000006
   11.33694458  132.96400452    4.90999985    2.44000006
   11.34027767  131.55799866    4.90999985    2.44000006
   11.34138870  127.63899994    4.90999985    2.44000006
   11.34388828  137.00000000    4.90999985    2.44000006
   11.34722233  133.70399475    4.90999985    2.44000006
   11.35027790  134.75700378    4.90999985    2.44000006
   11.35361195  131.07000732    4.90999985    2.44000006
   11.35694504  135.37399292    4.90999985    2.44000006
   11.36000061  132.36399841    4.90999985    2.46000004
   11.36333370  136.67100525    4.90999985    2.44000006
   11.36638927  131.98699951    4.90999985    2.44000006
   11.36972237  132.37600708    4.90999985    2.44000006
   11.37305546  135.82299805    4.90999985    2.44000006
   11.37500000  138.51400757    4.90999985    2.46000004
   11.37666702  136.96200562    4.90999985    2.46000004
   11.38000011  139.43699646    4.90999985    2.46000004
   11.38305569  128.15600586    4.90999985    2.46000004
   11.38638878  130.51400757    4.90999985    2.46000004
   11.38972187  131.97000122    4.90999985    2.46000004
   11.39277744  141.00000000    4.90999985    2.46000004
   11.39611053  132.77299500    4.90999985    2.46000004
   11.39944458  138.45599365    4.90999985    2.46000004
   11.40249920  130.95899963    4.90999985    2.48000002
   11.40583324  135.16900635    4.90999985    2.48000002
   11.40833282  152.32099915    4.90999985    2.48000002
   11.40944386  137.25799561    4.90999985    2.48000002
   11.41277695  134.07299805    4.90999985    2.48000002
   11.41583252  140.71000671    4.90999985    2.48000002
   11.41916656  132.32499695    4.90999985    2.48000002
   11.42250061  146.91799927    4.90999985    2.48000002
   11.42555618  130.56500244    4.90999985    2.48000002
   11.42888927  135.91499329    4.90999985    2.48000002
   11.43222237  138.81199646    4.90999985    2.48000002
   11.43527794  137.09100342    4.90999985    2.48000002
   11.43861103  132.00199890    4.90999985    2.48000002
   11.44138908  139.58099365    4.90999985    2.48000002
   11.44222260  141.97200012    4.90999985    2.48000002
   11.44555569  127.01200104    4.90999985    2.48000002
   11.44861126  126.59400177    4.90999985    2.50000000
   11.45194435  127.32900238    4.90999985    2.48000002
   11.45527744  134.29400635    4.90999985    2.50000000
   11.45833302  135.38299561    4.90999985    2.48000002
   11.46166611  133.46699524    4.90999985    2.50000000
   11.46472168  127.75099945    4.90999985    2.50000000
   11.46805477  135.67300415    4.90999985    2.50000000
   11.47138882  134.16200256    4.90999985    2.50000000
   11.47444439  138.83200073    4.90999985    2.50000000
   11.47499943  143.09300232    4.90999985    2.50000000
   11.47805500  137.49899292    4.90999985    2.50000000
   11.48111057  133.60800171    4.90999985    2.51999998
   11.48444462  125.94999695    4.90999985    2.51999998
   11.48777771  139.57200623    4.90999985    2.51999998
   11.49083328  130.85499573    4.90999985    2.51999998
   11.49416733  134.56700134    4.90999985    2.51999998
   11.49722290  131.19999695    4.90999985    2.51999998
   11.50055599  127.52700043    4.90999985    2.51999998
   11.50388908  126.11599731    4.90999985    2.51999998
   11.50694466  133.75100708    4.90999985    2.51999998
   11.52416611  132.84199524    4.90999985    2.51999998
   11.52666664  132.19599915    4.90999985    2.51999998
   11.52999973  131.31100464    4.90999985    2.51999998
   11.53333378  138.38499451    4.90999985    2.51999998
   11.53638935  129.94400024    4.90999985    2.51999998
   11.53972244  131.41000366    4.90999985    2.51999998
   11.54305553  129.51699829    4.90999985    2.53999996
   11.54611111  130.35000610    4.90999985    2.51999998
   11.54944515  127.15200043    4.90999985    2.53999996
   11.55249977  132.45599365    4.90999985    2.51999998
   11.55583382  135.42500305    4.90999985    2.53999996
   11.55722237  127.31999969    4.90999985    2.53999996
   11.55944443  136.05599976    4.90999985    2.53999996
   11.56277752  137.38999939    4.90999985    2.53999996
   11.56583309  126.04399872    4.90999985    2.53999996
   11.56916618  126.87300110    4.90999985    2.53999996
   11.57250023  130.66099548    4.90999985    2.53999996
   11.57555580  129.16200256    4.90999985    2.53999996
   11.57888889  127.31300354    4.90999985    2.53999996
   11.58194447  128.17100525    4.90999985    2.53999996
   11.58527756  128.53500366    4.90999985    2.55999994
   11.58861065  119.16200256    4.90999985    2.55999994
   11.59083271  133.98399353    4.90999985    2.55999994
   11.59194374  137.50900269    4.90999985    2.55999994
   11.59527779  128.81399536    4.90999985    2.55999994
   11.59861088  134.44900513    4.90999985    2.55999994
   11.60166740  130.30700684    4.90999985    2.55999994
   11.60500050  130.14599609    4.90999985    2.55999994
   11.60833359  123.13600159    4.90999985    2.55999994
   11.61138916  129.09500122    4.90999985    2.55999994
   11.61472225  129.95700073    4.90999985    2.55999994
   11.61777782  125.55000305    4.90999985    2.55999994
   11.62111092  128.18499756    4.90999985    2.55999994
   11.62416649  131.85400391    4.90999985    2.55999994
   11.62472248  123.44400024    4.90999985    2.55999994
   11.62805557  130.53799438    4.90999985    2.55999994
   11.63138866  121.65200043    4.90999985    2.55999994
   11.63444424  133.65800476    4.90999985    2.55999994
   11.63777733  120.27300262    4.90999985    2.57999992
   11.64083290  134.08999634    4.90999985    2.55999994
   11.64416695  123.96800232    4.90999985    2.55999994
   11.64750004  134.48100281    4.90999985    2.55999994
   11.65055561  127.61900330    4.90999985    2.57999992
   11.65388870  130.26300049    4.90999985    2.55999994
   11.65722179  127.41699982    4.90999985    2.57999992
   11.65749931  142.02900696    4.90999985    2.57999992
   11.66083336  129.98300171    4.90999985    2.57999992
   11.66416645  131.91099548    4.90999985    2.57999992
   11.66722298  120.31099701    4.90999985    2.55999994
   11.67055607  131.97900391    4.90999985    2.57999992
   11.67361164  132.62100220    4.90999985    2.55999994
   11.67694473  134.68600464    4.90999985    2.57999992
   11.68027782  131.26400757    4.90999985    2.57999992
   11.68333340  123.12999725    4.90999985    2.57999992
   11.68666649  131.98399353    4.90999985    2.59999990
   11.69000053  127.83699799    4.90999985    2.59999990
   11.69083309  127.52600098    4.90999985    2.57999992
   11.69333363  124.54299927    4.90999985    2.59999990
   11.69666672  126.21399689    4.90999985    2.59999990
   11.69972229  125.73899841    4.90999985    2.59999990
   11.70305538  124.04399872    4.90999985    2.59999990
   11.70611095  128.23399353    4.90999985    2.59999990
   11.70944405  122.82900238    4.90999985    2.59999990
   11.71277714  122.19899750    4.90999985    2.59999990
   11.71583271  119.26100159    4.90999985    2.59999990
   11.71916580  127.31600189    4.90999985    2.59999990
   11.72249985  123.80999756    4.90999985    2.59999990
   11.72416592  127.13099670    4.90999985    2.59999990
   11.72611046  130.34500122    4.90999985    2.59999990
   11.72944355  135.23500061    4.90999985    2.59999990
   11.73249912  124.93199921    4.90999985    2.59999990
   11.73583317  121.58399963    4.90999985    2.59999990
   11.73888874  125.45700073    4.90999985    2.59999990
   11.74222279  123.32099915    4.90999985    2.59999990
   11.74555588  127.89800262    4.90999985    2.59999990
   11.74861145  131.52099609    4.90999985    2.59999990
   11.75194454  125.66899872    4.90999985    2.61999989
   11.75527763  125.22399902    4.90999985    2.61999989
   11.75749969  130.41499329    4.90999985    2.59999990
   11.75888920  129.41200256    4.90999985    2.61999989
   11.76222229  123.44999695    4.90999985    2.61999989
   11.76555538  121.77300262    4.90999985    2.61999989
   11.76861095  125.73999786    4.90999985    2.61999989
   11.77194405  131.22799683    4.90999985    2.61999989
   11.77499962  126.26699829    4.90999985    2.61999989
   11.77833271  111.31300354    4.90999985    2.61999989
   11.78166676  114.32700348    4.90999985    2.61999989
   11.78472233  117.27899933    4.90999985    2.61999989
   11.78805637  117.96099854    4.90999985    2.61999989
   11.79083347  124.81700134    4.90999985    2.61999989
   11.79166698  128.42399597    4.90999985    2.61999989
   11.79500008  130.02600098    4.90999985    2.61999989
   11.79805565  121.86699677    4.90999985    2.61999989
   11.80138874  121.43800354    4.90999985    2.64000010
   11.80444431  119.28399658    4.90999985    2.61999989
   11.80777836  123.83599854    4.90999985    2.61999989
   11.81111145  129.31900024    4.90999985    2.64000010
   11.81416702  112.02500153    4.90999985    2.61999989
   11.81750011  105.93199921    4.90999985    2.64000010
   11.82083321  120.23799896    4.90999985    2.61999989
   11.82388878  119.38600159    4.90999985    2.64000010
   11.82444477  131.54600525    4.90999985    2.64000010
   11.82750034  121.10299683    4.90999985    2.64000010
   11.83055592  121.13200378    4.90999985    2.64000010
   11.83388901  128.67900085    4.90999985    2.61999989
   11.83694458  118.84300232    4.90999985    2.64000010
   11.84027767  120.47000122    4.90999985    2.64000010
   11.84361076  120.97599792    4.90999985    2.64000010
   11.84694386  111.74700165    4.90999985    2.64000010
   11.85000038  127.49700165    4.90999985    2.64000010
   11.85333347  121.39700317    4.90999985    2.64000010
   11.85638905  125.45999908    4.90999985    2.64000010
   11.85777855  122.23899841    4.90999985    2.64000010
   11.86027813  123.19200134    4.90999985    2.64000010
   11.86333370  119.85199738    4.90999985    2.64000010
   11.86666679  132.65100098    4.90999985    2.66000009
   11.86972237  124.50599670    4.90999985    2.66000009
   11.87305546  118.39299774    4.90999985    2.64000010
   11.87638855  120.32099915    4.90999985    2.64000010
   11.87944412  120.06999969    4.90999985    2.64000010
   11.88277817  129.90400696    4.90999985    2.64000010
   11.88611126  121.26000214    4.90999985    2.64000010
   11.88916683  119.86599731    4.90999985    2.66000009
   11.89111137  120.10700226    4.90999985    2.66000009
   11.89305496  120.37899780    4.90999985    2.66000009
   11.89611053  118.96900177    4.90999985    2.67000008
   11.89944458  123.39299774    4.90999985    2.66000009
   11.90249920  116.41600037    4.90999985    2.66000009
   11.90583324  119.39499664    4.90999985    2.66000009
   11.90916634  121.49199677    4.90999985    2.66000009
   11.91222191  119.58000183    4.90999985    2.66000009
   11.91555500  116.89900208    4.90999985    2.67000008
   11.91888905  118.01000214    4.90999985    2.66000009
   11.92194462  125.75900269    4.90999985    2.66000009
   11.92444515  119.06400299    4.90999985    2.66000009
   11.92583370  123.94599915    4.90999985    2.66000009
   11.92888927  124.87100220    4.90999985    2.67000008
   11.93222237  113.83699799    4.90999985    2.67000008
   11.93555546  122.56300354    4.90999985    2.67000008
   11.93861103  126.58899689    4.90999985    2.67000008
   11.94194412  129.64799500    4.90999985    2.67000008
   11.94499969  124.11399841    4.90999985    2.67000008
   11.94833374  113.94699860    4.90999985    2.67000008
   11.95166683  120.26300049    4.90999985    2.67000008
   11.95472240  111.22100067    4.90999985    2.67000008
   11.95777798  124.01000214    4.90999985    2.67000008
   11.95861053  122.66100311    4.90999985    2.67000008
   11.96166611  120.12699890    4.90999985    2.67000008
   11.96500015  123.76899719    4.90999985    2.67000008
   11.96805477  119.23500061    4.90999985    2.67000008
   11.97138882  120.05200195    4.90999985    2.67000008
   11.97472191  119.26599884    4.90999985    2.67000008
   11.97777748  112.86900330    4.90999985    2.67000008
   11.98111057  121.29199982    4.90999985    2.67000008
   11.98444462  115.61599731    4.90999985    2.67000008
   11.98750019  123.56400299    4.90999985    2.67000008
   11.99083328  125.22000122    4.90999985    2.69000006
   11.99138927  116.72899628    4.90999985    2.69000006
   11.99416733  134.24400330    4.90999985    2.67000008
   11.99750042  128.33399963    4.90999985    2.69000006
   12.00055599  126.58300018    4.90999985    2.69000006
   12.00388908  125.54299927    4.90999985    2.69000006
   12.00722218  121.91500092    4.90999985    2.69000006
   12.01055527  121.61000061    4.90999985    2.69000006
   12.01361084  121.17299652    4.90999985    2.69000006
   12.01694393  121.67400360    4.90999985    2.67000008
   12.01999950  129.80000305    4.90999985    2.67000008
   12.02333355  125.98200226    4.90999985    2.69000006
   12.02472210  123.92500305    4.90999985    2.67000008
   12.02694416  119.12400055    4.90999985    2.69000006
   12.03027725  124.57399750    4.90999985    2.69000006
   12.03333378  119.68800354    4.90999985    2.69000006
   12.03666687  128.25700378    4.90999985    2.69000006
   12.04000092  120.31999969    4.90999985    2.69000006
   12.04305553  122.07099915    4.90999985    2.69000006
   12.04638958  127.75000000    4.90999985    2.69000006
   12.04972267  116.37200165    4.90999985    2.69000006
   12.05277824  111.20899963    4.90999985    2.69000006
   12.05611134  113.35099792    4.90999985    2.71000004
   12.05805588  118.69499969    4.90999985    2.69000006
   12.05972195  123.54399872    4.90999985    2.69000006
   12.06305599  114.26699829    4.90999985    2.69000006
   12.06638908  115.72799683    4.90999985    2.69000006
   12.06944466  128.61399841    4.90999985    2.71000004
   12.07277775  130.91600037    4.90999985    2.69000006
   12.07583332  125.41600037    4.90999985    2.69000006
   12.07916641  121.43499756    4.90999985    2.71000004
   12.08249950  125.16400146    4.90999985    2.71000004
   12.08555508  120.04699707    4.90999985    2.71000004
   12.08888817  115.71800232    4.90999985    2.71000004
   12.09138870  124.96800232    4.90999985    2.69000006
   12.09249973  115.42500305    4.90999985    2.71000004
   12.09583282  120.62899780    4.90999985    2.69000006
   12.09888840  120.85199738    4.90999985    2.71000004
   12.10222244  132.02400208    4.90999985    2.71000004
   12.10555553  127.73000336    4.90999985    2.71000004
   12.10861111  119.93499756    4.90999985    2.71000004
   12.11194515  117.99299622    4.90999985    2.71000004
   12.11527824  125.59799957    4.90999985    2.71000004
   12.11833382  111.20600128    4.90999985    2.71000004
   12.12166691  122.15899658    4.90999985    2.71000004
   12.12472248  122.85900116    4.90999985    2.71000004
   12.12500000  116.83300018    4.90999985    2.71000004
   12.12833309  122.12799835    4.90999985    2.71000004
   12.13138866  122.63400269    4.90999985    2.71000004
   12.13472176  120.15200043    4.90999985    2.71000004
   12.13805580  126.12999725    4.90999985    2.71000004
   12.14111137  121.93699646    4.90999985    2.73000002
   12.14444447  121.10900116    4.90999985    2.71000004
   12.14777756  123.70999908    4.90999985    2.71000004
   12.15083313  127.81999969    4.90999985    2.71000004
   12.15416622  125.09400177    4.90999985    2.71000004
   12.15722179  125.27500153    4.90999985    2.71000004
   12.15805531  126.73500061    4.90999985    2.71000004
   12.16083336  113.39700317    4.90999985    2.71000004
   12.16416645  120.78700256    4.90999985    2.71000004
   12.16750050  115.55300140    4.90999985    2.71000004
   12.17055607  124.43399811    4.90999985    2.71000004
   12.17388916  123.42900085    4.90999985    2.71000004
   12.17694473  120.72200012    4.90999985    2.71000004
   12.18027782  125.51499939    4.90999985    2.73000002
   12.18361092  121.63899994    4.90999985    2.73000002
   12.18666649  119.47200012    4.90999985    2.71000004
   12.19000053  123.05999756    4.90999985    2.73000002
   12.19138908  117.10399628    4.90999985    2.71000004
   12.19361115  116.89700317    4.90999985    2.71000004
   12.19694424  115.44699860    4.90999985    2.71000004
   12.20027733  121.09100342    4.90999985    2.71000004
   12.20333290  118.34600067    4.90999985    2.73000002
   12.20666695  117.77300262    4.90999985    2.73000002
   12.20972157  121.47200012    4.90999985    2.73000002
   12.21305561  129.44599915    4.90999985    2.71000004
   12.21638870  121.74700165    4.90999985    2.71000004
   12.21944427  118.67600250    4.90999985    2.73000002
   12.22277737  106.12000275    4.90999985    2.75000000
   12.22499943  131.92300415    4.90999985    2.73000002
   12.22694397  100.75099945    4.90999985    2.73000002
   12.22999954  111.74600220    4.90999985    2.73000002
   12.23333359  112.07700348    4.90999985    2.73000002
   12.23638916  108.01399994    4.90999985    2.73000002
   12.23972225  119.71299744    4.90999985    2.73000002
   12.24305534  116.67700195    4.90999985    2.73000002
   12.24611092  121.00900269    4.90999985    2.75000000
   12.24944496  116.41000366    4.90999985    2.75000000
   12.25277805  111.55699921    4.90999985    2.73000002
   12.25583363  125.47899628    4.90999985    2.73000002
   12.25805569  122.32299805    4.90999985    2.73000002
   12.25944424  114.43900299    4.90999985    2.73000002
   12.26277733  116.47399902    4.90999985    2.73000002
   12.26611137  120.76699829    4.90999985    2.73000002
   12.26916599  113.52300262    4.90999985    2.73000002
   12.27250004  115.30599976    4.90999985    2.73000002
   12.27583313  105.44599915    4.90999985    2.73000002
   12.27888870  114.05400085    4.90999985    2.73000002
   12.28222179  122.75700378    4.90999985    2.75000000
   12.28527832  114.66100311    4.90999985    2.73000002
   12.28861141  110.32199860    4.90999985    2.76999998
   12.29138947  120.13700104    4.90999985    2.73000002
   12.29222298  112.48899841    4.90999985    2.73000002
   12.29555607  116.62999725    4.90999985    2.75000000
   12.29888916  115.30500031    4.90999985    2.75000000
   12.30194473  111.65000153    4.90999985    2.76999998
   12.30527782  112.51899719    4.90999985    2.75000000
   12.30861092  122.11299896    4.90999985    2.75000000
   12.31166649  117.74900055    4.90999985    2.75000000
   12.31500053  112.33100128    4.90999985    2.73000002
   12.31805515  112.85600281    4.90999985    2.73000002
   12.32138920  111.12799835    4.90999985    2.75000000
   12.32472229  119.09999847    4.90999985    2.75000000
   12.32499981  114.71499634    4.90999985    2.75000000
   12.32833290  119.12300110    4.90999985    2.75000000
   12.33166695  114.04000092    4.90999985    2.75000000
   12.33472157  122.19400024    4.90999985    2.75000000
   12.33805561  123.84600067    4.90999985    2.75000000
   12.34111118  116.37799835    4.90999985    2.73000002
   12.34444427  132.29899597    4.90999985    2.75000000
   12.34777737  106.02999878    4.90999985    2.75000000
   12.35111141  131.38600159    4.90999985    2.75000000
   12.35416698  127.62300110    4.90999985    2.75000000
   12.35750008  124.01899719    4.90999985    2.75000000
   12.35805607  119.15499878    4.90999985    2.75000000
   12.36111164  125.94000244    4.90999985    2.75000000
   12.36416721  108.52999878    4.90999985    2.75000000
   12.36750031  110.12999725    4.90999985    2.75000000
   12.37055588  103.65799713    4.90999985    2.75000000
   12.37388897  123.02300262    4.90999985    2.75000000
   12.37722206  111.29100037    4.90999985    2.76999998
   12.38027763  120.36599731    4.90999985    2.75000000
   12.38361073  115.55000305    4.90999985    2.75000000
   12.38694477  113.81500244    4.90999985    2.75000000
   12.39000034  111.06600189    4.90999985    2.75000000
   12.39138889  118.59999847    4.90999985    2.75000000
   12.39388847  110.96800232    4.90999985    2.75000000
   12.39694405  107.56099701    4.90999985    2.76999998
   12.40027714  117.61699677    4.90999985    2.75000000
   12.40333271  117.16999817    4.90999985    2.75000000
   12.40666676  111.98600006    4.90999985    2.75000000
   12.40999985  112.19599915    4.90999985    2.76999998
   12.41305542  115.52899933    4.90999985    2.75000000
   12.41638851  110.69499969    4.90999985    2.76999998
   12.41972256  123.59600067    4.90999985    2.75000000
   12.42277813  124.41200256    4.90999985    2.75000000
   12.42472267  121.89800262    4.90999985    2.76999998
   12.42666721  115.98300171    4.90999985    2.76999998
   12.42972279  125.62200165    4.90999985    2.76999998
   12.43305588  117.75299835    4.90999985    2.76999998
   12.43611145  133.63800049    4.90999985    2.75000000
   12.43944454  119.09300232    4.90999985    2.75000000
   12.44277763  111.55100250    4.90999985    2.76999998
   12.44583321  122.43199921    4.90999985    2.76999998
   12.44916630  115.28399658    4.90999985    2.76999998
   12.45249939  103.06700134    4.90999985    2.76999998
   12.45555496  109.06500244    4.90999985    2.76999998
   12.45805550  110.54699707    4.90999985    2.75000000
   12.45944405  108.25099945    4.90999985    2.75000000
   12.46249962  111.92900085    4.90999985    2.78999996
   12.46583271  109.08100128    4.90999985    2.75000000
   12.46916580  110.99700165    4.90999985    2.76999998
   12.47222137  106.17299652    4.90999985    2.76999998
   12.47555542  100.07099915    4.90999985    2.75000000
   12.47861099  104.47200012    4.90999985    2.76999998
   12.48194408  114.87699890    4.90999985    2.76999998
   12.48527813  112.89700317    4.90999985    2.76999998
   12.48833370  113.89600372    4.90999985    2.75000000
   12.49138927  113.68399811    4.90999985    2.76999998
   12.49222279  106.63600159    4.90999985    2.76999998
   12.49527836  122.76799774    4.90999985    2.76999998
   12.49861145  121.16899872    4.90999985    2.75000000
   12.50194454  117.29699707    4.90999985    2.76999998
   12.50500011  122.51499939    4.90999985    2.76999998
   12.50833321  114.16300201    4.90999985    2.76999998
   12.51166630  124.53399658    4.90999985    2.76999998
   12.51472187  113.02600098    4.90999985    2.76999998
   12.51805496  112.50900269    4.90999985    2.76999998
   12.52138901  117.26799774    4.90999985    2.78999996
   12.54055595  118.14800262    4.90999985    2.76999998
   12.54111195  116.73600006    4.90999985    2.76999998
   12.54444504  117.36000061    4.90999985    2.76999998
   12.54750061  116.02999878    4.90999985    2.76999998
   12.55083370  109.88600159    4.90999985    2.78999996
   12.55416679  119.73699951    4.90999985    2.76999998
   12.55722237  116.97200012    4.90999985    2.76999998
   12.56055546  119.26999664    4.90999985    2.78999996
   12.56361103  112.63200378    4.90999985    2.78999996
   12.56694412  120.67700195    4.90999985    2.80999994
   12.57027817  120.23400116    4.90999985    2.78999996
   12.57333374  119.89900208    4.90999985    2.78999996
   12.57388878  124.96499634    4.90999985    2.78999996
   12.57694435  118.49199677    4.90999985    2.78999996
   12.57999992  116.27899933    4.90999985    2.78999996
   12.58333302  105.76999664    4.90999985    2.78999996
   12.58666611  108.23000336    4.90999985    2.76999998
   12.58972168  112.18399811    4.90999985    2.76999998
   12.59305477  108.69300079    4.90999985    2.78999996
   12.59638882  110.59200287    4.90999985    2.76999998
   12.59944439  108.43900299    4.90999985    2.78999996
   12.60277843  106.29699707    4.90999985    2.78999996
   12.60583401  107.35700226    4.90999985    2.78999996
   12.60722256  116.22000122    4.90999985    2.78999996
   12.60944462  116.74500275    4.90999985    2.78999996
   12.61277771  110.90799713    4.90999985    2.78999996
   12.61583328  102.15299988    4.90999985    2.78999996
   12.61916637  111.69000244    4.90999985    2.78999996
   12.62250042  112.19899750    4.90999985    2.78999996
   12.62555599  106.47000122    4.90999985    2.78999996
   12.62888908  105.00800323    4.90999985    2.78999996
   12.63194466  107.37300110    4.90999985    2.78999996
   12.63527775  107.46399689    4.90999985    2.78999996
   12.63861084  110.37400055    4.90999985    2.80999994
   12.64055538  107.34200287    4.90999985    2.78999996
   12.64222240  108.46600342    4.90999985    2.78999996
   12.64555550   99.77100372    4.90999985    2.80999994
   12.64861107  103.42400360    4.90999985    2.78999996
   12.65194416  110.85800171    4.90999985    2.80999994
   12.65527725  110.83200073    4.90999985    2.78999996
   12.65833282  105.28700256    4.90999985    2.78999996
   12.66166592  122.27799988    4.90999985    2.78999996
   12.66472149  105.00499725    4.90999985    2.78999996
   12.66805553  118.16699982    4.90999985    2.78999996
   12.67138958   98.01000214    4.90999985    2.80999994
   12.67388916  115.59600067    4.90999985    2.80999994
   12.67500019  104.69400024    4.90999985    2.80999994
   12.67833328  115.57299805    4.90999985    2.80999994
   12.68138885  108.44699860    4.90999985    2.80999994
   12.68472195  112.31099701    4.90999985    2.80999994
   12.68805599  118.24400330    4.90999985    2.78999996
   12.69111156  113.70899963    4.90999985    2.78999996
   12.69444466  106.19100189    4.90999985    2.80999994
   12.69750023  103.90399933    4.90999985    2.80999994
   12.70083332  115.73699951    4.90999985    2.78999996
   12.70416641  108.98000336    4.90999985    2.80999994
   12.70722198  117.45600128    4.90999985    2.80999994
   12.70777798  116.93499756    4.90999985    2.82999992
   12.71111107  104.45700073    4.90999985    2.80999994
   12.71416664  115.03099823    4.90999985    2.78999996
   12.71749973  120.33200073    4.90999985    2.82999992
   12.72083282  110.52100372    4.90999985    2.80999994
   12.72388840  111.28299713    4.90999985    2.80999994
   12.72722149  106.45899963    4.90999985    2.80999994
   12.73027706  112.35399628    4.90999985    2.82999992
   12.73361111  107.55999756    4.90999985    2.80999994
   12.73694515  109.21399689    4.90999985    2.80999994
   12.74000072  109.24099731    4.90999985    2.80999994
   12.74055576  117.64600372    4.90999985    2.80999994
   12.74361134  107.27200317    4.90999985    2.80999994
   12.74694443  108.82399750    4.90999985    2.80999994
   12.75000000  109.58999634    4.90999985    2.80999994
   12.75333309  112.39299774    4.90999985    2.80999994
   12.75666714  109.02200317    4.90999985    2.80999994
   12.75972176  103.71499634    4.90999985    2.84999990
   12.76305580  110.54699707    4.90999985    2.82999992
   12.76638889  105.20500183    4.90999985    2.82999992
   12.76944447  111.32399750    4.90999985    2.80999994
   12.77277756  112.40299988    4.90999985    2.80999994
   12.77416611  104.61900330    4.90999985    2.80999994
   12.77638817  109.46299744    4.90999985    2.80999994
   12.77972221  114.09700012    4.90999985    2.82999992
   12.78277779  114.09799957    4.90999985    2.80999994
   12.78611183  116.64199829    4.90999985    2.82999992
   12.78944492  107.12599945    4.90999985    2.82999992
   12.79250050  119.89199829    4.90999985    2.82999992
   12.79583359  112.71299744    4.90999985    2.80999994
   12.79916668  108.26499939    4.90999985    2.82999992
   12.80222225  115.29000092    4.90999985    2.82999992
   12.80555534  120.25199890    4.90999985    2.82999992
   12.80722237  113.77300262    4.90999985    2.80999994
   12.80916691  106.85399628    4.90999985    2.82999992
   12.81250000  107.79900360    4.90999985    2.82999992
   12.81555557  115.84700012    4.90999985    2.82999992
   12.81888866  110.43000031    4.90999985    2.82999992
   12.82222176  119.65699768    4.90999985    2.82999992
   12.82527733  114.99500275    4.90999985    2.82999992
   12.82861137  108.96900177    4.90999985    2.82999992
   12.83194447  117.81400299    4.90999985    2.82999992
   12.83500004  112.27799988    4.90999985    2.82999992
   12.83833313  113.91699982    4.90999985    2.82999992
   12.84083271  116.83499908    4.90999985    2.82999992
   12.84194374  105.41300201    4.90999985    2.82999992
   12.84527779  111.93299866    4.90999985    2.82999992
   12.84833336  114.91000366    4.90999985    2.82999992
   12.85166740  118.17700195    4.90999985    2.82999992
   12.85500050  112.09700012    4.90999985    2.82999992
   12.85805607  110.08000183    4.90999985    2.82999992
   12.86138916  106.72000122    4.90999985    2.82999992
   12.86472225   99.94029999    4.90999985    2.84999990
   12.86777782  117.57599640    4.90999985    2.82999992
   12.87111092  107.12799835    4.90999985    2.84999990
   12.87416649  113.42099762    4.90999985    2.82999992
   12.87472248  106.76599884    4.90999985    2.82999992
   12.87805557  114.95500183    4.90999985    2.84999990
   12.88111115  107.25000000    4.90999985    2.82999992
   12.88444424  108.91200256    4.90999985    2.82999992
   12.88777733  110.62100220    4.90999985    2.84999990
   12.89083290  109.95099640    4.90999985    2.82999992
   12.89416695  110.07900238    4.90999985    2.82999992
   12.89750004  112.33999634    4.90999985    2.82999992
   12.90055561  115.75800323    4.90999985    2.82999992
   12.90388870  117.93699646    4.90999985    2.84999990
   12.90694427  114.76200104    4.90999985    2.84999990
   12.90749931  116.92199707    4.90999985    2.84999990
   12.91083336  110.52600098    4.90999985    2.82999992
   12.91388893  113.88099670    4.90999985    2.84999990
   12.91722298  107.32299805    4.90999985    2.82999992
   12.92055607  112.98000336    4.90999985    2.84999990
   12.92361164  105.50099945    4.90999985    2.84999990
   12.92694473  116.63600159    4.90999985    2.82999992
   12.93027782  110.69699860    4.90999985    2.84999990
   12.93333340  114.09300232    4.90999985    2.84999990
   12.93666649  112.40499878    4.90999985    2.82999992
   12.93972206  106.49199677    4.90999985    2.84999990
   12.94083309  109.72399902    4.90999985    2.84999990
   12.94333363  114.73100281    4.90999985    2.84999990
   12.94638920  114.64600372    4.90999985    2.84999990
   12.94972229  115.34899902    4.90999985    2.82999992
   12.95305538  113.15699768    4.90999985    2.84999990
   12.95611095  110.76699829    4.90999985    2.84999990
   12.95944405  109.98899841    4.90999985    2.84999990
   12.96277714  111.52500153    4.90999985    2.84999990
   12.96583271  110.84799957    4.90999985    2.82999992
   12.96916580  106.53900146    4.90999985    2.82999992
   12.97222137  111.98899841    4.90999985    2.84999990
   12.97416592  108.86199951    4.90999985    2.84999990
   13.07750034   -1.00000000   -1.00000000   -1.00000000
   13.18111134   -1.00000000   -1.00000000   -1.00000000
   13.28083324   -1.00000000   -1.00000000   -1.00000000
   13.30777836   79.22090149    4.90999985    2.86999989
   13.31111145  120.16799927    4.90999985    2.86999989
   13.31416702  114.03700256    4.90999985    2.91000009
   13.31750011  112.92700195    4.90999985    2.86999989
   13.32083321  120.06600189    4.90999985    2.86999989
   13.32388878  115.52100372    4.90999985    2.89000010
   13.32805538  115.52100372    4.90999985    2.89000010
   13.33222198  110.28099823    4.90999985    2.89000010
   13.33555508  114.45500183    4.90999985    2.89000010
   13.33861065  119.18000031    4.90999985    2.86999989
   13.34111118  116.15499878    4.90999985    2.89000010
   13.34222221  116.74600220    4.90999985    2.86999989
   13.34555531  110.03399658    4.90999985    2.86999989
   13.34888840  111.66000366    4.90999985    2.86999989
   13.35194492  117.28099823    4.90999985    2.89000010
   13.35527802  107.07099915    4.90999985    2.89000010
   13.35833359  110.24500275    4.90999985    2.89000010
   13.36166668  109.90200043    4.90999985    2.89000010
   13.36500072  110.83200073    4.90999985    2.89000010
   13.37083340  110.83200073    4.90999985    2.89000010
   13.37500000  111.82800293    4.90999985    2.89000010
   13.37833309  118.99600220    4.90999985    2.89000010
   13.38166714  114.70200348    4.90999985    2.86999989
   13.38472176  113.25299835    4.90999985    2.89000010
   13.38805580  110.77400208    4.90999985    2.89000010
   13.39111137  113.64299774    4.90999985    2.89000010
   13.39444447  112.30000305    4.90999985    2.89000010
   13.39777756  115.76599884    4.90999985    2.89000010
   13.40083313  105.96900177    4.90999985    2.89000010
   13.40416622  112.31800079    4.90999985    2.86999989
   13.40749931  111.83599854    4.90999985    2.89000010
   13.40777779  110.89399719    4.90999985    2.89000010
   13.41388893  110.89399719    4.90999985    2.89000010
   13.41805553  110.33699799    4.90999985    2.89000010
   13.42111111  106.11299896    4.90999985    2.89000010
   13.42444515  105.84700012    4.90999985    2.89000010
   13.42750072  112.66200256    4.90999985    2.89000010
   13.43083382  105.44300079    4.90999985    2.89000010
   13.43416691  113.51000214    4.90999985    2.89000010
   13.43722248  111.72200012    4.90999985    2.89000010
   13.44055557  107.33300018    4.90999985    2.86999989
   13.44111156  111.12400055    4.90999985    2.86999989
   13.44416714  105.27600098    4.90999985    2.89000010
   13.44750023  110.56500244    4.90999985    2.89000010
   13.45055580  107.57599640    4.90999985    2.86999989
   13.45666695  107.57599640    4.90999985    2.91000009
   13.46083355  111.97399902    4.90999985    2.91000009
   13.46388912  110.88600159    4.90999985    2.91000009
   13.46722221  108.27100372    4.90999985    2.91000009
   13.47055531  110.24900055    4.90999985    2.89000010
   13.47361088  110.25000000    4.90999985    2.91000009
   13.47444439  103.98400116    4.90999985    2.89000010
   13.47722149  106.23699951    4.90999985    2.91000009
   13.48055553  117.66100311    4.90999985    2.89000010
   13.48361111  111.26300049    4.90999985    2.89000010
   13.48694515  109.34400177    4.90999985    2.89000010
   13.49000072  109.29000092    4.90999985    2.89000010
   13.49333382  109.88099670    4.90999985    2.89000010
   13.49944496  109.88099670    4.90999985    2.89000010
   13.50361156  112.12999725    4.90999985    2.91000009
   13.50694466   98.55519867    4.90999985    2.91000009
   13.50777817   99.76280212    4.90999985    2.91000009
   13.51055527  106.83599854    4.90999985    2.91000009
   13.51388931  107.97299957    4.90999985    2.91000009
   13.51694393  110.02600098    4.90999985    2.89000010
   13.52027798  107.24199677    4.90999985    2.91000009
   13.52333355  110.88700104    4.90999985    2.91000009
   13.52666664  113.89700317    4.90999985    2.91000009
   13.52999973  108.82299805    4.90999985    2.89000010
   13.53305531  111.79399872    4.90999985    2.89000010
   13.53638935  110.46199799    4.90999985    2.91000009
   13.54222298  110.46199799    4.90999985    2.89000010
   13.54638958  103.56999969    4.90999985    2.89000010
   13.54972267  112.68199921    4.90999985    2.89000010
   13.55277824  111.30500031    4.90999985    2.91000009
   13.55611134  108.59400177    4.90999985    2.91000009
   13.55944443  117.34999847    4.90999985    2.89000010
   13.56250000  109.26399994    4.90999985    2.89000010
   13.56583309  114.08499908    4.90999985    2.91000009
   13.56916618  107.53099823    4.90999985    2.91000009
   13.57222176  103.48000336    4.90999985    2.89000010
   13.57444477  114.26599884    4.90999985    2.91000009
   13.57583332  107.52200317    4.90999985    2.89000010
   13.57916641  112.30599976    4.90999985    2.91000009
   13.58527756  112.30599976    4.90999985    2.91000009
   13.58944416  109.13099670    4.90999985    2.91000009
   13.59249973  116.75800323    4.90999985    2.91000009
   13.59583282  112.53700256    4.90999985    2.89000010
   13.59888840  113.99199677    4.90999985    2.89000010
   13.60222244  111.04799652    4.90999985    2.91000009
   13.60555553  107.71199799    4.90999985    2.91000009
   13.60777855  114.16899872    4.90999985    2.89000010
   13.60916710  115.75700378    4.90999985    2.89000010
   13.61250019  112.27600098    4.90999985    2.89000010
   13.61555576  109.23300171    4.90999985    2.91000009
   13.61888885  115.67299652    4.90999985    2.91000009
   13.62222195  113.75800323    4.90999985    2.91000009
   13.62805557  113.75800323    4.90999985    2.91000009
   13.63222218  107.56300354    4.90999985    2.91000009
   13.63527775  114.85299683    4.90999985    2.91000009
   13.63861084  105.45600128    4.90999985    2.91000009
   13.64111137  109.41000366    4.90999985    2.91000009
   13.64222240  109.01100159    4.90999985    2.91000009
   13.64555550  107.25599670    4.90999985    2.91000009
   13.64861107  105.93699646    4.90999985    2.91000009
   13.65194416  106.96099854    4.90999985    2.91000009
   13.65527725  111.07700348    4.90999985    2.91000009
   13.65833282  102.49299622    4.90999985    2.93000007
   13.66166592  112.55400085    4.90999985    2.93000007
   13.66499996  103.95200348    4.90999985    2.93000007
   13.67083359  103.95200348    4.90999985    2.91000009
   13.67500019  105.55100250    4.90999985    2.91000009
   13.67833328  108.70999908    4.90999985    2.93000007
   13.68138885  106.48300171    4.90999985    2.91000009
   13.68472195  113.24500275    4.90999985    2.93000007
   13.68805599  113.33899689    4.90999985    2.91000009
   13.69111156  103.64700317    4.90999985    2.91000009
   13.69444466  103.39900208    4.90999985    2.91000009
   13.69750023  111.22299957    4.90999985    2.93000007
   13.70083332  100.16500092    4.90999985    2.91000009
   13.70416641  105.57499695    4.90999985    2.91000009
   13.70722198  103.37599945    4.90999985    2.91000009
   13.70777798  103.74099731    4.90999985    2.91000009
   13.71361065  103.74099731    4.90999985    2.91000009
   13.71777725  102.16000366    4.90999985    2.91000009
   13.72111034  106.93900299    4.90999985    2.93000007
   13.72416592  105.69499969    4.90999985    2.91000009
   13.72749996  101.63800049    4.90999985    2.93000007
   13.73083305  111.13600159    4.90999985    2.91000009
   13.73388958  104.51499939    4.90999985    2.91000009
   13.73722267  113.07900238    4.90999985    2.91000009
   13.74055576  104.63500214    4.90999985    2.93000007
   13.74111176  109.27700043    4.90999985    2.91000009
   13.74416733  104.15699768    4.90999985    2.93000007
   13.74750042  112.70200348    4.90999985    2.91000009
   13.75055599  113.08100128    4.90999985    2.91000009
   13.75666714  113.08100128    4.90999985    2.91000009
   13.76083374  103.87699890    4.90999985    2.91000009
   13.76388931  108.10399628    4.90999985    2.91000009
   13.76722240  107.48500061    4.90999985    2.91000009
   13.77027798  107.49800110    4.90999985    2.91000009
   13.77361107  106.19499969    4.90999985    2.91000009
   13.77444458  112.43699646    4.90999985    2.91000009
   13.77722168  111.90000153    4.90999985    2.91000009
   13.78055573  110.87000275    4.90999985    2.91000009
   13.78361130  109.79399872    4.90999985    2.91000009
   13.78694534   96.38629913    4.90999985    2.91000009
   13.79027843   98.94799805    4.90999985    2.91000009
   13.79333401  102.10700226    4.90999985    2.91000009
   13.79944515  102.10700226    4.90999985    2.91000009
   13.80361176  116.65200043    4.90999985    2.93000007
   13.80666733  107.37500000    4.90999985    2.91000009
   13.80777836  108.47899628    4.90999985    2.91000009
   13.81027794  111.17400360    4.90999985    2.91000009
   13.81361103  109.12200165    4.90999985    2.91000009
   13.81666660  107.97299957    4.90999985    2.91000009
   13.81999969  107.97299957    4.90999985    2.91000009
   13.82333374  111.00199890    4.90999985    2.91000009
   13.82638836  117.03600311    4.90999985    2.91000009
   13.82972240  102.09100342    4.90999985    2.91000009
   13.83305550  113.30599976    4.90999985    2.91000009
   13.83611107  109.43299866    4.90999985    2.93000007
   13.84222221  109.43299866    4.90999985    2.91000009
   13.84638882   98.80470276    4.90999985    2.89000010
   13.84972191  106.05500031    4.90999985    2.91000009
   13.85277843  112.22699738    4.90999985    2.93000007
   13.85611153  108.39499664    4.90999985    2.91000009
   13.85916710  110.52700043    4.90999985    2.91000009
   13.86250019  110.03700256    4.90999985    2.91000009
   13.86583328  103.04199982    4.90999985    2.93000007
   13.86888885  106.83999634    4.90999985    2.91000009
   13.87222195  100.47100067    4.90999985    2.91000009
   13.87444496  115.72599792    4.90999985    2.91000009
   13.87583351  110.10700226    4.90999985    2.93000007
   13.87916660   99.63359833    4.90999985    2.93000007
   13.88500023   99.63359833    4.90999985    2.93000007
   13.88916683  105.13400269    4.90999985    2.91000009
   13.89249992  107.99800110    4.90999985    2.93000007
   13.89555550  108.52999878    4.90999985    2.93000007
   13.89888859  111.03199768    4.90999985    2.93000007
   13.90222168  104.82599640    4.90999985    2.93000007
   13.90527725  111.13800049    4.90999985    2.93000007
   13.90777779  108.00399780    4.90999985    2.91000009
   13.90888882  101.69499969    4.90999985    2.93000007
   13.91222191  108.97599792    4.90999985    2.93000007
   13.91527748  109.45500183    4.90999985    2.93000007
   13.91861153  108.78700256    4.90999985    2.93000007
   13.92194462  111.51200104    4.90999985    2.93000007
   13.92805576  111.51200104    4.90999985    2.91000009
   13.93194485  105.79399872    4.90999985    2.91000009
   13.93527794  106.95700073    4.90999985    2.93000007
   13.93861103  112.85099792    4.90999985    2.93000007
   13.94111156  110.66500092    4.90999985    2.93000007
   13.94222260  106.51999664    4.90999985    2.93000007
   13.94555569  111.53399658    4.90999985    2.93000007
   13.94861126  109.30300140    4.90999985    2.93000007
   13.95194435  106.74199677    4.90999985    2.93000007
   13.95527744  100.52100372    4.90999985    2.91000009
   13.95833302  109.59999847    4.90999985    2.93000007
   13.96166611  114.33000183    4.90999985    2.93000007
   13.96472168  105.46399689    4.90999985    2.93000007
   13.97083282  105.46399689    4.90999985    2.93000007
   13.97499943  111.03800201    4.90999985    2.93000007
   13.97805500  107.36799622    4.90999985    2.93000007
   13.98138809  107.05599976    4.90999985    2.93000007
   13.98472214   99.76270294    4.90999985    2.93000007
   13.98777771  111.22899628    4.90999985    2.93000007
   13.99111176  101.95700073    4.90999985    2.93000007
   13.99416733  106.24700165    4.90999985    2.93000007
   13.99750042  109.61299896    4.90999985    2.93000007
   14.00083351  105.51699829    4.90999985    2.91000009
   14.00388908  108.06300354    4.90999985    2.93000007
   14.00722218   96.13249969    4.90999985    2.93000007
   14.00805569  112.91500092    4.90999985    2.93000007
   14.01361084  112.91500092    4.90999985    2.93000007
   14.01777744  112.87200165    4.90999985    2.93000007
   14.02111053  108.55799866    4.90999985    2.93000007
   14.02416611  110.87899780    4.90999985    2.93000007
   14.02750015  111.28500366    4.90999985    2.93000007
   14.03055573  110.99500275    4.90999985    2.93000007
   14.03388977   95.95480347    4.90999985    2.93000007
   14.03722286  106.90699768    4.90999985    2.93000007
   14.04027843  109.10600281    4.90999985    2.93000007
   14.04138947  106.97599792    4.90999985    2.93000007
   14.04388905  105.06400299    4.90999985    2.94000006
   14.04722309  106.10099792    4.90999985    2.93000007
   14.05027771  103.37599945    4.90999985    2.94000006
   14.05638885  103.37599945    4.90999985    2.93000007
   14.06055546  108.33200073    4.90999985    2.93000007
   14.06388950  104.78700256    4.90999985    2.94000006
   14.06694412  100.32900238    4.90999985    2.93000007
   14.07027817  107.16600037    4.90999985    2.94000006
   14.07361126  109.12599945    4.90999985    2.93000007
   14.07472229  102.43199921    4.90999985    2.93000007
   14.07694435  108.10500336    4.90999985    2.93000007
   14.08027744  108.38099670    4.90999985    2.94000006
   14.08361053  107.04799652    4.90999985    2.94000006
   14.08666611  108.32499695    4.90999985    2.93000007
   14.09000015  109.05300140    4.90999985    2.94000006
   14.09333324  106.42099762    4.90999985    2.94000006
   14.09944439  106.42099762    4.90999985    2.93000007
   14.10333347  106.35600281    4.90999985    2.94000006
   14.10666752   99.58889771    4.90999985    2.94000006
   14.10805607  109.51000214    4.90999985    2.93000007
   14.11027813  110.52200317    4.90999985    2.94000006
   14.11361122  106.35399628    4.90999985    2.93000007
   14.11666679  107.62599945    4.90999985    2.93000007
   14.11999989  104.52100372    4.90999985    2.94000006
   14.12333393  101.15499878    4.90999985    2.93000007
   14.12638855  104.09600067    4.90999985    2.93000007
   14.12972260  103.08000183    4.90999985    2.94000006
   14.13305569  106.33999634    4.90999985    2.94000006
   14.13611126  103.06199646    4.90999985    2.93000007
   14.14222240  103.06199646    4.90999985    2.94000006
   14.14638901  107.83200073    4.90999985    2.94000006
   14.14944458  107.77600098    4.90999985    2.91000009
   14.15277767  100.59999847    4.90999985    2.94000006
   14.15611076  107.84999847    4.90999985    2.94000006
   14.15916634  109.58000183    4.90999985    2.93000007
   14.16249943  107.46199799    4.90999985    2.94000006
   14.16583252  104.65000153    4.90999985    2.93000007
   14.16888905   97.18579865    4.90999985    2.94000006
   14.17222214  103.11299896    4.90999985    2.93000007
   14.17472267  108.56800079    4.90999985    2.93000007
   14.17583370  105.72899628    4.90999985    2.93000007
   14.17916679  100.32700348    4.90999985    2.93000007
   14.18500042  100.32700348    4.90999985    2.94000006
   14.18916702  103.42600250    4.90999985    2.93000007
   14.19250011  109.76699829    4.90999985    2.93000007
   14.19555569  109.58899689    4.90999985    2.94000006
   14.19888878  106.34100342    4.90999985    2.93000007
   14.20194435  105.85299683    4.90999985    2.94000006
   14.20527744  103.29000092    4.90999985    2.94000006
   14.20805550  103.02700043    4.90999985    2.94000006
   14.20888901  105.10199738    4.90999985    2.94000006
   14.21222210  104.98000336    4.90999985    2.94000006
   14.21527767  103.33999634    4.90999985    2.94000006
   14.21861076  108.23699951    4.90999985    2.93000007
   14.22194386  105.24700165    4.90999985    2.93000007
   14.22777748  105.24700165    4.90999985    2.94000006
   14.23194408  102.68599701    4.90999985    2.93000007
   14.23527813  105.56099701    4.90999985    2.93000007
   14.23833370  102.49199677    4.90999985    2.93000007
   14.24138927  105.84100342    4.90999985    2.93000007
   14.24194431  104.44499969    4.90999985    2.94000006
   14.24527836  106.60800171    4.90999985    2.94000006
   14.24833393  105.35099792    4.90999985    2.93000007
   14.25166702  106.65299988    4.90999985    2.94000006
   14.25500011  103.13200378    4.90999985    2.94000006
   14.25805569  102.89399719    4.90999985    2.94000006
   14.26138878  103.27600098    4.90999985    2.94000006
   14.26472187  112.32900238    4.90999985    2.94000006
   14.27083302  112.32900238    4.90999985    2.94000006
   14.27472210  106.86499786    4.90999985    2.93000007
   14.27805519  110.86499786    4.90999985    2.93000007
   14.28138828  109.97599792    4.90999985    2.93000007
   14.28444481  103.02799988    4.90999985    2.91000009
   14.28777790  107.51300049    4.90999985    2.93000007
   14.29111195  104.92299652    4.90999985    2.94000006
   14.29416752  110.04599762    4.90999985    2.94000006
   14.29750061  101.77500153    4.90999985    2.94000006
   14.30055618   94.62129974    4.90999985    2.94000006
   14.30388927  102.26300049    4.90999985    2.94000006
   14.30722237  100.12400055    4.90999985    2.94000006
   14.30805588  106.09600067    4.90999985    2.94000006
   14.32861137  106.09600067    4.90999985    2.94000006
   14.33277798  108.60099792    4.90999985    2.94000006
   14.33611107  104.74299622    4.90999985    2.93000007
   14.33916664  102.64099884    4.90999985    2.96000004
   14.34138870  107.10900116    4.90999985    2.94000006
   14.34305477  108.42800140    4.90999985    2.94000006
   14.34611034  110.10500336    4.90999985    2.94000006
   14.34944439  105.62400055    4.90999985    2.94000006
   14.35249996  116.51399994    4.90999985    2.94000006
   14.35583401  114.89800262    4.90999985    2.94000006
   14.35916710  106.00599670    4.90999985    2.94000006
   14.36222267  107.44300079    4.90999985    2.94000006
   14.36555576   99.71430206    4.90999985    2.94000006
   14.37138939   99.71430206    4.90999985    2.94000006
   14.37555599  105.29499817    4.90999985    2.94000006
   14.37861156  107.57800293    4.90999985    2.94000006
   14.38194466  109.01399994    4.90999985    2.94000006
   14.38527775  105.08699799    4.90999985    2.93000007
   14.38833332  105.49099731    4.90999985    2.94000006
   14.39166641  112.66899872    4.90999985    2.94000006
   14.39499950  100.66300201    4.90999985    2.96000004
   14.39805508  103.33699799    4.90999985    2.94000006
   14.40138817  104.75700378    4.90999985    2.94000006
   14.40444374   99.68969727    4.90999985    2.94000006
   14.40777779  106.56999969    4.90999985    2.94000006
   14.40833282  100.92700195    4.90999985    2.94000006
   14.41416645  100.92700195    4.90999985    2.93000007
   14.41833401  100.37999725    4.90999985    2.94000006
   14.42166710  102.53700256    4.90999985    2.94000006
   14.42472267   98.62010193    4.90999985    2.96000004
   14.42944431  104.58000183    4.90999985    2.94000006
   14.43277836  103.29699707    4.90999985    2.94000006
   14.43583298  109.20200348    4.90999985    2.94000006
   14.43916702  111.23699951    4.90999985    2.94000006
   14.44222260  103.89800262    4.90999985    2.94000006
   14.44277763  104.81600189    4.90999985    2.94000006
   14.44611073   70.45980072    4.90999985    2.93000007
   14.44916630  100.63500214    4.90999985    2.94000006
   14.45249939  102.06800079    4.90999985    2.94000006
   14.45694447  102.06800079    4.90999985    2.94000006
   14.46111107  100.35099792    4.90999985    2.94000006
   14.46444416  107.65299988    4.90999985    2.94000006
   14.46777725  102.04900360    4.90999985    2.94000006
   14.47083282  103.01399994    4.90999985    2.94000006
   14.47416592  103.71499634    4.90999985    2.94000006
   14.47555542  101.57599640    4.90999985    2.94000006
   14.47749996  104.34500122    4.90999985    2.94000006
   14.48083305  103.00800323    4.90999985    2.94000006
   14.48416710  100.78099823    4.90999985    2.94000006
   14.48722267  108.63999939    4.90999985    2.94000006
   14.49055576  101.50599670    4.90999985    2.94000006
   14.49361134  109.09799957    4.90999985    2.94000006
   14.50000000  109.09799957    4.90999985    2.94000006
   14.50416660  110.58599854    4.90999985    2.93000007
   14.50722218  106.34999847    4.90999985    2.94000006
   14.50888920  105.59600067    4.90999985    2.94000006
   14.51083374   97.62719727    4.90999985    2.94000006
   14.51416683   99.90119934    4.90999985    2.94000006
   14.51749992   94.02449799    4.90999985    2.94000006
   14.52055550  101.15599823    4.90999985    2.94000006
   14.52388859  106.74600220    4.90999985    2.94000006
   14.52694416  113.48699951    4.90999985    2.96000004
   14.53027725   98.28610229    4.90999985    2.96000004
   14.53361130  100.05000305    4.90999985    2.94000006
   14.53666687  109.42700195    4.90999985    2.94000006
   14.54277802  109.42700195    4.90999985    2.94000006
   14.54694462   98.94480133    4.90999985    2.94000006
   14.55000019   97.91320038    4.90999985    2.94000006
   14.55333328  103.29399872    4.90999985    2.94000006
   14.55666733  110.14900208    4.90999985    2.94000006
   14.55972195  100.44300079    4.90999985    2.94000006
   14.56305599  105.14499664    4.90999985    2.94000006
   14.56638908  103.08300018    4.90999985    2.94000006
   14.56944466   98.89129639    4.90999985    2.94000006
   14.57277775  108.80500031    4.90999985    2.94000006
   14.57555580  114.80699921    4.90999985    2.96000004
   14.57611084  102.83599854    4.90999985    2.96000004
   14.57944393  107.31300354    4.90999985    2.94000006
   14.58555508  107.31300354    4.90999985    2.94000006
   14.58972168  111.72699738    4.90999985    2.94000006
   14.59305477  112.73400116    4.90999985    2.96000004
   14.59611034  108.36799622    4.90999985    2.94000006
   14.59944439  106.86599731    4.90999985    2.96000004
   14.60277843  115.06700134    4.90999985    2.94000006
   14.60583401  110.80400085    4.90999985    2.94000006
   14.60888958  103.37500000    4.90999985    2.94000006
   14.60944462  111.73500061    4.90999985    2.94000006
   14.61277771  112.51100159    4.90999985    2.94000006
   14.61611176  104.86900330    4.90999985    2.94000006
   14.61916637  100.60099792    4.90999985    2.96000004
   14.62250042  103.11299896    4.90999985    2.96000004
   14.62833309  103.11299896    4.90999985    2.96000004
   14.63249969  109.56300354    4.90999985    2.98000002
   14.63583279  109.14900208    4.90999985    2.94000006
   14.63888836  101.35700226    4.90999985    2.96000004
   14.64222240  104.55899811    4.90999985    2.94000006
   14.64249992  109.42700195    4.90999985    2.94000006
   14.64583302  109.23799896    4.90999985    2.96000004
   14.64916611  109.91699982    4.90999985    2.96000004
   14.65222168  108.36499786    4.90999985    2.96000004
   14.65555477  104.44400024    4.90999985    2.96000004
   14.65861034  112.00599670    4.90999985    2.96000004
   14.66194439  106.25199890    4.90999985    2.96000004
   14.66527748  104.44300079    4.90999985    2.96000004
   14.67138958  104.44300079    4.90999985    2.96000004
   14.67555618  108.38099670    4.90999985    2.96000004
   14.67583370  107.37300110    4.90999985    2.96000004
   14.67916679  108.85399628    4.90999985    2.94000006
   14.68249989  101.24600220    4.90999985    2.96000004
   14.68555546   99.00140381    4.90999985    2.96000004
   14.68888855  103.50000000    4.90999985    2.96000004
   14.69194412  101.79900360    4.90999985    2.96000004
   14.69527817   99.98619843    4.90999985    2.96000004
   14.69861126  103.68399811    4.90999985    2.98000002
   14.70166683  110.43900299    4.90999985    2.96000004
   14.70499992  108.36699677    4.90999985    2.96000004
   14.70833302  107.38800049    4.90999985    2.96000004
   14.70888901  105.49400330    4.90999985    2.94000006
   14.71416664  105.49400330    4.90999985    2.96000004
   14.71833324  112.92299652    4.90999985    2.98000002
   14.72138882  101.68299866    4.90999985    2.96000004
   14.72472191  110.20600128    4.90999985    2.96000004
   14.72805500  114.01200104    4.90999985    2.94000006
   14.73111057  103.24199677    4.90999985    2.96000004
   14.73444462  108.60399628    4.90999985    2.98000002
   14.73777771  105.97599792    4.90999985    2.96000004
   14.74083328  114.25700378    4.90999985    2.94000006
   14.74222279  115.68699646    4.90999985    2.96000004
   14.74444485  102.72899628    4.90999985    2.96000004
   14.74777794  105.79399872    4.90999985    2.96000004
   14.75111103  111.66899872    4.90999985    2.96000004
   14.75694466  111.66899872    4.90999985    2.96000004
   14.76111126  101.49400330    4.90999985    2.96000004
   14.76444435   99.83989716    4.90999985    2.96000004
   14.76749992  102.59500122    4.90999985    2.96000004
   14.77083302  107.60700226    4.90999985    2.96000004
   14.77416611  104.84899902    4.90999985    2.96000004
   14.77555561  107.09500122    4.90999985    2.96000004
   14.77750015  113.17500305    4.90999985    2.96000004
   14.78083324  108.01399994    4.90999985    2.94000006
   14.78416729  107.16200256    4.90999985    2.94000006
   14.78722286  110.57199860    4.90999985    2.96000004
   14.79055595  102.71900177    4.90999985    2.96000004
   14.79388905  102.06600189    4.90999985    2.98000002
   14.80000019  102.06600189    4.90999985    2.96000004
   14.80388927  108.71099854    4.90999985    2.96000004
   14.80722237  102.00499725    4.90999985    2.94000006
   14.80888939  103.05999756    4.90999985    2.96000004
   14.81055546  100.25900269    4.90999985    2.96000004
   14.81388950  104.59500122    4.90999985    2.96000004
   14.81722260  103.32700348    4.90999985    2.96000004
   14.82027817  100.24400330    4.90999985    2.96000004
   14.82361126  105.53900146    4.90999985    2.96000004
   14.82694435  103.01699829    4.90999985    2.94000006
   14.82999992  115.26999664    4.90999985    2.96000004
   14.83333302  102.24500275    4.90999985    2.96000004
   14.83638859  104.83599854    4.90999985    2.96000004
   14.84277725  104.83599854    4.90999985    2.98000002
   14.84694386  103.22100067    4.90999985    2.98000002
   14.85000038  106.81500244    4.90999985    2.96000004
   14.85333347  107.25399780    4.90999985    2.94000006
   14.85638905  103.84799957    4.90999985    2.96000004
   14.85972214  108.77100372    4.90999985    2.96000004
   14.86305618  100.99800110    4.90999985    2.94000006
   14.86611176  111.04599762    4.90999985    2.96000004
   14.86944485  102.16100311    4.90999985    2.94000006
   14.87277794  103.88600159    4.90999985    2.96000004
   14.87555599  100.78199768    4.90999985    2.96000004
   14.87611103  100.13300323    4.90999985    2.96000004
   14.87944412  104.67199707    4.90999985    2.96000004
   14.88555527  104.67199707    4.90999985    2.96000004
   14.88972187  114.83499908    4.90999985    2.96000004
   14.89277744  108.95099640    4.90999985    2.94000006
   14.89611053  111.96399689    4.90999985    2.96000004
   14.89944458  100.60099792    4.90999985    2.96000004
   14.90249920  104.31900024    4.90999985    2.96000004
   14.90583324  105.75099945    4.90999985    2.96000004
   14.90888882  101.37400055    4.90999985    2.94000006
   14.90916634  113.80599976    4.90999985    2.94000006
   14.91249943   99.85669708    4.90999985    2.93000007
   14.91583252  108.24400330    0.07000000    0.51999998
   14.91888905  109.60600281    0.07000000    0.40000001
   14.92222214  100.16899872    0.05000000    0.17000000
   14.92833328  100.16899872    0.05000000    0.01000000
   14.93249989  106.11599731    0.05000000    0.01000000
   14.93583298  101.16200256    0.05000000    0.01000000
   14.93888855  106.27400208    0.05000000    0.01000000
   14.94222260  103.32399750    0.05000000    0.01000000
   14.94250011  102.69799805    0.05000000    0.01000000
   14.94583321  108.20999908    0.05000000    0.01000000
   14.94916630  101.52600098    0.05000000    0.01000000
   14.95222187  112.09300232    0.05000000    0.01000000
   14.95555496  102.14600372    0.05000000    0.01000000
   14.95888901  106.15699768    0.05000000    0.01000000
   14.96194458   99.22370148    0.05000000    0.01000000
   14.96527767  100.50199890    0.05000000    0.01000000
   14.97111034  100.50199890    0.05000000    0.01000000
   14.97527695  105.50299835    0.05000000    0.01000000
   14.97583294  110.51899719    0.05000000    0.01000000
   14.97916603  106.34899902    0.05000000    0.01000000
   14.98222160  104.50499725    0.05000000    0.01000000
   14.98555565  109.74099731    0.05000000    0.01000000
   14.98888874  115.72100067    0.05000000    0.01000000
   14.99194431  108.24400330    0.05000000    0.01000000
   14.99527836  107.02400208    0.05000000    0.01000000
   14.99833393  114.43000031    0.05000000    0.01000000
   15.00166702  115.15200043    0.05000000    0.01000000
   15.00500011  113.11299896    0.05000000    0.01000000
   15.00805569  113.31900024    0.05000000    0.01000000
   15.00916672  102.66000366    0.05000000    0.01000000
   15.01416683  102.66000366    0.05000000    0.01000000
   15.01833344  111.84600067    0.05000000    0.01000000
   15.02138901  115.17099762    0.05000000    0.01000000
   15.02472210  115.46499634    0.05000000    0.01000000
   15.02777767  109.01699829    0.05000000    0.01000000
   15.03111076  103.58799744    0.05000000    0.01000000
   15.03444481  108.28299713    0.05000000    0.01000000
   15.03777790  108.88500214    0.05000000    0.01000000
   15.04083347  104.59300232    0.05000000    0.01000000
   15.04250050  111.85800171    0.05000000    0.01000000
   15.04472256  107.51699829    0.05000000    0.01000000
   15.04777813  103.18900299    0.05000000    0.01000000
   15.05111122  110.31199646    0.05000000    0.01000000
   15.05694485  110.31199646    0.05000000    0.01000000
   15.06111145  106.15100098    0.05000000    0.01000000
   15.06416702  103.29399872    0.05000000    0.01000000
   15.06750011  100.76699829    0.05000000    0.01000000
   15.07083321   99.97370148    0.05000000    0.01000000
   15.07388878  104.44300079    0.05000000    0.01000000
   15.07583332  103.72699738    0.05000000    0.01000000
   15.07777786  101.70099640    0.05000000    0.01000000
   15.08083344   98.48950195    0.05000000    0.01000000
   15.08416653   99.30670166    0.05000000    0.01000000
   15.08749962  104.83200073    0.05000000    0.01000000
   15.09055519  104.52999878    0.05000000    0.01000000
   15.09388828  101.43800354    0.05000000    0.01000000
   15.09972191  101.43800354    0.05000000    0.01000000
   15.10388947   95.44969940    0.05000000    0.01000000
   15.10722256   99.00710297    0.05000000    0.01000000
   15.10916710  103.77799988    0.05000000    0.01000000
   15.11083412   95.56109619    0.05000000    0.01000000
   15.11388969  106.10600281    0.05000000    0.01000000
   15.11722279  107.17900085    0.05000000    0.01000000
   15.12055588  104.62500000    0.05000000    0.01000000
   15.12361145  108.87699890    0.05000000    0.01000000
   15.12694454  107.57099915    0.05000000    0.01000000
   15.13027763  107.36100006    0.05000000    0.01000000
   15.13333321  108.72299957    0.05000000    0.01000000
   15.13666630  107.87100220    0.05000000    0.01000000
   15.14249992  107.87100220    0.05000000    0.01000000
   15.14666653   97.23220062    0.05000000    0.01000000
   15.14999962   96.55670166    0.05000000    0.01000000
   15.15305519   92.52660370    0.05000000    0.01000000
   15.15638828   98.31289673    0.05000000    0.01000000
   15.15972137  100.78500366    0.05000000    0.01000000
   15.16277695   97.88079834    0.05000000    0.01000000
   15.16611099   99.54750061    0.05000000    0.01000000
   15.16944504  111.23200226    0.05000000    0.01000000
   15.17250061   97.64890289    0.05000000    0.01000000
   15.17583370  105.64199829    0.05000000    0.01000000
   15.17638874  100.74400330    0.05000000    0.01000000
   15.17944431  102.72799683    0.05000000    0.01000000
   15.18555546  102.72799683    0.05000000    0.01000000
   15.18944454  105.79199982    0.05000000    0.01000000
   15.19277763  107.56700134    0.05000000    0.01000000
   15.19611073  102.81800079    0.05000000    0.01000000
   15.19916630   99.00890350    0.05000000    0.01000000
   15.20249939  104.42299652    0.05000000    0.01000000
   15.20583344  106.66000366    0.05000000    0.01000000
   15.20888901  103.58100128    0.05000000    0.01000000
   15.20972157  108.07599640    0.05000000    0.01000000
   15.21249962  111.19000244    0.05000000    0.01000000
   15.21583271  112.51999664    0.05000000    0.01000000
   15.21888828  112.25199890    0.05000000    0.01000000
   15.22222137   99.93280029    0.05000000    0.01000000
   15.22833252   99.93280029    0.05000000    0.01000000
   15.23249912  103.55500031    0.05000000    0.01000000
   15.23555565  105.21700287    0.05000000    0.01000000
   15.23888874  107.22699738    0.05000000    0.01000000
   15.24222279  102.99400330    0.05000000    0.01000000
   15.24305534  105.82199860    0.05000000    0.01000000
   15.24555588  107.01899719    0.05000000    0.01000000
   15.24888897   98.60299683    0.05000000    0.01000000
   15.25194454  111.75099945    0.05000000    0.01000000
   15.25527763  103.87000275    0.05000000    0.01000000
   15.25861073   99.74539948    0.05000000    0.01000000
   15.26166630   96.30090332    0.05000000    0.01000000
   15.26500034  101.14299774    0.05000000    0.01000000
   15.27111053  101.14299774    0.05000000    0.01000000
   15.27527714  107.90100098    0.05000000    0.01000000
   15.27638817   99.36440277    0.05000000    0.01000000
   15.27888870  101.64399719    0.05000000    0.01000000
   15.28222179   95.25910187    0.05000000    0.01000000
   15.28555584   98.57209778    0.05000000    0.01000000
   15.28888893   97.78910065    0.05000000    0.01000000
   15.29194450   97.14679718    0.05000000    0.01000000
   15.29527855   95.82230377    0.05000000    0.01000000
   15.29833412  102.32399750    0.05000000    0.01000000
   15.30166721   97.98269653    0.05000000    0.01000000
   15.30500031   96.72899628    0.05000000    0.01000000
   15.30805588  100.60700226    0.05000000    0.01000000
   15.30972195  101.07399750    0.05000000    0.01000000
   15.31388950  101.07399750    0.05000000    0.01000000
   15.31805515   97.88320160    0.05000000    0.01000000
   15.32138920  100.37500000    0.05000000    0.01000000
   15.32444477  100.48400116    0.05000000    0.01000000
   15.34333324  103.84500122    0.05000000    0.01000000
   15.34472179  107.12400055    0.05000000    0.01000000
   15.34805489  104.78800201    0.05000000    0.01000000
   15.35111141   98.38210297    0.05000000    0.01000000
   15.35694504   98.38210297    0.05000000    0.01000000
   15.36111164   99.46109772    0.05000000    0.01000000
   15.36444473   97.20079803    0.05000000    0.01000000
   15.36750031  108.38500214    0.05000000    0.01000000
   15.37083340  103.23799896    0.05000000    0.01000000
   15.37416649   99.50620270    0.05000000    0.01000000
   15.37638855  103.75800323    0.05000000    0.01000000
   15.37777805  102.52999878    0.05000000    0.01000000
   15.38083363  108.47799683    0.05000000    0.01000000
   15.38416672  105.88500214    0.05000000    0.01000000
   15.38749981  100.03399658    0.05000000    0.01000000
   15.39055538  108.14800262    0.05000000    0.01000000
   15.39388847  105.25199890    0.05000000    0.01000000
   15.39972210  105.25199890    0.05000000    0.01000000
   15.40388870  104.65399933    0.05000000    0.01000000
   15.40722179  104.11399841    0.05000000    0.01000000
   15.40972137  108.78600311    0.05000000    0.01000000
   15.41083336  115.69000244    0.05000000    0.01000000
   15.41388893  105.77799988    0.05000000    0.01000000
   15.41722298  103.24299622    0.05000000    0.01000000
   15.42055607  100.74099731    0.05000000    0.01000000
   15.42361164  104.38899994    0.05000000    0.01000000
   15.42694473  102.27799988    0.05000000    0.01000000
   15.43027782  109.18199921    0.05000000    0.01000000
   15.43333340  108.23200226    0.05000000    0.01000000
   15.43666649  108.78299713    0.05000000    0.01000000
   15.44277763  108.78299713    0.05000000    0.01000000
   15.44666672  110.72799683    0.05000000    0.01000000
   15.44999981  108.89700317    0.05000000    0.01000000
   15.45333290  104.51999664    0.05000000    0.01000000
   15.45638847  100.21399689    0.05000000    0.01000000
   15.45972157   99.44629669    0.05000000    0.01000000
   15.46305561  101.07800293    0.05000000    0.01000000
   15.46611118  105.31300354    0.05000000    0.01000000
   15.46944427   98.25140381    0.05000000    0.01000000
   15.47249985  107.95600128    0.05000000    0.01000000
   15.47583294  103.78399658    0.05000000    0.01000000
   15.47777748  103.59799957    0.05000000    0.01000000
   15.47944355  110.88999939    0.05000000    0.01000000
   15.48555565  110.88999939    0.05000000    0.01000000
   15.48972225  111.44799805    0.05000000    0.01000000
   15.49277782  102.25900269    0.05000000    0.01000000
   15.49611092  103.74299622    0.05000000    0.01000000
   15.49944496  101.79000092    0.05000000    0.01000000
   15.50249958  103.79100037    0.05000000    0.01000000
   15.50583363   98.40570068    0.05000000    0.01000000
   15.50888920  102.03600311    0.05000000    0.01000000
   15.51111126  109.95300293    0.05000000    0.01000000
   15.51249981  107.77899933    0.05000000    0.01000000
   15.51583290  108.70300293    0.05000000    0.01000000
   15.51888847  104.26399994    0.05000000    0.01000000
   15.52222157  114.06800079    0.05000000    0.01000000
   15.52833271  114.06800079    0.05000000    0.01000000
   15.53249931  111.83899689    0.05000000    0.01000000
   15.53583336  111.73000336    0.05000000    0.01000000
   15.53888893  108.85500336    0.05000000    0.01000000
   15.54222298  102.07900238    0.05000000    0.01000000
   15.54444504  101.08000183    0.05000000    0.01000000
   15.54583359  102.96600342    0.05000000    0.01000000
   15.54916668  101.89800262    0.05000000    0.01000000
   15.55222225  104.04000092    0.05000000    0.01000000
   15.55555534  106.13400269    0.05000000    0.01000000
   15.55888939  101.30999756    0.05000000    0.01000000
   15.56194496  104.28700256    0.05000000    0.01000000
   15.56527805  106.43499756    0.05000000    0.01000000
   15.57111073  106.43499756    0.05000000    0.01000000
   15.57527733  100.13200378    0.05000000    0.01000000
   15.57777786  101.16600037    0.05000000    0.01000000
   15.57888889  103.30899811    0.05000000    0.01000000
   15.58222198   99.29199982    0.05000000    0.01000000
   15.58527756  102.96700287    0.05000000    0.01000000
   15.58861065  100.31700134    0.05000000    0.01000000
   15.59194374  102.40000153    0.05000000    0.01000000
   15.59499931  103.12899780    0.05000000    0.01000000
   15.59833336  107.39700317    0.05000000    0.01000000
   15.60138893  106.39399719    0.05000000    0.01000000
   15.60472298  115.15299988    0.05000000    0.01000000
   15.60805607  101.95600128    0.05000000    0.01000000
   15.61416721  101.95600128    0.05000000    0.01000000
   15.61805534  105.60199738    0.05000000    0.01000000
   15.62138939  102.97000122    0.05000000    0.01000000
   15.62472248  106.46499634    0.05000000    0.01000000
   15.62777805  101.11199951    0.05000000    0.01000000
   15.63111115  105.14499664    0.05000000    0.01000000
   15.63444424   99.21849823    0.05000000    0.01000000
   15.63749981  101.33300018    0.05000000    0.01000000
   15.64083290  101.74500275    0.05000000    0.01000000
   15.64388847  102.22699738    0.05000000    0.01000000
   15.64499950  108.69100189    0.05000000    0.01000000
   15.64777756  101.84700012    0.05000000    0.01000000
   15.65083313   95.12079620    0.05000000    0.01000000
   15.65694427   95.12079620    0.05000000    0.01000000
   15.66111088  105.93599701    0.05000000    0.01000000
   15.66416645  105.09799957    0.05000000    0.01000000
   15.66750050  108.74299622    0.05000000    0.01000000
   15.67083359  103.80899811    0.05000000    0.01000000
   15.67388916  106.18699646    0.05000000    0.01000000
   15.67722225  101.58999634    0.05000000    0.01000000
   15.67833328   98.24279785    0.05000000    0.01000000
   15.68055630  106.98799896    0.05000000    0.01000000
   15.68388939   99.56569672    0.05000000    0.01000000
   15.68722248  105.86599731    0.05000000    0.01000000
   15.69027805  107.89800262    0.05000000    0.01000000
   15.69361115  105.77999878    0.05000000    0.01000000
   15.69972229  105.77999878    0.05000000    0.01000000
   15.70388889   97.37290192    0.05000000    0.01000000
   15.70722198  110.93000031    0.05000000    0.01000000
   15.71055508  101.77500153    0.05000000    0.01000000
   15.71194458  102.86699677    0.05000000    0.01000000
   15.71388912   98.28269958    0.05000000    0.01000000
   15.71722221  100.31999969    0.05000000    0.01000000
   15.72027779   97.49590302    0.05000000    0.01000000
   15.72361088  103.04799652    0.05000000    0.01000000
   15.72694397  100.54799652    0.05000000    0.01000000
   15.72999954  100.69899750    0.05000000    0.01000000
   15.73333359  106.15499878    0.05000000    0.01000000
   15.73666668  101.63200378    0.05000000    0.01000000
   15.74250031  101.63200378    0.05000000    0.01000000
   15.74666691  100.48799896    0.05000000    0.01000000
   15.75000000   97.70500183    0.05000000    0.01000000
   15.75305557  106.51999664    0.05000000    0.01000000
   15.75638866  102.43499756    0.05000000    0.01000000
   15.75972176  107.17500305    0.05000000    0.01000000
   15.76277733  105.43900299    0.05000000    0.01000000
   15.76611137  104.48699951    0.05000000    0.01000000
   15.76944447  107.82499695    0.05000000    0.01000000
   15.77250004  110.56600189    0.05000000    0.01000000
   15.77583313  105.14700317    0.05000000    0.01000000
   15.77861118  103.75700378    0.05000000    0.01000000
   15.77944374  106.84200287    0.05000000    0.01000000
   15.78555584  106.84200287    0.05000000    0.01000000
   15.78944492  108.55699921    0.05000000    0.01000000
   15.79277802   90.80120087    0.05000000    0.01000000
   15.79611111   90.86090088    0.05000000    0.01000000
   15.79916668  102.93299866    0.05000000    0.01000000
   15.80249977  100.61000061    0.05000000    0.01000000
   15.80583382   97.84850311    0.05000000    0.01000000
   15.80888939  104.26799774    0.05000000    0.01000000
   15.81194496  101.02200317    0.05000000    0.01000000
   15.81250000   99.69770050    0.05000000    0.01000000
   15.81583309   98.67569733    0.05000000    0.01000000
   15.81888866  100.27799988    0.05000000    0.01000000
   15.82222176   96.11299896    0.05000000    0.01000000
   15.82833290   96.11299896    0.05000000    0.01000000
   15.83249950  107.27600098    0.05000000    0.01000000
   15.83555508  105.76200104    0.05000000    0.01000000
   15.83888817  110.87999725    0.05000000    0.01000000
   15.84222221  102.16100311    0.05000000    0.01000000
   15.84527779  103.40899658    0.05000000    0.01000000
   15.84555531  107.19699860    0.05000000    0.01000000
   15.84888840  106.22200012    0.05000000    0.01000000
   15.85194492  103.06300354    0.05000000    0.01000000
   15.85527802  101.34899902    0.05000000    0.01000000
   15.85861111  114.20700073    0.05000000    0.01000000
   15.86166668   99.69840240    0.05000000    0.01000000
   15.86500072   95.74120331    0.05000000    0.01000000
   15.87111092   95.74120331    0.05000000    0.01000000
   15.87527752  104.43399811    0.05000000    0.01000000
   15.87861156  107.81400299    0.05000000    0.01000000
   15.87888908  106.07499695    0.05000000    0.01000000
   15.88222218   98.51029968    0.05000000    0.01000000
   15.88527775  100.92800140    0.05000000    0.01000000
   15.88861084  103.17600250    0.05000000    0.01000000
   15.89194393  100.92500305    0.05000000    0.01000000
   15.89499950  106.97200012    0.05000000    0.01000000
   15.89833355  107.10500336    0.05000000    0.01000000
   15.90166664  100.75599670    0.05000000    0.01000000
   15.90472221  109.61599731    0.05000000    0.01000000
   15.90805531   99.18070221    0.05000000    0.01000000
   15.91388893   99.18070221    0.05000000    0.01000000
   15.91805553  107.56199646    0.05000000    0.01000000
   15.92138958   97.69249725    0.05000000    0.01000000
   15.92444515  101.01799774    0.05000000    0.01000000
   15.92777824  102.16200256    0.05000000    0.01000000
   15.93111134  106.28199768    0.05000000    0.01000000
   15.93416691  104.21600342    0.05000000    0.01000000
   15.93750000  110.02700043    0.05000000    0.01000000
   15.94083309  106.01100159    0.05000000    0.01000000
   15.94388866  104.56999969    0.05000000    0.01000000
   15.94527817   98.43679810    0.05000000    0.01000000
   15.94750023  101.55599976    0.05000000    0.01000000
   15.95083332  107.36299896    0.05000000    0.01000000
   15.95694447  107.36299896    0.05000000    0.01000000
   15.96083355  107.06199646    0.05000000    0.01000000
   15.96416664  102.52799988    0.05000000    0.01000000
   15.96749973  104.61900330    0.05000000    0.01000000
   15.97055531  101.69999695    0.05000000    0.01000000
   15.97388840  109.46800232    0.05000000    0.01000000
   15.97722149  103.39099884    0.05000000    0.01000000
   15.97861099  105.97399902    0.05000000    0.01000000
   15.98055553  102.65799713    0.05000000    0.01000000
   15.98388958  106.06199646    0.05000000    0.01000000
   15.98722267  106.31199646    0.05000000    0.01000000
   15.99027824  106.70500183    0.05000000    0.01000000
   15.99361134  106.22000122    0.05000000    0.01000000
   15.99972248  106.22000122    0.05000000    0.01000000
   16.00388908  113.65799713    0.05000000    0.01000000
   16.00694466  107.52200317    0.05000000    0.01000000
   16.01027870  104.45300293    0.05000000    0.01000000
   16.01222229  108.33599854    0.05000000    0.01000000
   16.01388931  104.30799866    0.05000000    0.01000000
   16.01722145  102.91699982    0.05000000    0.01000000
   16.02027702  107.05100250    0.05000000    0.01000000
   16.02388954  108.90299988    0.05000000    0.01000000
   16.02722168  104.73100281    0.05000000    0.01000000
   16.03027725   98.13469696    0.05000000    0.01000000
   16.03361130  105.56199646    0.05000000    0.01000000
   16.03694344  102.13099670    0.05000000    0.01000000
   16.04249954  102.13099670    0.05000000    0.01000000
   16.04666710  105.04900360    0.05000000    0.01000000
   16.04999924  107.95200348    0.05000000    0.01000000
   16.05305481  101.49700165    0.05000000    0.01000000
   16.05638885  107.64900208    0.05000000    0.01000000
   16.05944443  102.24500275    0.05000000    0.01000000
   16.06277657  107.79900360    0.05000000    0.01000000
   16.06611061   96.77570343    0.05000000    0.01000000
   16.06916809  105.24199677    0.05000000    0.01000000
   16.07250023  107.21499634    0.05000000    0.01000000
   16.07583427  105.71700287    0.05000000    0.01000000
   16.07888985  104.31400299    0.05000000    0.01000000
   16.07916832  108.13600159    0.05000000    0.01000000
   16.08527756  108.13600159    0.05000000    0.01000000
   16.08944511   99.31369781    0.05000000    0.01000000
   16.09277916  101.94899750    0.05000000    0.01000000
   16.09583473  107.24400330    0.05000000    0.01000000
   16.09916687  103.76699829    0.05000000    0.01000000
   16.10250092  108.49600220    0.05000000    0.01000000
   16.10555649  104.43099976    0.05000000    0.01000000
   16.10888863  101.26399994    0.05000000    0.01000000
   16.11222267  106.87899780    0.05000000    0.01000000
   16.11250114   97.24449921    0.05000000    0.01000000
   16.11583328   98.77179718    0.05000000    0.01000000
   16.11888885  107.93800354    0.05000000    0.01000000
   16.12222290  107.17800140    0.05000000    0.01000000
   16.12833405  107.17800140    0.05000000    0.01000000
   16.13222313  105.16400146    0.05000000    0.01000000
   16.13555527  104.75000000    0.05000000    0.01000000
   16.13888931   99.78279877    0.05000000    0.01000000
   16.14194489   95.91950226    0.05000000    0.01000000
   16.14527702   99.88829803    0.05000000    0.01000000
   16.14583397  100.60600281    0.05000000    0.01000000
   16.14888954  109.57499695    0.05000000    0.01000000
   16.15222168  102.47000122    0.05000000    0.01000000
   16.15555573  104.40799713    0.05000000    0.01000000
   16.15861130  112.55500031    0.05000000    0.01000000
   16.16194344  111.73200226    0.05000000    0.01000000
   16.16499901  104.07299805    0.05000000    0.01000000
   16.17111015  104.07299805    0.05000000    0.01000000
   16.17527771  106.61299896    0.05000000    0.01000000
   16.17833328  105.08899689    0.05000000    0.01000000
   16.17916679  106.00099945    0.05000000    0.01000000
   16.18194389   98.42320251    0.05000000    0.01000000
   16.18527603   99.54949951    0.05000000    0.01000000
   16.18861008   91.89869690    0.05000000    0.01000000
   16.19166565  105.95300293    0.05000000    0.01000000
   16.19499969   99.65460205    0.05000000    0.01000000
   16.19833183  105.23899841    0.05000000    0.01000000
   16.20138931  106.10500336    0.05000000    0.01000000
   16.20472336  105.86399841    0.05000000    0.01000000
   16.20777893  102.98799896    0.05000000    0.01000000
   16.21389008  102.98799896    0.05000000    0.01000000
   16.21805573  110.40599823    0.05000000    0.01000000
   16.22138977  108.17099762    0.05000000    0.01000000
   16.22444534  102.76200104    0.05000000    0.01000000
   16.22777748  102.62599945    0.05000000    0.01000000
   16.23111153  104.26999664    0.05000000    0.01000000
   16.23416710  110.29399872    0.05000000    0.01000000
   16.23750114  107.86900330    0.05000000    0.01000000
   16.24083328  109.17900085    0.05000000    0.01000000
   16.24388885  106.41899872    0.05000000    0.01000000
   16.24583435  107.05500031    0.05000000    0.01000000
   16.24749947  101.94999695    0.05000000    0.01000000
   16.25083351  107.15000153    0.05000000    0.01000000
   16.25666618  107.15000153    0.05000000    0.01000000
   16.26083374  104.41699982    0.05000000    0.01000000
   16.26416588  107.60700226    0.05000000    0.01000000
   16.26722145  104.27400208    0.05000000    0.01000000
   16.27055550   98.52829742    0.05000000    0.01000000
   16.27388954  103.07399750    0.05000000    0.01000000
   16.27694511  101.94899750    0.05000000    0.01000000
   16.27916718  105.29199982    0.05000000    0.01000000
   16.28055573  101.35199738    0.05000000    0.01000000
   16.28388786  101.68900299    0.05000000    0.01000000
   16.28722191  100.29000092    0.05000000    0.01000000
   16.29027748  102.37000275    0.05000000    0.01000000
   16.29361153  103.22100067    0.05000000    0.01000000
   16.29944420  103.22100067    0.05000000    0.01000000
   16.30360985  100.54699707    0.05000000    0.01000000
   16.30694389  103.69000244    0.05000000    0.01000000
   16.31027794  103.93499756    0.05000000    0.01000000
   16.31250000  111.99199677    0.05000000    0.01000000
   16.31361008  104.94300079    0.05000000    0.01000000
   16.31694603  111.55899811    0.05000000    0.01000000
   16.32027817   97.26100159    0.05000000    0.01000000
   16.32361221  100.36699677    0.05000000    0.01000000
   16.32666779  103.38999939    0.05000000    0.01000000
   16.33000183   90.47339630    0.05000000    0.01000000
   16.33305550   97.51319885    0.05000000    0.01000000
   16.33638954  103.72000122    0.05000000    0.01000000
   16.34250069  103.72000122    0.05000000    0.01000000
   16.36083412  102.26000214    0.05000000    0.01000000
   16.36416626  103.00900269    0.05000000    0.01000000
   16.36722183  113.62000275    0.05000000    0.01000000
   16.37055588  106.05599976    0.05000000    0.01000000
   16.37361145  101.54799652    0.05000000    0.01000000
   16.37694550  106.38200378    0.05000000    0.01000000
   16.38027763   99.10910034    0.05000000    0.01000000
   16.38555527   99.10910034    0.05000000    0.01000000
   16.38972282  106.54699707    0.05000000    0.01000000
   16.39277840   99.05509949    0.05000000    0.01000000
   16.39388847  104.92400360    0.05000000    0.01000000
   16.39638901  100.19000244    0.05000000    0.01000000
   16.39972115  102.17800140    0.05000000    0.01000000
   16.40305519  106.89299774    0.05000000    0.01000000
   16.40611076   97.94539642    0.05000000    0.01000000
   16.40944481   97.89499664    0.05000000    0.01000000
   16.41277695  106.48799896    0.05000000    0.01000000
   16.41583252   98.76950073    0.05000000    0.01000000
   16.41916656   99.57730103    0.05000000    0.01000000
   16.42249870  101.17199707    0.05000000    0.01000000
   16.42833328  101.17199707    0.05000000    0.01000000
   16.43249893   99.20659637    0.05000000    0.01000000
   16.43583298   95.61289978    0.05000000    0.01000000
   16.43888855   97.58159637    0.05000000    0.01000000
   16.44222069  109.33000183    0.05000000    0.01000000
   16.44527626  103.25000000    0.05000000    0.01000000
   16.44861031  103.58399963    0.05000000    0.01000000
   16.45194435  101.35700226    0.05000000    0.01000000
   16.45499992  103.17900085    0.05000000    0.01000000
   16.45833397  106.61900330    0.05000000    0.01000000
   16.46055603  101.16300201    0.05000000    0.01000000
   16.46166801  105.37599945    0.05000000    0.01000000
   16.46500015  100.98899841    0.05000000    0.01000000
   16.47111130  100.98899841    0.05000000    0.01000000
   16.47527885   93.53140259    0.05000000    0.01000000
   16.47861099  100.30100250    0.05000000    0.01000000
   16.48166656   99.59390259    0.05000000    0.01000000
   16.48500061  103.16699982    0.05000000    0.01000000
   16.48833275  105.88800049    0.05000000    0.01000000
   16.49138832  100.51699829    0.05000000    0.01000000
   16.49388885   95.94699860    0.05000000    0.01000000
   16.49527740  100.54499817    0.05000000    0.01000000
   16.49833298   93.98329926    0.05000000    0.01000000
   16.50166702   94.05349731    0.05000000    0.01000000
   16.50472260  101.22399902    0.05000000    0.01000000
   16.50805473  102.03800201    0.05000000    0.01000000
   16.51388931  102.03800201    0.05000000    0.01000000
   16.51805496   98.31199646    0.05000000    0.01000000
   16.52138901  107.78099823    0.05000000    0.01000000
   16.52472115  110.84700012    0.05000000    0.01000000
   16.52722168   99.12519836    0.05000000    0.01000000
   16.52805519  104.44100189    0.05000000    0.01000000
   16.53138924  107.06500244    0.05000000    0.01000000
   16.53472137  102.12300110    0.05000000    0.01000000
   16.53777695   97.81159973    0.05000000    0.01000000
   16.54111099  102.76799774    0.05000000    0.01000000
   16.54444313  104.80500031    0.05000000    0.01000000
   16.54749870   97.97560120    0.05000000    0.01000000
   16.55083275  103.20999908    0.05000000    0.01000000
   16.55694389  103.20999908    0.05000000    0.01000000
   16.56110954  108.11900330    0.05000000    0.01000000
   16.56416512  101.36399841    0.05000000    0.01000000
   16.56750107  104.90399933    0.05000000    0.01000000
   16.57083511  104.27899933    0.05000000    0.01000000
   16.57389069  105.52400208    0.05000000    0.01000000
   16.57722282  109.84300232    0.05000000    0.01000000
   16.58027840  100.80799866    0.05000000    0.01000000
   16.58361244  100.02500153    0.05000000    0.01000000
   16.58694458  101.94100189    0.05000000    0.01000000
   16.59000015  104.55699921    0.05000000    0.01000000
   16.59333420  106.64199829    0.05000000    0.01000000
   16.59388924  103.98200226    0.05000000    0.01000000
   16.59972191  103.98200226    0.05000000    0.01000000
   16.60388947  107.19699860    0.05000000    0.01000000
   16.60722351  109.59500122    0.05000000    0.01000000
   16.61027908   98.00499725    0.05000000    0.01000000
   16.61361122  103.69400024    0.05000000    0.01000000
   16.61666679  102.78800201    0.05000000    0.01000000
   16.62000084  104.71299744    0.05000000    0.01000000
   16.62333298  100.70999908    0.05000000    0.01000000
   16.62638855  102.16000366    0.05000000    0.01000000
   16.62722206  104.48100281    0.05000000    0.01000000
   16.63027763   98.06220245    0.05000000    0.01000000
   16.63333321  102.04799652    0.05000000    0.01000000
   16.63666725   97.15129852    0.05000000    0.01000000
   16.64249992   97.15129852    0.05000000    0.01000000
   16.64666748  106.02500153    0.05000000    0.01000000
   16.64999962  103.00499725    0.05000000    0.01000000
   16.65305519  102.51100159    0.05000000    0.01000000
   16.65638924  107.99700165    0.05000000    0.01000000
   16.65972137  103.30999756    0.05000000    0.01000000
   16.66055489  101.63800049    0.05000000    0.01000000
   16.66333389  112.58899689    0.05000000    0.01000000
   16.66638756  104.98699951    0.05000000    0.01000000
   16.66972160  105.17700195    0.05000000    0.01000000
   16.67305565  105.36100006    0.05000000    0.01000000
   16.67611122  100.72899628    0.05000000    0.01000000
   16.67944336   95.81030273    0.05000000    0.01000000
   16.68555450   95.81030273    0.05000000    0.01000000
   16.68944359  104.39299774    0.05000000    0.01000000
   16.69277763  103.21700287    0.05000000    0.01000000
   16.69388771  106.41100311    0.05000000    0.01000000
   16.69638824  105.16899872    0.05000000    0.01000000
   16.69944382  104.75599670    0.05000000    0.01000000
   16.70277786  103.14600372    0.05000000    0.01000000
   16.70611191   99.28790283    0.05000000    0.01000000
   16.70916748   95.61669922    0.05000000    0.01000000
   16.71250153   99.06179810    0.05000000    0.01000000
   16.71555710  104.13999939    0.05000000    0.01000000
   16.71888924  104.32900238    0.05000000    0.01000000
   16.72222328  112.82800293    0.05000000    0.01000000
   16.72833443  112.82800293    0.05000000    0.01000000
   16.73250008  102.91500092    0.05000000    0.01000000
   16.73555565  101.19999695    0.05000000    0.01000000
   16.73888969  102.56600189    0.05000000    0.01000000
   16.74222183   99.68669891    0.05000000    0.01000000
   16.74527740   96.19020081    0.05000000    0.01000000
   16.74861145   93.23059845    0.05000000    0.01000000
   16.75194359   97.35900116    0.05000000    0.01000000
   16.75499916  107.65499878    0.05000000    0.01000000
   16.75833321   98.75859833    0.05000000    0.01000000
   16.76055527  104.19499969    0.05000000    0.01000000
   16.76194382  102.31900024    0.05000000    0.01000000
   16.76499939  102.66300201    0.05000000    0.01000000
   16.77111053  102.66300201    0.05000000    0.01000000
   16.77527809  104.90899658    0.05000000    0.01000000
   16.77861023  103.75499725    0.05000000    0.01000000
   16.78166580  106.97799683    0.05000000    0.01000000
   16.78499985  104.51100159    0.05000000    0.01000000
   16.78805542  106.91400146    0.05000000    0.01000000
   16.79138756  102.03099823    0.05000000    0.01000000
   16.79388809  106.01000214    0.05000000    0.01000000
   16.79500008  101.70800018    0.05000000    0.01000000
   16.79805565  104.44799805    0.05000000    0.01000000
   16.80138779   97.99299622    0.05000000    0.01000000
   16.80472183  105.25000000    0.05000000    0.01000000
   16.80777740  100.99299622    0.05000000    0.01000000
   16.81388855  100.99299622    0.05000000    0.01000000
   16.81805611   99.23259735    0.05000000    0.01000000
   16.82139015  110.99600220    0.05000000    0.01000000
   16.82444572   97.90270233    0.05000000    0.01000000
   16.82722282   99.15969849    0.05000000    0.01000000
   16.82833481  103.03199768    0.05000000    0.01000000
   16.83139038  108.26000214    0.05000000    0.01000000
   16.83472252   97.31780243    0.05000000    0.01000000
   16.83805656  102.75299835    0.05000000    0.01000000
   16.84111214  103.77999878    0.05000000    0.01000000
   16.84444427  109.06800079    0.05000000    0.01000000
   16.84777832  108.60299683    0.05000000    0.01000000
   16.85083389  100.92800140    0.05000000    0.01000000
   16.85694504  100.92800140    0.05000000    0.01000000
   16.86083412  105.11399841    0.05000000    0.01000000
   16.86416626  104.44000244    0.05000000    0.01000000
   16.86750031  107.19300079    0.05000000    0.01000000
   16.87055588  104.83499908    0.05000000    0.01000000
   16.87388992  106.88700104    0.05000000    0.01000000
   16.87722206  100.73999786    0.05000000    0.01000000
   16.88027763   97.90029907    0.05000000    0.01000000
   16.88361168  102.49500275    0.05000000    0.01000000
   16.88666725  101.08599854    0.05000000    0.01000000
   16.88999939  101.54799652    0.05000000    0.01000000
   16.89333344  105.24900055    0.05000000    0.01000000
   16.89388847  102.72499847    0.05000000    0.01000000
   16.89972115  102.72499847    0.05000000    0.01000000
   16.90388870  106.10399628    0.05000000    0.01000000
   16.90694427  101.60900116    0.05000000    0.01000000
   16.91027832  104.76200104    0.05000000    0.01000000
   16.91361046  106.01999664    0.05000000    0.01000000
   16.91666603  103.54599762    0.05000000    0.01000000
   16.92000008  104.04100037    0.05000000    0.01000000
   16.92333221  104.33100128    0.05000000    0.01000000
   16.92638779  105.43800354    0.05000000    0.01000000
   16.92722130  104.76599884    0.05000000    0.01000000
   16.93000031  100.98500061    0.05000000    0.01000000
   16.93305397   99.84639740    0.05000000    0.01000000
   16.93638802  104.54599762    0.05000000    0.01000000
   16.94249916  104.54599762    0.05000000    0.01000000
   16.94666672  103.51200104    0.05000000    0.01000000
   16.95000076   95.84459686    0.05000000    0.01000000
   16.95305634  109.24500275    0.05000000    0.01000000
   16.95639038   95.97260284    0.05000000    0.01000000
   16.95944595   98.27819824    0.05000000    0.01000000
   16.96055603   97.55809784    0.05000000    0.01000000
   16.96333504  106.54499817    0.05000000    0.01000000
   16.96638870   99.23459625    0.05000000    0.01000000
   16.96972275   98.59420013    0.05000000    0.01000000
   16.97305679  103.39099884    0.05000000    0.01000000
   16.97611237   99.26570129    0.05000000    0.01000000
   16.97944450  111.74299622    0.05000000    0.01000000
   16.98527718  111.74299622    0.05000000    0.01000000
   16.98944473  107.31999969    0.05000000    0.01000000
   16.99277878  109.39600372    0.05000000    0.01000000
   16.99388885  103.80599976    0.05000000    0.01000000
   16.99638939  105.58399963    0.05000000    0.01000000
   16.99944496  103.73799896    0.05000000    0.01000000
   17.00277710  101.83599854    0.05000000    0.01000000
   17.00611115  106.65299988    0.05000000    0.01000000
   17.00916672  108.08300018    0.05000000    0.01000000
   17.01250076  103.03800201    0.05000000    0.01000000
   17.01583290  104.84400177    0.05000000    0.01000000
   17.01888847  104.30999756    0.05000000    0.01000000
   17.02222252  107.80300140    0.05000000    0.01000000
   17.02833366  107.80300140    0.05000000    0.01000000
   17.03222275  103.88500214    0.05000000    0.01000000
   17.03555489  104.83399963    0.05000000    0.01000000
   17.03888893  103.75800323    0.05000000    0.01000000
   17.04194450  104.39199829    0.05000000    0.01000000
   17.04527664   97.99810028    0.05000000    0.01000000
   17.04861069   97.77330017    0.05000000    0.01000000
   17.05166626  101.33499908    0.05000000    0.01000000
   17.05499840   99.39279938    0.05000000    0.01000000
   17.05805397  103.71299744    0.05000000    0.01000000
   17.06055450   95.25299835    0.05000000    0.01000000
   17.06194305  103.33799744    0.05000000    0.01000000
   17.06499863  102.33399963    0.05000000    0.01000000
   17.07111168  102.33399963    0.05000000    0.01000000
   17.07527924   99.88619995    0.05000000    0.01000000
   17.07833481  104.72399902    0.05000000    0.01000000
   17.08166695  102.97699738    0.05000000    0.01000000
   17.08500099  103.83899689    0.05000000    0.01000000
   17.08805656  105.36100006    0.05000000    0.01000000
   17.09138870   99.91889954    0.05000000    0.01000000
   17.09388924  104.51300049    0.05000000    0.01000000
   17.09500122  101.47399902    0.05000000    0.01000000
   17.09805679  103.94599915    0.05000000    0.01000000
   17.10138893   98.26989746    0.05000000    0.01000000
   17.10472298  100.22899628    0.05000000    0.01000000
   17.10777855  107.58300018    0.05000000    0.01000000
   17.11388969  107.58300018    0.05000000    0.01000000
   17.11805534   98.95749664    0.05000000    0.01000000
   17.12138939  100.07599640    0.05000000    0.01000000
   17.12444496  104.80000305    0.05000000    0.01000000
   17.12722206  108.99900055    0.05000000    0.01000000
   17.12805557   98.87270355    0.05000000    0.01000000
   17.13138962   96.87280273    0.05000000    0.01000000
   17.13444519   98.21869659    0.05000000    0.01000000
   17.13777733  106.79399872    0.05000000    0.01000000
   17.14083290  104.11199951    0.05000000    0.01000000
   17.14416695  105.48000336    0.05000000    0.01000000
   17.14749908  111.80100250    0.05000000    0.01000000
   17.15055466   99.29660034    0.05000000    0.01000000
   17.15666580   99.29660034    0.05000000    0.01000000
   17.16083336  102.38500214    0.05000000    0.01000000
   17.16416550  108.19400024    0.05000000    0.01000000
   17.16722107  103.86699677    0.05000000    0.01000000
   17.17055511  103.65499878    0.05000000    0.01000000
   17.17388916  104.48100281    0.05000000    0.01000000
   17.17694473  105.85199738    0.05000000    0.01000000
   17.18027687  106.98000336    0.05000000    0.01000000
   17.18361092  103.29599762    0.05000000    0.01000000
   17.18666649  109.09799957    0.05000000    0.01000000
   17.18999863  107.01300049    0.05000000    0.01000000
   17.19305420  116.41999817    0.05000000    0.01000000
   17.19388771  113.28600311    0.05000000    0.01000000
   17.19972038  113.28600311    0.05000000    0.01000000
   17.20361137  114.61399841    0.05000000    0.01000000
   17.20694542  114.76799774    0.05000000    0.01000000
   17.21027946  119.37799835    0.05000000    0.01000000
   17.21333504  108.22799683    0.05000000    0.01000000
   17.21666718  116.98799896    0.05000000    0.01000000
   17.22000122  114.32099915    0.05000000    0.01000000
   17.22305679  113.35900116    0.05000000    0.01000000
   17.22638893  109.84999847    0.05000000    0.01000000
   17.22722244  104.20500183    0.05000000    0.01000000
   17.23000145  114.74199677    0.05000000    0.01000000
   17.23333359  109.54399872    0.05000000    0.01000000
   17.23638916  114.38899994    0.05000000    0.01000000
   17.24250031  114.38899994    0.05000000    0.01000000
   17.24666786  118.28700256    0.05000000    0.01000000
   17.25000000  129.20199585    0.05000000    0.01000000
   17.25305557  133.64100647    0.05000000    0.01000000
   17.25638962  135.02299500    0.05000000    0.01000000
   17.25972176  116.84200287    0.05000000    0.01000000
   17.26055527  123.36499786    0.05000000    0.01000000
   17.26333427  131.27299500    0.05000000    0.01000000
   17.26666641  123.53900146    0.05000000    0.01000000
   17.26972198  103.16899872    0.05000000    0.01000000
   17.27305603  116.33699799    0.05000000    0.01000000
   17.27611160  115.40399933    0.05000000    0.01000000
   17.27944374  114.18399811    0.05000000    0.01000000
   17.28527641  114.18399811    0.05000000    0.01000000
   17.28944397  116.16300201    0.05000000    0.01000000
   17.29277802  125.62999725    0.05000000    0.01000000
   17.29388809  122.62899780    0.05000000    0.01000000
   17.29638863  120.34400177    0.05000000    0.01000000
   17.29972076  114.18499756    0.05000000    0.01000000
   17.30277634  116.27200317    0.05000000    0.01000000
   17.30638885  116.25900269    0.05000000    0.01000000
   17.30972099  119.86000061    0.05000000    0.01000000
   17.31277657  112.23899841    0.05000000    0.01000000
   17.31611061  112.13700104    0.05000000    0.01000000
   17.31916809  114.81300354    0.05000000    0.01000000
   17.32250023  119.18800354    0.05000000    0.01000000
   17.32805634  119.18800354    0.05000000    0.01000000
   17.33222389  121.30400085    0.05000000    0.01000000
   17.33555603  110.33599854    0.05000000    0.01000000
   17.33861160  110.74199677    0.05000000    0.01000000
   17.34194565  117.73300171    0.05000000    0.01000000
   17.34527779  121.54900360    0.05000000    0.01000000
   17.34833336  123.35900116    0.05000000    0.01000000
   17.35166740  121.81999969    0.05000000    0.01000000
   17.35499954  119.40499878    0.05000000    0.01000000
   17.35805511  111.59500122    0.05000000    0.01000000
   17.36055565  114.15599823    0.05000000    0.01000000
   17.38111115  114.15599823    0.05000000    0.01000000
   17.38527679  115.75900269    0.05000000    0.01000000
   17.38861084  110.34700012    0.05000000    0.01000000
   17.39194489  101.46900177    0.05000000    0.01000000
   17.39388847  106.78299713    0.05000000    0.01000000
   17.39555550  107.34100342    0.05000000    0.01000000
   17.39888954  108.43000031    0.05000000    0.01000000
   17.40194321  106.27999878    0.05000000    0.01000000
   17.40527725  114.06400299    0.05000000    0.01000000
   17.40861130  109.91000366    0.05000000    0.01000000
   17.41166687  114.21499634    0.05000000    0.01000000
   17.41499901  114.78600311    0.05000000    0.01000000
   17.41805458  112.16999817    0.05000000    0.01000000
   17.42388916  112.16999817    0.05000000    0.01000000
   17.42805481  109.39900208    0.05000000    0.01000000
   17.43138885  114.27600098    0.05000000    0.01000000
   17.43472099  114.56400299    0.05000000    0.01000000
   17.43777657  114.93099976    0.05000000    0.01000000
   17.44111061  113.08200073    0.05000000    0.01000000
   17.44416618  111.46800232    0.05000000    0.01000000
   17.44749832  112.88200378    0.05000000    0.01000000
   17.45083427  109.51000214    0.05000000    0.01000000
   17.45388985  109.08799744    0.05000000    0.01000000
   17.45722389  115.94499969    0.05000000    0.01000000
   17.46055603  114.17400360    0.05000000    0.01000000
   17.46083450  113.02799988    0.05000000    0.01000000
   17.46694565  113.02799988    0.05000000    0.01000000
   17.47111130  108.77700043    0.05000000    0.01000000
   17.47416687  111.11000061    0.05000000    0.01000000
   17.47750092  108.88099670    0.05000000    0.01000000
   17.48055649  112.24400330    0.05000000    0.01000000
   17.48388863  106.21800232    0.05000000    0.01000000
   17.48722267  104.65599823    0.05000000    0.01000000
   17.49027824  100.67600250    0.05000000    0.01000000
   17.49361229  106.86900330    0.05000000    0.01000000
   17.49416733  105.97899628    0.05000000    0.01000000
   17.49722290  114.08999634    0.05000000    0.01000000
   17.50027847  106.17099762    0.05000000    0.01000000
   17.50361061  107.11900330    0.05000000    0.01000000
   17.50972176  107.11900330    0.05000000    0.01000000
   17.51388931  112.11900330    0.05000000    0.01000000
   17.51694489  112.14900208    0.05000000    0.01000000
   17.52027702  107.86000061    0.05000000    0.01000000
   17.52361107  106.42600250    0.05000000    0.01000000
   17.52666664  104.24900055    0.05000000    0.01000000
   17.52750015  103.93299866    0.05000000    0.01000000
   17.53027725  108.93499756    0.05000000    0.01000000
   17.53333282  103.21399689    0.05000000    0.01000000
   17.53666687   99.37709808    0.05000000    0.01000000
   17.53999901  103.00800323    0.05000000    0.01000000
   17.54305458  107.80500031    0.05000000    0.01000000
   17.54638863  100.47000122    0.05000000    0.01000000
   17.55249977  100.47000122    0.05000000    0.01000000
   17.55666542  110.92900085    0.05000000    0.01000000
   17.55972099  111.38800049    0.05000000    0.01000000
   17.56083298  109.83699799    0.05000000    0.01000000
   17.56333351  106.76300049    0.05000000    0.01000000
   17.56666756  106.05799866    0.05000000    0.01000000
   17.56972313  103.99700165    0.05000000    0.01000000
   17.57305717  106.56700134    0.05000000    0.01000000
   17.57611275  104.11599731    0.05000000    0.01000000
   17.57944489  101.24099731    0.05000000    0.01000000
   17.58277893  103.97699738    0.05000000    0.01000000
   17.58583450  104.33300018    0.05000000    0.01000000
   17.58916664  108.83100128    0.05000000    0.01000000
   17.59527779  108.83100128    0.05000000    0.01000000
   17.59944534  107.69999695    0.05000000    0.01000000
   17.60277748  109.14800262    0.05000000    0.01000000
   17.60583305  107.78800201    0.05000000    0.01000000
   17.60916710  105.12999725    0.05000000    0.01000000
   17.61250114  106.10199738    0.05000000    0.01000000
   17.61555672  105.71900177    0.05000000    0.01000000
   17.61888885  105.24199677    0.05000000    0.01000000
   17.62194443  101.79799652    0.05000000    0.01000000
   17.62527847  104.41699982    0.05000000    0.01000000
   17.62750053  100.66300201    0.05000000    0.01000000
   17.62888908  100.83000183    0.05000000    0.01000000
   17.63222313  102.54000092    0.05000000    0.01000000
   17.63833237  102.54000092    0.05000000    0.01000000
   17.64222145  103.54699707    0.05000000    0.01000000
   17.64555550  102.32599640    0.05000000    0.01000000
   17.64888954  104.91000366    0.05000000    0.01000000
   17.65194321  105.62799835    0.05000000    0.01000000
   17.65527725  103.19400024    0.05000000    0.01000000
   17.65861130  103.69499969    0.05000000    0.01000000
   17.66083336  101.42900085    0.05000000    0.01000000
   17.66222191  104.76000214    0.05000000    0.01000000
   17.66555595  100.14199829    0.05000000    0.01000000
   17.66860962  100.35600281    0.05000000    0.01000000
   17.67194366  101.78700256    0.05000000    0.01000000
   17.67499924  102.55599976    0.05000000    0.01000000
   17.68111038  102.55599976    0.05000000    0.01000000
   17.68527603  108.43499756    0.05000000    0.01000000
   17.68833160  102.16899872    0.05000000    0.01000000
   17.69166565   99.63729858    0.05000000    0.01000000
   17.69416618  101.39499664    0.05000000    0.01000000
   17.69527626  100.01399994    0.05000000    0.01000000
   17.69861031  101.63600159    0.05000000    0.01000000
   17.70166779  103.18499756    0.05000000    0.01000000
   17.70499992   97.75469971    0.05000000    0.01000000
   17.70833397   99.85790253    0.05000000    0.01000000
   17.71138954  103.94300079    0.05000000    0.01000000
   17.71472359  100.28700256    0.05000000    0.01000000
   17.71805573   98.03639984    0.05000000    0.01000000
   17.72389030   98.03639984    0.05000000    0.01000000
   17.72805595  100.43699646    0.05000000    0.01000000
   17.73139000  101.37999725    0.05000000    0.01000000
   17.73444557   99.80590057    0.05000000    0.01000000
   17.73777771   98.15950012    0.05000000    0.01000000
   17.74083328   99.51450348    0.05000000    0.01000000
   17.74416733  107.43900299    0.05000000    0.01000000
   17.74749947  102.43000031    0.05000000    0.01000000
   17.75055504  101.76599884    0.05000000    0.01000000
   17.75388908   99.38649750    0.05000000    0.01000000
   17.75722313   97.98149872    0.05000000    0.01000000
   17.76027870   94.88960266    0.05000000    0.01000000
   17.76083374   97.25170135    0.05000000    0.01000000
   17.76666641   97.25170135    0.05000000    0.01000000
   17.77083397  100.86499786    0.05000000    0.01000000
   17.77416611   99.69740295    0.05000000    0.01000000
   17.77722168   97.95700073    0.05000000    0.01000000
   17.78055573  101.77700043    0.05000000    0.01000000
   17.78388786  100.53099823    0.05000000    0.01000000
   17.78694344  101.64299774    0.05000000    0.01000000
   17.79027748  101.18299866    0.05000000    0.01000000
   17.79361153  104.00599670    0.05000000    0.01000000
   17.79416656   98.65799713    0.05000000    0.01000000
   17.79694366   98.03929901    0.05000000    0.01000000
   17.80027771  100.56800079    0.05000000    0.01000000
   17.80333328   98.32360077    0.05000000    0.01000000
   17.80972099   98.32360077    0.05000000    0.01000000
   17.81361008   99.63860321    0.05000000    0.01000000
   17.81694603  100.20800018    0.05000000    0.01000000
   17.82027817  102.68099976    0.05000000    0.01000000
   17.82333374  101.89600372    0.05000000    0.01000000
   17.82666779  105.47499847    0.05000000    0.01000000
   17.82750130  103.53299713    0.05000000    0.01000000
   17.83027840  100.47000122    0.05000000    0.01000000
   17.83361244  101.63600159    0.05000000    0.01000000
   17.83666801  103.69300079    0.05000000    0.01000000
   17.84000015   97.07830048    0.05000000    0.01000000
   17.84333420   99.28230286    0.05000000    0.01000000
   17.84638977   97.00250244    0.05000000    0.01000000
   17.85250092   97.00250244    0.05000000    0.01000000
   17.85666656   98.50219727    0.05000000    0.01000000
   17.85972214   98.81079865    0.05000000    0.01000000
   17.86083412  100.45099640    0.05000000    0.01000000
   17.86333466   98.97899628    0.05000000    0.01000000
   17.86666679  100.72100067    0.05000000    0.01000000
   17.86972237   95.35540009    0.05000000    0.01000000
   17.87305641   99.80000305    0.05000000    0.01000000
   17.87638855   97.67880249    0.05000000    0.01000000
   17.87944412   97.54010010    0.05000000    0.01000000
   17.88277817   97.25800323    0.05000000    0.01000000
   17.88583374  102.83999634    0.05000000    0.01000000
   17.88916588  101.88700104    0.05000000    0.01000000
   17.89527702  101.88700104    0.05000000    0.01000000
   17.89944458   97.91449738    0.05000000    0.01000000
   17.90277672   95.99549866    0.05000000    0.01000000
   17.90583229   98.39949799    0.05000000    0.01000000
   17.90916634   97.72489929    0.05000000    0.01000000
   17.91222191   97.73349762    0.05000000    0.01000000
   17.91555595  101.23699951    0.05000000    0.01000000
   17.91888809   98.33709717    0.05000000    0.01000000
   17.92194366   97.19819641    0.05000000    0.01000000
   17.92527771   95.00160217    0.05000000    0.01000000
   17.92777634   94.75399780    0.05000000    0.01000000
   17.92916679   95.82579803    0.05000000    0.01000000
   17.93249893   94.68730164    0.05000000    0.01000000
   17.93861008   94.68730164    0.05000000    0.01000000
   17.94249916  101.58000183    0.05000000    0.01000000
   17.94583321  100.65399933    0.05000000    0.01000000
   17.94916534   98.72049713    0.05000000    0.01000000
   17.95222282   97.08380127    0.05000000    0.01000000
   17.95555687   98.21630096    0.05000000    0.01000000
   17.95861244   95.48970032    0.05000000    0.01000000
   17.96111107   98.99289703    0.05000000    0.01000000
   17.96222305  101.16899872    0.05000000    0.01000000
   17.96555710   97.50060272    0.05000000    0.01000000
   17.96861076  104.31600189    0.05000000    0.01000000
   17.97194481  100.37300110    0.05000000    0.01000000
   17.97527885  101.73999786    0.05000000    0.01000000
   17.98111153  101.73999786    0.05000000    0.01000000
   17.98500061   99.81929779    0.05000000    0.01000000
   17.98833275   99.51110077    0.05000000    0.01000000
   17.99166679  101.17700195    0.05000000    0.01000000
   17.99444389  101.63200378    0.05000000    0.01000000
   17.99527740  102.86900330    0.05000000    0.01000000
   17.99861145  100.80599976    0.05000000    0.01000000
   18.00166702   96.91989899    0.05000000    0.01000000
   18.00499916  101.41000366    0.05000000    0.01000000
   18.00833321   96.59089661    0.05000000    0.01000000
   18.01138878  102.12000275    0.05000000    0.01000000
   18.01472282  100.22399902    0.05000000    0.01000000
   18.01777840  103.85299683    0.05000000    0.01000000
   18.02388954  103.85299683    0.05000000    0.01000000
   18.02805519   97.24970245    0.05000000    0.01000000
   18.03138924   98.79789734    0.05000000    0.01000000
   18.03444481   96.83470154    0.05000000    0.01000000
   18.03777695   94.81310272    0.05000000    0.01000000
   18.04083252   99.27680206    0.05000000    0.01000000
   18.04416656  101.50199890    0.05000000    0.01000000
   18.04749870  103.07199860    0.05000000    0.01000000
   18.05055428   98.53269958    0.05000000    0.01000000
   18.05388832   96.35549927    0.05000000    0.01000000
   18.05722237  102.45099640    0.05000000    0.01000000
   18.06027794  102.48799896    0.05000000    0.01000000
   18.06110954  100.07199860    0.05000000    0.01000000
   18.06666756  100.07199860    0.05000000    0.01000000
   18.07083511  102.21299744    0.05000000    0.01000000
   18.07416725  104.85399628    0.05000000    0.01000000
   18.07722282  104.64399719    0.05000000    0.01000000
   18.08055687   98.37169647    0.05000000    0.01000000
   18.08361244  102.10600281    0.05000000    0.01000000
   18.08694458  100.34700012    0.05000000    0.01000000
   18.09027863  101.39700317    0.05000000    0.01000000
   18.09333420  101.58499908    0.05000000    0.01000000
   18.09444427  107.20099640    0.05000000    0.01000000
   18.09694481  100.05599976    0.05000000    0.01000000
   18.10027885   99.49240112    0.05000000    0.01000000
   18.10333443  100.19999695    0.05000000    0.01000000
   18.10944557  100.19999695    0.05000000    0.01000000
   18.11361122   97.42440033    0.05000000    0.01000000
   18.11694527  100.62100220    0.05000000    0.01000000
   18.12000084   97.88059998    0.05000000    0.01000000
   18.12333298   98.24289703    0.05000000    0.01000000
   18.12666702   98.61380005    0.05000000    0.01000000
   18.12777710   99.52059937    0.05000000    0.01000000
   18.13000107  100.93599701    0.05000000    0.01000000
   18.13333321   97.93270111    0.05000000    0.01000000
   18.13666725  100.10500336    0.05000000    0.01000000
   18.13972282  100.51000214    0.05000000    0.01000000
   18.14305496   99.56580353    0.05000000    0.01000000
   18.14638901   96.59059906    0.05000000    0.01000000
   18.15250015   96.59059906    0.05000000    0.01000000
   18.15638924   98.58830261    0.05000000    0.01000000
   18.15972137   97.86799622    0.05000000    0.01000000
   18.16110992   96.44129944    0.05000000    0.01000000
   18.16333389   95.67320251    0.05000000    0.01000000
   18.16666603  102.21700287    0.05000000    0.01000000
   18.17000008   96.01950073    0.05000000    0.01000000
   18.17305565  100.66600037    0.05000000    0.01000000
   18.17638779   95.31510162    0.05000000    0.01000000
   18.17944336   99.93470001    0.05000000    0.01000000
   18.18277740  100.09600067    0.05000000    0.01000000
   18.18610954   93.68599701    0.05000000    0.01000000
   18.18916512  105.65100098    0.05000000    0.01000000
   18.19527626  105.65100098    0.05000000    0.01000000
   18.19944382  102.41400146    0.05000000    0.01000000
   18.20250130   99.26339722    0.05000000    0.01000000
   18.20583344   96.54979706    0.05000000    0.01000000
   18.20916748  102.47899628    0.05000000    0.01000000
   18.21222305   97.55850220    0.05000000    0.01000000
   18.21555710  100.46499634    0.05000000    0.01000000
   18.21861076   98.26580048    0.05000000    0.01000000
   18.22194481   98.42269897    0.05000000    0.01000000
   18.22527885   97.42389679    0.05000000    0.01000000
   18.22777748   98.62100220    0.05000000    0.01000000
   18.22861099   99.68460083    0.05000000    0.01000000
   18.23194504   98.41380310    0.05000000    0.01000000
   18.23805618   98.41380310    0.05000000    0.01000000
   18.24222183   96.36830139    0.05000000    0.01000000
   18.24555588   96.91680145    0.05000000    0.01000000
   18.24861145   98.17050171    0.05000000    0.01000000
   18.25194359  100.72399902    0.05000000    0.01000000
   18.25499916  100.24700165    0.05000000    0.01000000
   18.25833321  100.81700134    0.05000000    0.01000000
   18.26111031  100.13800049    0.05000000    0.01000000
   18.26194382   99.73139954    0.05000000    0.01000000
   18.26527786   99.81520081    0.05000000    0.01000000
   18.26861000   97.30549622    0.05000000    0.01000000
   18.27166557   98.19450378    0.05000000    0.01000000
   18.27499962   94.83820343    0.05000000    0.01000000
   18.28083229   94.83820343    0.05000000    0.01000000
   18.28499985   97.87139893    0.05000000    0.01000000
   18.28833199  102.25199890    0.05000000    0.01000000
   18.29138756  100.09899902    0.05000000    0.01000000
   18.29444313   98.66359711    0.05000000    0.01000000
   18.29500008   97.37670135    0.05000000    0.01000000
   18.29833221   96.58969879    0.05000000    0.01000000
   18.30138779   98.35630035    0.05000000    0.01000000
   18.30472183  106.05999756    0.05000000    0.01000000
   18.30805397  101.04399872    0.05000000    0.01000000
   18.31110954   96.38629913    0.05000000    0.01000000
   18.31444359  102.33899689    0.05000000    0.01000000
   18.31777954   95.30670166    0.05000000    0.01000000
   18.32389069   95.30670166    0.05000000    0.01000000
   18.32777786   96.84169769    0.05000000    0.01000000
   18.33111191   99.15679932    0.05000000    0.01000000
   18.33444595   97.29759979    0.05000000    0.01000000
   18.33750153   96.62640381    0.05000000    0.01000000
   18.34083366   94.46230316    0.05000000    0.01000000
   18.34416771  102.44999695    0.05000000    0.01000000
   18.34722328   95.51679993    0.05000000    0.01000000
   18.35055542   99.15899658    0.05000000    0.01000000
   18.35361099  100.90899658    0.05000000    0.01000000
   18.35694504   95.55709839    0.05000000    0.01000000
   18.36027908   99.92489624    0.05000000    0.01000000
   18.36111069  100.25800323    0.05000000    0.01000000
   18.36666679  100.25800323    0.05000000    0.01000000
   18.37083435   97.09310150    0.05000000    0.01000000
   18.37388992   98.69519806    0.05000000    0.01000000
   18.37722206   95.47399902    0.05000000    0.01000000
   18.39472198   99.34059906    0.05000000    0.01000000
   18.39722252   96.41100311    0.05000000    0.01000000
   18.40055466   93.70790100    0.05000000    0.01000000
   18.40361023   96.68520355    0.05000000    0.01000000
   18.40972137   96.68520355    0.05000000    0.01000000
   18.41388893   98.59490204    0.05000000    0.01000000
   18.41694450   95.93229675    0.05000000    0.01000000
   18.42027664   97.99669647    0.05000000    0.01000000
   18.42333221   97.75119781    0.05000000    0.01000000
   18.42666626  101.13200378    0.05000000    0.01000000
   18.42805481  100.25700378    0.05000000    0.01000000
   18.43027687  100.57399750    0.05000000    0.01000000
   18.43333244   96.51080322    0.05000000    0.01000000
   18.43666649   98.34500122    0.05000000    0.01000000
   18.43972206  101.35500336    0.05000000    0.01000000
   18.44305420  106.43099976    0.05000000    0.01000000
   18.44638824   98.87290192    0.05000000    0.01000000
   18.45250130   98.87290192    0.05000000    0.01000000
   18.45666695   99.18879700    0.05000000    0.01000000
   18.45972252  104.37300110    0.05000000    0.01000000
   18.46138954   95.36759949    0.05000000    0.01000000
   18.46361160  102.98600006    0.05000000    0.01000000
   18.46666718   94.18659973    0.05000000    0.01000000
   18.47000122   94.01409912    0.05000000    0.01000000
   18.47305679   93.68530273    0.05000000    0.01000000
   18.47638893  103.17900085    0.05000000    0.01000000
   18.47972298   98.73079681    0.05000000    0.01000000
   18.48277855   98.82990265    0.05000000    0.01000000
   18.48611069  100.84300232    0.05000000    0.01000000
   18.48944473   98.20850372    0.05000000    0.01000000
   18.49527740   98.20850372    0.05000000    0.01000000
   18.49944496   97.24150085    0.05000000    0.01000000
   18.50277710   94.69429779    0.05000000    0.01000000
   18.50583267   97.55660248    0.05000000    0.01000000
   18.50916672   99.82360077    0.05000000    0.01000000
   18.51222229   96.45220184    0.05000000    0.01000000
   18.51555634   93.97180176    0.05000000    0.01000000
   18.51888847   99.15989685    0.05000000    0.01000000
   18.52194405   97.99330139    0.05000000    0.01000000
   18.52527809  101.75099945    0.05000000    0.01000000
   18.52805519   95.67279816    0.05000000    0.01000000
   18.52888870   97.30079651    0.05000000    0.01000000
   18.53194427   97.91069794    0.05000000    0.01000000
   18.53805542   97.91069794    0.05000000    0.01000000
   18.54222107   98.87400055    0.05000000    0.01000000
   18.54555511   94.74919891    0.05000000    0.01000000
   18.54861069  103.19400024    0.05000000    0.01000000
   18.55194283  101.55200195    0.05000000    0.01000000
   18.55527687  103.51899719    0.05000000    0.01000000
   18.55833244   97.79060364    0.05000000    0.01000000
   18.56138802   96.33640289    0.05000000    0.01000000
   18.56222153   95.34609985    0.05000000    0.01000000
   18.56555557   94.28659821    0.05000000    0.01000000
   18.56861115  100.30300140    0.05000000    0.01000000
   18.57194519   97.84760284    0.05000000    0.01000000
   18.57500076  102.02300262    0.05000000    0.01000000
   18.58111191  102.02300262    0.05000000    0.01000000
   18.58500099   97.89129639    0.05000000    0.01000000
   18.58833313   98.16120148    0.05000000    0.01000000
   18.59166718  106.17299652    0.05000000    0.01000000
   18.59472275  103.58499908    0.05000000    0.01000000
   18.59527779  101.05799866    0.05000000    0.01000000
   18.59833336   97.46489716    0.05000000    0.01000000
   18.60166740   99.18630219    0.05000000    0.01000000
   18.60472298  102.95300293    0.05000000    0.01000000
   18.60805511   97.93090057    0.05000000    0.01000000
   18.61138916   99.91000366    0.05000000    0.01000000
   18.61444473   93.81410217    0.05000000    0.01000000
   18.61777878   97.30999756    0.05000000    0.01000000
   18.62388992   97.30999756    0.05000000    0.01000000
   18.62805557  102.88600159    0.05000000    0.01000000
   18.62833405  102.43199921    0.05000000    0.01000000
   18.63166618   98.79699707    0.05000000    0.01000000
   18.63500023   98.83750153    0.05000000    0.01000000
   18.63805580   98.63179779    0.05000000    0.01000000
   18.64138794   97.71440125    0.05000000    0.01000000
   18.64472198   99.40139771    0.05000000    0.01000000
   18.64777756   99.94439697    0.05000000    0.01000000
   18.65111160   93.24379730    0.05000000    0.01000000
   18.65416718   96.62729645    0.05000000    0.01000000
   18.65749931   99.05930328    0.05000000    0.01000000
   18.66083336  100.18199921    0.05000000    0.01000000
   18.66194344  101.44999695    0.05000000    0.01000000
   18.66666603  101.44999695    0.05000000    0.01000000
   18.67083359  107.15399933    0.05000000    0.01000000
   18.67416573  108.70099640    0.05000000    0.01000000
   18.67722130  106.15699768    0.05000000    0.01000000
   18.68055534  103.67700195    0.05000000    0.01000000
   18.68361092  105.64099884    0.05000000    0.01000000
   18.68694305  108.27500153    0.05000000    0.01000000
   18.69027710  104.66699982    0.05000000    0.01000000
   18.69333267  100.04299927    0.05000000    0.01000000
   18.69499969  108.37200165    0.05000000    0.01000000
   18.69694328  105.51899719    0.05000000    0.01000000
   18.70027924  103.53500366    0.05000000    0.01000000
   18.70333481   99.80259705    0.05000000    0.01000000
   18.70944595   99.80259705    0.05000000    0.01000000
   18.71361160   99.92109680    0.05000000    0.01000000
   18.71694565   97.30259705    0.05000000    0.01000000
   18.72000122   96.27709961    0.05000000    0.01000000
   18.72333336  101.74500275    0.05000000    0.01000000
   18.72666740  102.46700287    0.05000000    0.01000000
   18.72861099   97.89109802    0.05000000    0.01000000
   18.73027802   97.91960144    0.05000000    0.01000000
   18.73361206   96.72660065    0.05000000    0.01000000
   18.73666763   95.91929626    0.05000000    0.01000000
   18.73999977  102.45400238    0.05000000    0.01000000
   18.74333382  100.46399689    0.05000000    0.01000000
   18.74638939  103.13999939    0.05000000    0.01000000
   18.75250053  103.13999939    0.05000000    0.01000000
   18.75638962  101.82900238    0.05000000    0.01000000
   18.75972176  101.30799866    0.05000000    0.01000000
   18.76194382  100.41100311    0.05000000    0.01000000
   18.76333427  101.27999878    0.05000000    0.01000000
   18.76666641  102.87999725    0.05000000    0.01000000
   18.76972198  101.57399750    0.05000000    0.01000000
   18.77305603  100.64800262    0.05000000    0.01000000
   18.77638817  100.42199707    0.05000000    0.01000000
   18.77944374   98.80220032    0.05000000    0.01000000
   18.78277779   96.49220276    0.05000000    0.01000000
   18.78610992   94.99389648    0.05000000    0.01000000
   18.78916550   96.06120300    0.05000000    0.01000000
   18.79527664   96.06120300    0.05000000    0.01000000
   18.79944420  102.44699860    0.05000000    0.01000000
   18.80249977  101.52100372    0.05000000    0.01000000
   18.80583191  100.28299713    0.05000000    0.01000000
   18.80916595  100.31199646    0.05000000    0.01000000
