    HOUR (UT)   FLARE FACTOR    SKY TESTER    SUN TESTER
   11.81638908   -1.00000000   -1.00000000   -1.00000000
   11.85750008   -1.00000000    4.90999985    1.69000006
   11.86083412  263.65499878    4.90999985    1.71000004
   11.86388969  191.08900452    4.90999985    1.71000004
   11.86722279  176.72099304    4.90999985    1.73000002
   11.87055588  185.25900269    4.90999985    1.73000002
   11.87472248  185.25900269    4.90999985    1.73000002
   11.87888908  176.91499329    4.90999985    1.76999998
   11.88194466  175.01699829    4.90999985    1.76999998
   11.88527775  207.27999878    4.90999985    1.78999996
   11.88749981  178.23599243    4.90999985    1.76999998
   11.88861084  165.05200195    4.90999985    1.76999998
   11.89194393  175.99800110    4.90999985    1.76999998
   11.89527798  185.51199341    4.90999985    1.76999998
   11.89861107  169.81500244    4.90999985    1.78999996
   11.90194416  172.82299805    4.90999985    1.76999998
   11.90499973  171.80000305    4.90999985    1.78999996
   11.90833282  161.78100586    4.90999985    1.78999996
   11.91138840  168.63299561    4.90999985    1.78999996
   11.91750050  168.63299561    4.90999985    1.78999996
   11.92166710  157.74499512    4.88999987    1.78999996
   11.92472267  162.14700317    4.69999981    1.78999996
   11.92805576  162.74600220    4.44999981    1.78999996
   11.93111134  168.12600708    4.23999977    1.80999994
   11.93444443  168.51899719    4.01999998    1.83000004
   11.93777752  174.70500183    3.95000005    1.80999994
   11.94083309  170.88999939    3.95000005    1.83000004
   11.94416714  174.73100281    3.99000001    1.80999994
   11.94750023  168.97399902    4.01999998    1.80999994
   11.95055580  181.47799683    4.07999992    1.80999994
   11.95388889  182.81399536    4.07999992    1.83000004
   11.95444393  168.24000549    4.07999992    1.83000004
   11.96027756  168.24000549    3.99000001    1.83000004
   11.96444416  169.72700500    3.84999990    1.85000002
   11.96749973  160.47999573    3.68000007    1.85000002
   11.97083282  174.69200134    3.46000004    1.86000001
   11.97416592  165.60600281    3.16000009    1.85000002
   11.97722149  165.83900452    2.94000006    1.85000002
   11.98055553  158.73100281    2.82999992    1.85000002
   11.98388958  157.93800354    2.78999996    1.85000002
   11.98694515  149.50700378    2.76999998    1.85000002
   11.98777771  157.17100525    2.75000000    1.85000002
   11.99055576  166.10000610    2.73000002    1.85000002
   11.99388885  166.93600464    2.75000000    1.85000002
   11.99722290  166.16799927    2.76999998    1.86000001
   12.00305557  166.16799927    2.84999990    1.86000001
   12.00722218  168.29400635    2.84999990    1.88000000
   12.01055527  152.74899292    2.78999996    1.89999998
   12.01361084  165.96699524    2.69000006    1.89999998
   12.01694393  162.69500732    2.59999990    1.89999998
   12.02027798  173.97399902    2.55999994    1.89999998
   12.02111053  164.53500366    2.51999998    1.89999998
   12.02361107  169.25199890    2.51999998    1.89999998
   12.02694416  150.11199951    2.50000000    1.89999998
   12.03027725  151.94299316    2.48000002    1.91999996
   12.03333378  153.41099548    2.46000004    1.91999996
   12.03666687  147.98500061    2.46000004    1.91999996
   12.04000092  144.13499451    2.44000006    1.91999996
   12.04611111  144.13499451    2.40000010    1.91999996
   12.05000019  156.55400085    2.36999989    1.91999996
   12.05333328  145.35800171    2.34999990    1.94000006
   12.05444431  179.82400513    2.34999990    1.91999996
   12.05694485  166.76400757    2.30999994    1.94000006
   12.06027794  163.17799377    2.28999996    1.94000006
   12.06361103  139.08000183    2.25000000    1.94000006
   12.06666660  164.14199829    2.23000002    1.94000006
   12.06999969  141.81599426    2.21000004    1.94000006
   12.07333374  147.52400208    2.19000006    1.94000006
   12.07638836  153.10499573    2.17000008    1.94000006
   12.07972240  134.25599670    2.15000010    1.96000004
   12.08277798  149.29499817    2.15000010    1.96000004
   12.08888817  149.29499817    2.13000011    1.96000004
   12.09305477  151.49800110    2.09999990    1.96000004
   12.09611034  166.85400391    2.05999994    1.96000004
   12.09944439  141.13900757    2.05999994    1.98000002
   12.10277843  158.57200623    2.01999998    1.96000004
   12.10583401  158.32699585    2.00000000    1.98000002
   12.10916710  152.65800476    1.98000002    1.98000002
   12.11250019  137.30099487    1.96000004    1.98000002
   12.11555576  154.74899292    1.96000004    1.98000002
   12.11888885  150.57899475    1.96000004    1.98000002
   12.12111092  152.59399414    1.96000004    1.98000002
   12.12222195  149.76800537    1.96000004    2.00000000
   12.12555599  151.13099670    1.94000006    2.00000000
   12.13166714  151.13099670    1.94000006    2.00000000
   12.13583279  149.00700378    1.94000006    2.00000000
   12.13888836  152.55000305    1.94000006    2.00000000
   12.14222240  150.11099243    1.91999996    2.00000000
   12.14555550  150.21400452    1.91999996    2.00000000
   12.14861107  148.93400574    1.91999996    2.00000000
   12.15194416  156.19099426    1.91999996    2.00000000
   12.15444374  155.10899353    1.91999996    2.00000000
   12.15555477  158.84199524    1.89999998    2.00000000
   12.15888882  146.83000183    1.89999998    2.01999998
   12.16222191  149.13000488    1.89999998    2.01999998
   12.16527748  151.44500732    1.89999998    2.01999998
   12.16861153  155.19400024    1.88000000    2.01999998
   12.17444515  155.19400024    1.86000001    2.03999996
   12.17861176  137.65699768    1.86000001    2.03999996
   12.18194485  154.85699463    1.85000002    2.03999996
   12.18500042  154.53799438    1.85000002    2.03999996
   12.18777752  153.72799683    1.85000002    2.03999996
   12.18861103  144.30299377    1.85000002    2.03999996
   12.19194412  147.82600403    1.83000004    2.03999996
   12.19527817  155.70500183    1.85000002    2.03999996
   12.19833374  159.76199341    1.83000004    2.03999996
   12.20166683  140.73500061    1.83000004    2.05999994
   12.20499992  139.84300232    1.80999994    2.05999994
   12.20805550  161.91900635    1.80999994    2.05999994
   12.21138859  149.69299316    1.83000004    2.03999996
   12.21722221  149.69299316    1.80999994    2.05999994
   12.22138882  148.96499634    1.78999996    2.05999994
   12.22472191  149.56500244    1.78999996    2.05999994
   12.22805500  141.82299805    1.78999996    2.05999994
   12.23111057  153.48699951    1.78999996    2.05999994
   12.23444462  154.05499268    1.78999996    2.05999994
   12.23750019  151.79200745    1.76999998    2.05999994
   12.24083328  156.76600647    1.76999998    2.07999992
   12.24416733  147.89999390    1.76999998    2.07999992
   12.24722290  143.78599548    1.76999998    2.07999992
   12.25055599  159.36999512    1.75000000    2.07999992
   12.25388908  166.17500305    1.75000000    2.07999992
   12.25444412  168.80999756    1.75000000    2.07999992
   12.26027775  168.80999756    1.75000000    2.07999992
   12.26444435  153.38099670    1.75000000    2.07999992
   12.26749992  147.14399719    1.73000002    2.07999992
   12.27083302  144.97700500    1.73000002    2.07999992
   12.27388859  148.04499817    1.71000004    2.07999992
   12.27722168  147.53399658    1.71000004    2.07999992
   12.28055573  153.26499939    1.71000004    2.07999992
   12.28361130  152.68099976    1.71000004    2.07999992
   12.28694534  141.10099792    1.71000004    2.09999990
   12.28777790  151.15100098    1.71000004    2.09999990
   12.29055595  157.11000061    1.71000004    2.09999990
   12.29361153  167.22000122    1.69000006    2.09999990
   12.29694462  142.39799500    1.69000006    2.09999990
   12.30305576  142.39799500    1.66999996    2.09999990
   12.30722237  144.43800354    1.66999996    2.11999989
   12.31027794  146.04600525    1.66999996    2.11999989
   12.31361103  164.45500183    1.66999996    2.11999989
   12.31694412  160.90600586    1.66999996    2.11999989
   12.31999969  159.47000122    1.64999998    2.11999989
   12.32111073  148.79100037    1.64999998    2.11999989
   12.32388878  151.46000671    1.64999998    2.13000011
   12.32694435  145.43099976    1.64999998    2.13000011
   12.33027744  139.93099976    1.64999998    2.13000011
   12.33333302  138.58200073    1.64999998    2.13000011
   12.33666611  144.36700439    1.63000000    2.11999989
   12.34000015  143.02499390    1.63000000    2.11999989
   12.34583282  143.02499390    1.61000001    2.11999989
   12.35000038  160.01199341    1.61000001    2.13000011
   12.35333347  151.57299805    1.61000001    2.13000011
   12.35444450  145.23300171    1.61000001    2.13000011
   12.35694504  152.41700745    1.61000001    2.13000011
   12.36000061  150.14700317    1.60000002    2.13000011
   12.36333370  142.63299561    1.58000004    2.13000011
   12.36638927  158.06799316    1.58000004    2.13000011
   12.36972237  151.67900085    1.55999994    2.15000010
   12.37305546  154.54800415    1.55999994    2.15000010
   12.37611103  145.58299255    1.55999994    2.15000010
   12.37944412  136.52600098    1.55999994    2.15000010
   12.38277817  155.94900513    1.53999996    2.15000010
   12.38888836  155.94900513    1.53999996    2.15000010
   12.39277744  146.98800659    1.51999998    2.15000010
   12.39611053  145.87300110    1.51999998    2.17000008
   12.39944458  157.85400391    1.51999998    2.17000008
   12.40249920  145.93099976    1.51999998    2.17000008
   12.40583324  148.94299316    1.51999998    2.15000010
   12.40916634  143.42399597    1.50000000    2.15000010
   12.41222191  144.09599304    1.50000000    2.17000008
   12.41555500  139.57200623    1.50000000    2.17000008
   12.41861153  144.13200378    1.50000000    2.17000008
   12.42111111  139.21600342    1.50000000    2.17000008
   12.42250061  144.99299622    1.50000000    2.17000008
   12.42555618  149.38900757    1.50000000    2.17000008
   12.43166733  149.38900757    1.50000000    2.17000008
   12.43583298  148.73899841    1.48000002    2.17000008
   12.43888855  141.76699829    1.48000002    2.17000008
   12.44222260  143.08200073    1.48000002    2.17000008
   12.44527817  144.53500366    1.48000002    2.17000008
   12.44861126  139.50300598    1.46000004    2.19000006
   12.45194435  144.93200684    1.46000004    2.19000006
   12.45444393  149.66999817    1.46000004    2.19000006
   12.45555496  149.08000183    1.46000004    2.19000006
   12.45888901  147.58599854    1.44000006    2.21000004
   12.46194458  140.95300293    1.44000006    2.19000006
   12.46527767  135.56300354    1.44000006    2.19000006
   12.46861076  140.67900085    1.44000006    2.21000004
   12.47444439  140.67900085    1.44000006    2.21000004
   12.47861099  141.11799622    1.44000006    2.19000006
   12.48194408  145.75100708    1.44000006    2.21000004
   12.48527813  146.03900146    1.44000006    2.21000004
   12.48777771  142.56199646    1.44000006    2.21000004
   12.48888874  142.49800110    1.44000006    2.21000004
   12.49194431  142.10499573    1.44000006    2.21000004
   12.49527836  152.49600220    1.44000006    2.21000004
   12.49833393  142.04499817    1.44000006    2.21000004
   12.50166702  149.24000549    1.44000006    2.21000004
   12.50500011  143.84800720    1.44000006    2.21000004
   12.50805569  138.68800354    1.44000006    2.21000004
   12.51138878  154.66299438    1.41999996    2.21000004
   12.51722240  154.66299438    1.44000006    2.23000002
   12.52138901  145.37300110    1.44000006    2.23000002
   12.52472210  140.72799683    1.44000006    2.23000002
   12.52777767  139.77299500    1.44000006    2.23000002
   12.53111076  144.48800659    1.46000004    2.23000002
   12.53444481  139.43899536    1.44000006    2.23000002
   12.53750038  140.76899719    1.44000006    2.23000002
   12.54083347  140.58399963    1.44000006    2.23000002
   12.54416752  142.40800476    1.44000006    2.23000002
   12.54722309  141.76300049    1.44000006    2.23000002
   12.55055618  137.92900085    1.44000006    2.23000002
   12.55361176  140.60000610    1.44000006    2.23000002
   12.55444431  133.17500305    1.44000006    2.23000002
   12.56027794  133.17500305    1.41999996    2.23000002
   12.56416702  137.06799316    1.41999996    2.25000000
   12.56750011  126.56199646    1.39999998    2.25000000
   12.57083321  141.77499390    1.39999998    2.23000002
   12.57388878  139.10499573    1.39999998    2.23000002
   12.57722187  137.90299988    1.39999998    2.25000000
   12.58027744  132.48399353    1.39999998    2.25000000
   12.58361053  148.83200073    1.38000000    2.25000000
   12.58694458  140.47599792    1.38000000    2.25000000
   12.58777714  139.35099792    1.38000000    2.25000000
   12.59055519  138.98699951    1.38000000    2.25000000
   12.59361076  138.96600342    1.36000001    2.25000000
   12.59694386  136.60800171    1.36000001    2.25000000
   12.60305595  136.60800171    1.34000003    2.26999998
   12.60722256  131.55400085    1.34000003    2.26999998
   12.61027813  132.75999451    1.33000004    2.26999998
   12.61361122  134.62800598    1.33000004    2.26999998
   12.61666679  134.19700623    1.30999994    2.26999998
   12.61999989  136.54200745    1.30999994    2.26999998
   12.62111092  137.73899841    1.33000004    2.26999998
   12.62361145  138.39999390    1.33000004    2.26999998
   12.62666702  136.93699646    1.30999994    2.26999998
   12.63000011  138.99800110    1.30999994    2.26999998
   12.63333321  124.96099854    1.30999994    2.26999998
   12.63638878  129.52499390    1.30999994    2.28999996
   12.63972187  130.41999817    1.30999994    2.28999996
   12.64583302  130.41999817    1.28999996    2.26999998
   12.64999962  130.72599792    1.26999998    2.26999998
   12.65305519  129.64900208    1.28999996    2.28999996
   12.65444374  127.88099670    1.28999996    2.28999996
   12.65694427  133.16400146    1.28999996    2.26999998
   12.65999985  131.55000305    1.26999998    2.26999998
   12.66333294  136.21800232    1.26999998    2.26999998
   12.66666698  131.99400330    1.26999998    2.28999996
   12.66972256  131.77299500    1.28999996    2.28999996
   12.67305565  129.66299438    1.28999996    2.28999996
   12.67611122  134.67799377    1.28999996    2.28999996
   12.67944431  127.36799622    1.30999994    2.28999996
   12.68277836  130.86099243    1.30999994    2.28999996
   12.68861103  130.86099243    1.28999996    2.28999996
   12.69277763  140.46899414    1.28999996    2.28999996
   12.69611073  126.11699677    1.28999996    2.28999996
   12.69916630  136.83500671    1.28999996    2.28999996
   12.70249939  130.87300110    1.28999996    2.28999996
   12.70583344  135.33500671    1.28999996    2.28999996
   12.70888901  126.68900299    1.30999994    2.28999996
   12.71222210  142.78399658    1.30999994    2.28999996
   12.71527767  137.52299500    1.28999996    2.30999994
   12.71861076  139.26300049    1.30999994    2.30999994
   12.72111034  130.01100159    1.30999994    2.30999994
   12.72222137  126.47799683    1.28999996    2.30999994
   12.72527695  126.71600342    1.28999996    2.30999994
   12.73166656  126.71600342    1.28999996    2.30999994
   12.73555565  127.95700073    1.28999996    2.30999994
   12.73888874  126.81700134    1.28999996    2.32999992
   12.74222279  130.42999268    1.28999996    2.30999994
   12.74527836  129.40899658    1.28999996    2.30999994
   12.74861145  139.76600647    1.26999998    2.30999994
   12.75166702  121.85800171    1.28999996    2.30999994
   12.75444412  123.44000244    1.26999998    2.30999994
   12.75555515  135.81500244    1.26999998    2.30999994
   12.75861073  121.59700012    1.26999998    2.30999994
   12.76194477  129.61300659    1.26999998    2.30999994
   12.76527786  126.34899902    1.26999998    2.30999994
   12.76833344  125.08200073    1.26999998    2.30999994
   12.77444458  125.08200073    1.26999998    2.32999992
   12.77861118  122.05699921    1.26999998    2.32999992
   12.78166676  133.92199707    1.25000000    2.32999992
   12.78500080  135.28300476    1.25000000    2.32999992
   12.78777790  124.68499756    1.26999998    2.32999992
   12.78861141  129.90699768    1.26999998    2.32999992
   12.79166698  131.44700623    1.25000000    2.32999992
   12.79500008  132.28700256    1.25000000    2.32999992
   12.79833412  128.94200134    1.25000000    2.32999992
   12.80138874  135.06100464    1.26999998    2.32999992
   12.80472279  135.71299744    1.26999998    2.32999992
   12.80805588  129.75999451    1.26999998    2.32999992
   12.81111145  132.58200073    1.28999996    2.32999992
   12.81722260  132.58200073    1.28999996    2.34999990
   12.82138920  133.36799622    1.28999996    2.32999992
   12.82444477  130.42100525    1.28999996    2.32999992
   12.82777786  121.74900055    1.33000004    2.32999992
   12.83111095  127.02700043    1.26999998    2.34999990
   12.83416653  125.68699646    1.33000004    2.32999992
   12.83749962  126.22599792    1.33000004    2.32999992
   12.84083271  136.80200195    1.34000003    2.34999990
   12.84388828  120.40000153    1.34000003    2.34999990
   12.84722233  130.01300049    1.36000001    2.34999990
   12.85055637  133.01600647    1.33000004    2.34999990
   12.85361195  129.85499573    1.36000001    2.34999990
   12.85444450  125.91200256    1.36000001    2.34999990
   12.87527752  125.91200256    1.23000002    2.34999990
   12.87916660  126.62100220    1.26999998    2.34999990
   12.88249969  123.91100311    1.28999996    2.34999990
   12.88583279  133.68800354    1.30999994    2.36999989
   12.88777733  129.24800110    1.30999994    2.36999989
   12.88944435  133.53999329    1.30999994    2.34999990
   12.89277744  127.75800323    1.28999996    2.36999989
   12.89583302  127.25399780    1.28999996    2.36999989
   12.89916611  124.91400146    1.23000002    2.36999989
   12.90249920  124.29799652    1.23000002    2.36999989
   12.90555477  126.68699646    1.23000002    2.36999989
   12.90888882  125.35099792    1.19000006    2.34999990
   12.91194439  129.06500244    1.21000004    2.36999989
   12.91777802  129.06500244    1.23000002    2.36999989
   12.92194462  130.77099609    1.25000000    2.36999989
   12.92527771  130.09800720    1.19000006    2.39000010
   12.92861176  131.93200684    1.19000006    2.36999989
   12.93166733  136.86700439    1.13000000    2.36999989
   12.93500042  136.80599976    1.13000000    2.36999989
   12.93805599  132.80900574    1.13000000    2.36999989
   12.94138908  138.05999756    1.14999998    2.36999989
   12.94472218  119.94599915    1.13000000    2.39000010
   12.94777775  128.17900085    1.14999998    2.36999989
   12.95111084  131.14100647    1.14999998    2.36999989
   12.95444393  135.94099426    1.13000000    2.39000010
   12.95472240  136.49299622    1.13000000    2.39000010
   12.96083355  136.49299622    1.13000000    2.39000010
   12.96500015  131.78100586    1.13000000    2.39000010
   12.96805477  120.18699646    1.19000006    2.39000010
   12.97138882  125.04599762    1.16999996    2.39000010
   12.97444439  124.16600037    1.16999996    2.39000010
   12.97777748  124.12899780    1.14999998    2.39000010
   12.98111057  132.12899780    1.13000000    2.39000010
   12.98416710  124.10299683    1.13000000    2.39000010
   12.98750019  133.33200073    1.14999998    2.39000010
   12.98833370  129.74400330    1.14999998    2.39000010
   12.99111176  125.26200104    1.11000001    2.39000010
   12.99444485  134.01499939    1.09000003    2.39000010
   12.99750042  124.49299622    1.07000005    2.39000010
   13.00361156  124.49299622    1.05999994    2.40000010
   13.00777817  121.99900055    1.05999994    2.39000010
   13.01083374  124.62899780    1.03999996    2.39000010
   13.01416683  120.14800262    1.05999994    2.42000008
   13.01749992  134.78399658    1.07000005    2.40000010
   13.02055550  120.91300201    1.05999994    2.40000010
   13.02166653  130.68699646    1.05999994    2.40000010
   13.02416611  130.73399353    1.03999996    2.40000010
   13.02750015  128.87300110    1.03999996    2.40000010
   13.03055573  125.84300232    1.03999996    2.40000010
   13.03388977  129.44799805    1.03999996    2.40000010
   13.03722286  134.36799622    1.03999996    2.40000010
   13.04027843  132.11199951    1.03999996    2.40000010
   13.04638958  132.11199951    1.03999996    2.42000008
   13.05055618  132.86700439    1.03999996    2.42000008
   13.05388927  131.12199402    1.03999996    2.40000010
   13.05500031  132.13200378    1.03999996    2.40000010
   13.05749989  131.78900146    1.03999996    2.40000010
   13.06083393  128.80900574    1.03999996    2.40000010
   13.06388950  133.55099487    1.01999998    2.40000010
   13.06722260  132.77699280    1.01999998    2.40000010
   13.07055569  127.33899689    1.05999994    2.42000008
   13.07361126  125.11499786    1.05999994    2.42000008
   13.07694435  131.81700134    1.03999996    2.42000008
   13.08027744  129.88400269    1.03999996    2.42000008
   13.08333302  134.79600525    1.05999994    2.42000008
   13.08916664  134.79600525    1.05999994    2.42000008
   13.09333324  134.36099243    1.05999994    2.40000010
   13.09666634  133.98899841    1.05999994    2.40000010
   13.10000038  133.94599915    1.05999994    2.42000008
   13.10305595  131.05099487    1.05999994    2.42000008
   13.10638905  131.30200195    1.05999994    2.42000008
   13.10944462  134.80499268    1.03999996    2.42000008
   13.11277771  133.16299438    1.03999996    2.42000008
   13.11611176  127.88600159    1.03999996    2.42000008
   13.11916637  138.14199829    1.01999998    2.42000008
   13.12166691  132.99200439    1.01999998    2.42000008
   13.12277794  136.88499451    1.01999998    2.42000008
   13.12611103  128.49600220    1.00000000    2.42000008
   13.13222218  128.49600220    1.00000000    2.42000008
   13.13638878  132.02900696    1.01999998    2.42000008
   13.13944435  143.91400146    1.00000000    2.42000008
   13.14277744  123.41600037    1.01999998    2.42000008
   13.14583302  128.20500183    1.01999998    2.42000008
   13.14916611  129.72700500    1.01999998    2.42000008
   13.15249920  117.14700317    1.01999998    2.42000008
   13.15499973  124.91200256    1.01999998    2.42000008
   13.15611076  132.78599548    1.01999998    2.42000008
   13.15944386  124.05400085    1.01999998    2.42000008
   13.16249943  140.14799500    1.01999998    2.42000008
   13.16583252  135.05599976    1.00000000    2.44000006
   13.16916656  123.63500214    1.00000000    2.44000006
   13.17500019  123.63500214    1.00000000    2.44000006
   13.17916679  139.74000549    0.98000002    2.42000008
   13.18222237  134.50700378    0.98000002    2.42000008
   13.18555546  132.30700684    0.98000002    2.42000008
   13.18833351  128.67599487    0.98000002    2.44000006
   13.18916702  138.65699768    0.98000002    2.44000006
   13.19250011  130.29899597    0.98000002    2.44000006
   13.19583321  127.68299866    0.98000002    2.44000006
   13.19888878  138.37399292    0.98000002    2.44000006
   13.20222187  142.91200256    0.98000002    2.44000006
   13.20555496  133.24499512    0.98000002    2.44000006
   13.20861053  130.33399963    0.95999998    2.44000006
   13.21194458  127.53900146    0.95999998    2.44000006
   13.21777725  127.53900146    0.98000002    2.46000004
   13.22194386  133.61000061    0.98000002    2.46000004
   13.22527695  130.91200256    0.98000002    2.44000006
   13.22833252  122.45800018    0.95999998    2.44000006
   13.23166656  141.25100708    0.95999998    2.44000006
   13.23472214  132.01199341    0.95999998    2.46000004
   13.23805618  126.89499664    0.95999998    2.44000006
   13.24138927  127.63400269    0.95999998    2.44000006
   13.24444485  126.15100098    0.95999998    2.46000004
   13.24777794  127.49099731    0.95999998    2.46000004
   13.25111103  133.05400085    0.94000000    2.46000004
   13.25416660  137.86599731    0.94000000    2.46000004
   13.25500011  131.74600220    0.94000000    2.46000004
   13.26055527  131.74600220    0.94000000    2.46000004
   13.26472187  127.41200256    0.94000000    2.46000004
   13.26805496  132.92199707    0.94000000    2.46000004
   13.27111053  120.10800171    0.92000002    2.46000004
   13.27444458  135.77299500    0.92000002    2.46000004
   13.27777767  126.70899963    0.92000002    2.46000004
   13.28083324  127.16600037    0.92000002    2.46000004
   13.28416729  123.64700317    0.92000002    2.46000004
   13.28750038  120.94499969    0.92000002    2.46000004
   13.28833389  130.39799500    0.92000002    2.46000004
   13.29083347  123.25599670    0.92000002    2.46000004
   13.29416752  123.37699890    0.92000002    2.46000004
   13.29750061  119.68399811    0.92000002    2.46000004
   13.30361176  119.68399811    0.89999998    2.46000004
   13.30777836  117.94100189    0.89999998    2.46000004
   13.31111145  114.73699951    0.89999998    2.46000004
   13.31416702  123.10700226    0.92000002    2.46000004
   13.31750011  120.87300110    0.92000002    2.46000004
   13.32083321  114.03199768    0.89999998    2.46000004
   13.32166672  120.60399628    0.89999998    2.46000004
   13.32416630  128.77799988    0.89999998    2.46000004
   13.32750034  123.17700195    0.89999998    2.46000004
   13.33083344  120.11499786    0.89999998    2.48000002
   13.33388901  117.90599823    0.89999998    2.46000004
   13.33722210  121.66500092    0.89999998    2.46000004
   13.34027767  131.41299438    0.89999998    2.46000004
   13.34638882  131.41299438    0.89999998    2.48000002
   13.35055637  125.59899902    0.89999998    2.46000004
   13.35361195  122.79599762    0.89999998    2.48000002
   13.35500050  129.64300537    0.89999998    2.48000002
   13.35722256  109.37200165    0.89999998    2.48000002
   13.36055565  122.89700317    0.89999998    2.48000002
   13.36388969  116.98999786    0.89999998    2.46000004
   13.36694431  118.89499664    0.89999998    2.48000002
   13.37027836  122.46600342    0.89999998    2.48000002
   13.37333393  127.81500244    0.89999998    2.48000002
   13.37666702  117.96299744    0.92000002    2.48000002
   13.38000011  118.62200165    0.92000002    2.48000002
   13.38305569  118.46900177    0.92000002    2.48000002
   13.38916683  118.46900177    0.92000002    2.48000002
   13.39333344  120.87500000    0.92000002    2.48000002
   13.39666653  119.73300171    0.92000002    2.48000002
   13.39972210  125.71700287    0.89999998    2.48000002
   13.40305519  114.87200165    0.89999998    2.48000002
   13.40611076  122.67700195    0.89999998    2.48000002
   13.40944386  123.40299988    0.89999998    2.48000002
   13.41277695  109.77200317    0.89999998    2.48000002
   13.41583252  123.13700104    0.89999998    2.48000002
   13.41916656  122.83399963    0.89999998    2.48000002
   13.42166710  121.70099640    0.89999998    2.48000002
   13.42277813  126.21099854    0.89999998    2.48000002
   13.42611122  121.07299805    0.89999998    2.48000002
   13.43194485  121.07299805    0.89999998    2.48000002
   13.43611145  123.41200256    0.89999998    2.48000002
   13.43944454  117.30599976    0.89999998    2.48000002
   13.44250011  121.50599670    0.89999998    2.48000002
   13.44583321  120.48699951    0.88000000    2.50000000
   13.44916630  119.77999878    0.89999998    2.48000002
   13.45222187  126.97299957    0.89999998    2.48000002
   13.45499992  121.13800049    0.89999998    2.48000002
   13.45583344  127.80200195    0.89999998    2.48000002
   13.45916653  124.83499908    0.88000000    2.48000002
   13.46249962  120.55100250    0.88000000    2.50000000
   13.46555519  116.22399902    0.88000000    2.50000000
   13.46888828  122.19699860    0.88000000    2.50000000
   13.47499943  122.19699860    0.88000000    2.48000002
   13.47888851  123.59200287    0.88000000    2.50000000
   13.48222160  121.23600006    0.88000000    2.50000000
   13.48555565  127.15299988    0.88000000    2.50000000
   13.48833370  120.40699768    0.89999998    2.50000000
   13.48888874  120.93900299    0.89999998    2.50000000
   13.49222279  123.30899811    0.89999998    2.50000000
   13.49555588  117.60900116    0.89999998    2.50000000
   13.49861145  118.53700256    0.89999998    2.50000000
   13.50194454  124.91500092    0.89999998    2.50000000
   13.50527763  120.27899933    0.88000000    2.50000000
   13.50833321  120.41100311    0.88000000    2.50000000
   13.51166630  116.55000305    0.88000000    2.51999998
   13.51777744  116.55000305    0.86000001    2.51999998
   13.52194405  122.14900208    0.86000001    2.51999998
   13.52499962  111.88500214    0.86000001    2.50000000
   13.52833271  124.44300079    0.86000001    2.50000000
   13.53166676  127.43699646    0.86000001    2.50000000
   13.53472233  128.00999451    0.86000001    2.50000000
   13.53805637  129.45100403    0.86000001    2.50000000
   13.54111195  123.33799744    0.83999997    2.50000000
   13.54444504  123.75800323    0.86000001    2.50000000
   13.54777813  126.24800110    0.83999997    2.50000000
   13.55083370  122.16799927    0.83999997    2.50000000
   13.55416679  122.98600006    0.83999997    2.51999998
   13.55500031  118.06800079    0.83999997    2.51999998
   13.56055546  118.06800079    0.83999997    2.51999998
   13.56472206  121.30400085    0.88000000    2.50000000
   13.56805515  124.42099762    0.89999998    2.50000000
   13.57111073  115.64900208    0.83999997    2.50000000
   13.57444477  126.15699768    0.86000001    2.51999998
   13.57777786  121.96900177    0.86000001    2.51999998
   13.58083344  114.19200134    0.83999997    2.51999998
   13.58416653  122.11199951    0.83999997    2.51999998
   13.58749962  116.14800262    0.83999997    2.51999998
   13.58833313  111.30300140    0.83999997    2.51999998
   13.59083271  120.71900177    0.83999997    2.51999998
   13.59416676  119.53299713    0.83999997    2.51999998
   13.59749985  117.07599640    0.83999997    2.51999998
   13.60333347  117.07599640    0.83999997    2.51999998
   13.60750008  122.07199860    0.83999997    2.51999998
   13.61083412  120.82299805    0.81999999    2.51999998
   13.61388969  115.53399658    0.81999999    2.51999998
   13.61722279  124.67900085    0.83999997    2.51999998
   13.62055588  121.95600128    0.83999997    2.51999998
   13.62166691  117.87799835    0.83999997    2.51999998
   13.62388897  126.46299744    0.83999997    2.51999998
   13.62722206  123.00599670    0.83999997    2.51999998
   13.63055611  118.91500092    0.83999997    2.51999998
   13.63361073  121.17700195    0.83999997    2.51999998
   13.63694477  123.45899963    0.81999999    2.51999998
   13.64027786  127.91200256    0.83999997    2.51999998
   13.64638901  127.91200256    0.81999999    2.51999998
   13.65027714  124.47599792    0.81999999    2.51999998
   13.65361118  118.25800323    0.80000001    2.53999996
   13.65499973  116.58899689    0.80000001    2.51999998
   13.65722179  123.77100372    0.80000001    2.51999998
   13.66055489  116.91799927    0.80000001    2.53999996
   13.66388893  124.77799988    0.80000001    2.51999998
   13.66694450  123.06900024    0.80000001    2.51999998
   13.67027855  126.81300354    0.80000001    2.51999998
   13.67361164  123.66699982    0.79000002    2.51999998
   13.67666721  117.91100311    0.80000001    2.51999998
   13.68000031  120.19999695    0.79000002    2.53999996
   13.68305588  121.88200378    0.79000002    2.51999998
   13.68916702  121.88200378    0.76999998    2.53999996
   13.69333363  121.30500031    0.79000002    2.53999996
   13.69638920  110.98699951    0.76999998    2.53999996
   13.69972229  115.57599640    0.79000002    2.53999996
   13.70305538  125.60099792    0.76999998    2.53999996
   13.70638847  126.11299896    0.76999998    2.53999996
   13.70944405  111.76399994    0.76999998    2.53999996
   13.71277714  116.73600006    0.75000000    2.53999996
   13.71611118  117.28600311    0.75000000    2.53999996
   13.71916580  117.80699921    0.75000000    2.51999998
   13.72166634  111.27899933    0.75000000    2.51999998
   13.72277737  120.94499969    0.75000000    2.51999998
   13.72611046  121.69400024    0.75000000    2.53999996
   13.73194408  121.69400024    0.73000002    2.53999996
   13.73611164  122.81999969    0.75000000    2.53999996
   13.73944473  117.91000366    0.75000000    2.53999996
   13.74250031  117.68299866    0.75000000    2.53999996
   13.74583340  121.41799927    0.76999998    2.53999996
   13.74888897  108.17500305    0.76999998    2.53999996
   13.75222206  118.21099854    0.76999998    2.53999996
   13.75500011  120.05599976    0.76999998    2.53999996
   13.75611115  120.76799774    0.76999998    2.53999996
   13.75916672  123.20800018    0.76999998    2.53999996
   13.76249981  131.62600708    0.76999998    2.53999996
   13.76555538  116.75399780    0.76999998    2.53999996
   13.76888847  125.08100128    0.75000000    2.53999996
   13.77472210  125.08100128    0.75000000    2.53999996
   13.77888870  117.12500000    0.75000000    2.53999996
   13.78222179  124.46600342    0.75000000    2.55999994
   13.78527832  135.58399963    0.75000000    2.55999994
   13.78833389  119.81099701    0.75000000    2.53999996
   13.78916740  122.59600067    0.75000000    2.53999996
   13.79222298  110.59899902    0.75000000    2.53999996
   13.79555607  116.94699860    0.75000000    2.53999996
   13.79861164  127.88099670    0.75000000    2.53999996
   13.80194473  117.92199707    0.75000000    2.55999994
   13.80527782  113.98000336    0.73000002    2.55999994
   13.80833340  127.50299835    0.73000002    2.53999996
   13.81166649  121.19899750    0.73000002    2.53999996
   13.81777763  121.19899750    0.70999998    2.55999994
   13.82166672  118.91400146    0.73000002    2.53999996
   13.82499981  120.61000061    0.70999998    2.55999994
   13.82833290  119.81500244    0.70999998    2.55999994
   13.83138847  120.38500214    0.70999998    2.55999994
   13.83472157  118.30599976    0.70999998    2.55999994
   13.83805561  124.17600250    0.70999998    2.55999994
   13.84111118  122.55000305    0.70999998    2.55999994
   13.84444427  122.82199860    0.70999998    2.55999994
   13.84749985  118.25199890    0.70999998    2.55999994
   13.85083389  113.16400146    0.70999998    2.55999994
   13.85416698  118.36199951    0.70999998    2.53999996
   13.85500050  116.93800354    0.70999998    2.53999996
   13.86055565  116.93800354    0.70999998    2.55999994
   13.86472225  119.93099976    0.70999998    2.55999994
   13.86777782  117.12999725    0.70999998    2.55999994
   13.87111092  116.44899750    0.73000002    2.55999994
   13.88861084  121.67199707    0.73000002    2.55999994
   13.89111137  121.70500183    0.73000002    2.55999994
   13.89416695  130.76899719    0.73000002    2.55999994
   13.89750004  119.03500366    0.73000002    2.55999994
   13.90361118  119.03500366    0.73000002    2.55999994
   13.90777779  122.64600372    0.73000002    2.55999994
   13.91083336  124.39499664    0.70999998    2.55999994
   13.91416645  122.07900238    0.70999998    2.55999994
   13.91722298  120.66899872    0.70999998    2.55999994
   13.92055607  121.13400269    0.70999998    2.55999994
   13.92194462  126.63600159    0.70999998    2.57999992
   13.92444515  123.34999847    0.70999998    2.57999992
   13.92750072  123.10199738    0.70999998    2.55999994
   13.93083382  119.08499908    0.70999998    2.57999992
   13.93416691  121.01200104    0.73000002    2.55999994
   13.93722248  126.84300232    0.73000002    2.55999994
   13.94055557  119.49900055    0.73000002    2.55999994
   13.94638920  119.49900055    0.73000002    2.55999994
   13.95055580  124.90599823    0.70999998    2.53999996
   13.95361137  120.67500305    0.70999998    2.55999994
   13.95527744  122.96800232    0.70999998    2.55999994
   13.95722198  119.30799866    0.70999998    2.55999994
   13.96055508  124.19100189    0.70999998    2.55999994
   13.96388912  122.29299927    0.70999998    2.55999994
   13.96694374  120.60700226    0.69000000    2.57999992
   13.97027779  120.43800354    0.69000000    2.57999992
   13.97361088  115.99400330    0.69000000    2.55999994
   13.97666645  121.97599792    0.69000000    2.55999994
   13.97999954  121.10399628    0.67000002    2.55999994
   13.98305511  126.74400330    0.69000000    2.57999992
   13.98916721  126.74400330    0.67000002    2.57999992
   13.99333382  120.55699921    0.67000002    2.57999992
   13.99666691  120.21900177    0.67000002    2.55999994
   13.99972248  118.94200134    0.67000002    2.55999994
   14.00305557  118.10299683    0.69000000    2.57999992
   14.00638866  129.53399658    0.70999998    2.57999992
   14.00944424  121.94400024    0.69000000    2.57999992
   14.01277733  122.31400299    0.69000000    2.57999992
   14.01583290  111.58200073    0.69000000    2.57999992
   14.01916599  116.09500122    0.69000000    2.57999992
   14.02194405  122.81600189    0.69000000    2.57999992
   14.02277756  122.75299835    0.69000000    2.57999992
   14.02611065  118.40100098    0.69000000    2.57999992
   14.03194427  118.40100098    0.69000000    2.57999992
   14.03611183  120.62300110    0.70999998    2.57999992
   14.03944492  121.33100128    0.70999998    2.57999992
   14.04277802  129.49600220    0.70999998    2.57999992
   14.04583359  125.68699646    0.70999998    2.59999990
   14.04916668  124.48999786    0.73000002    2.57999992
   14.05222225  126.73000336    0.73000002    2.57999992
   14.05527782  130.14300537    0.73000002    2.57999992
   14.05583382  125.71800232    0.75000000    2.57999992
   14.05916691  125.92700195    0.75000000    2.57999992
   14.06250000  116.88800049    0.76999998    2.57999992
   14.06555557  126.05699921    0.79000002    2.57999992
   14.06888866  124.31900024    0.79000002    2.57999992
   14.07499981  124.31900024    0.79000002    2.59999990
   14.07888889  122.50299835    0.79000002    2.57999992
   14.08222198  130.19799805    0.80000001    2.57999992
   14.08555508  120.23600006    0.81999999    2.57999992
   14.08861065  127.65299988    0.81999999    2.57999992
   14.08888817  134.13800049    0.81999999    2.57999992
   14.09222221  127.16100311    0.83999997    2.57999992
   14.09555531  130.10200500    0.83999997    2.57999992
   14.09888840  134.09899902    0.80000001    2.57999992
   14.10194492  127.69699860    0.80000001    2.57999992
   14.10527802  119.84200287    0.80000001    2.57999992
   14.10833359  126.69300079    0.80000001    2.57999992
   14.11166668  125.43000031    0.81999999    2.59999990
   14.11777782  125.43000031    0.83999997    2.59999990
   14.12194443  133.73800659    0.83999997    2.57999992
   14.12500000  122.60099792    0.83999997    2.57999992
   14.12833309  131.29200745    0.81999999    2.57999992
   14.13166714  129.18899536    0.81999999    2.57999992
   14.13472176  133.98899841    0.81999999    2.57999992
   14.13805580  117.57399750    0.83999997    2.59999990
   14.14138889  129.75799561    0.83999997    2.59999990
   14.14444447  138.58599854    0.81999999    2.59999990
   14.14777756  121.91200256    0.81999999    2.59999990
   14.15083313  126.50199890    0.81999999    2.59999990
   14.15416622  128.49699402    0.80000001    2.59999990
   14.15527725  119.79499817    0.80000001    2.59999990
   14.16055489  119.79499817    0.80000001    2.57999992
   14.16472149  126.59100342    0.79000002    2.59999990
   14.16805553  120.33799744    0.79000002    2.59999990
   14.17111111  126.30000305    0.76999998    2.59999990
   14.17444515  128.42599487    0.76999998    2.57999992
   14.17777824  135.46899414    0.76999998    2.59999990
   14.18083382  129.65699768    0.76999998    2.59999990
   14.18416691  122.05200195    0.76999998    2.59999990
   14.18722248  131.16600037    0.75000000    2.59999990
   14.18861103  124.63400269    0.75000000    2.59999990
   14.19083309  127.62400055    0.75000000    2.59999990
   14.19416714  128.48899841    0.75000000    2.59999990
   14.19750023  122.50599670    0.75000000    2.59999990
   14.20333290  122.50599670    0.75000000    2.59999990
   14.20749950  121.16200256    0.73000002    2.59999990
   14.21083355  128.19500732    0.70999998    2.59999990
   14.21388912  134.24000549    0.69000000    2.59999990
   14.21722221  124.30100250    0.69000000    2.59999990
   14.22055531  120.73999786    0.69000000    2.61999989
   14.22194386  122.69100189    0.69000000    2.61999989
   14.22416592  128.97300720    0.69000000    2.59999990
   14.22722149  130.55099487    0.70999998    2.59999990
   14.23055553  133.58999634    0.69000000    2.59999990
   14.23361111  128.19799805    0.69000000    2.59999990
   14.23694515  129.94700623    0.70999998    2.59999990
   14.24027824  124.14700317    0.69000000    2.57999992
   14.24638939  124.14700317    0.67000002    2.59999990
   14.25055599  130.55299377    0.67000002    2.59999990
   14.25361156  124.87899780    0.67000002    2.59999990
   14.25527763  125.21600342    0.69000000    2.59999990
   14.25749969  134.67399597    0.69000000    2.59999990
   14.26055527  129.11999512    0.67000002    2.59999990
   14.26388931  136.40199280    0.67000002    2.59999990
   14.26694393  115.54399872    0.67000002    2.59999990
   14.27027798  128.44000244    0.67000002    2.59999990
   14.27361107  123.02300262    0.67000002    2.59999990
   14.27666664  133.87899780    0.69000000    2.59999990
   14.27999973  124.41600037    0.69000000    2.59999990
   14.28333378  133.49499512    0.69000000    2.59999990
   14.28916740  133.49499512    0.69000000    2.59999990
   14.29333401  124.94100189    0.69000000    2.61999989
   14.29638958  127.42900085    0.69000000    2.61999989
   14.29972267  120.81600189    0.67000002    2.59999990
   14.30305576  151.18899536    0.69000000    2.59999990
   14.30611134  158.87899780    0.69000000    2.59999990
   14.30944443  154.24800110    0.69000000    2.59999990
   14.31250000  154.82499695    0.67000002    2.61999989
   14.31583309  145.28700256    0.67000002    2.59999990
   14.31916618  137.46699524    0.67000002    2.59999990
   14.32194424  142.98399353    0.67000002    2.61999989
   14.32277775  138.58000183    0.67000002    2.61999989
   14.32583332  144.64300537    0.64999998    2.61999989
   14.33194447  144.64300537    0.64999998    2.61999989
   14.33611107  146.66299438    0.64999998    2.61999989
   14.33944416  168.00000000    0.63000000    2.61999989
   14.34249973  138.20199585    0.63000000    2.61999989
   14.34583282  167.21600342    0.63000000    2.61999989
   14.34888840  164.23500061    0.63000000    2.61999989
   14.35222244  166.84800720    0.61000001    2.61999989
   14.35527802  160.57200623    0.61000001    2.61999989
   14.35611153  173.99600220    0.61000001    2.61999989
   14.35916710  155.56799316    0.61000001    2.61999989
   14.36250019  164.90199280    0.61000001    2.61999989
   14.36555576  172.58500671    0.58999997    2.61999989
   14.36888885  169.45100403    0.58999997    2.61999989
   14.37472248  169.45100403    0.58999997    2.61999989
   14.37888908  196.03300476    0.58999997    2.61999989
   14.38222218  175.78399658    0.56999999    2.61999989
   14.38527775  208.22799683    0.56999999    2.61999989
   14.38861084  206.30400085    0.56999999    2.64000010
   14.38916683  209.54100037    0.56999999    2.64000010
   14.39222240  233.71099854    0.56999999    2.61999989
   14.39555550  228.40899658    0.56999999    2.61999989
   14.39861107  229.56199646    0.56999999    2.61999989
   14.40194416  215.77200317    0.56999999    2.61999989
   14.40527725  207.87699890    0.58999997    2.61999989
   14.40833282  231.33000183    0.56999999    2.61999989
   14.41166592  239.24699402    0.56999999    2.61999989
   14.41777802  239.24699402    0.56999999    2.61999989
   14.42166710  215.37399292    0.56999999    2.61999989
   14.42222214  214.84899902    0.56999999    2.61999989
   14.42555618  231.39100647    0.58999997    2.61999989
   14.42888927  221.65400696    0.58999997    2.61999989
   14.43222237  231.39300537    0.56999999    2.64000010
   14.43527794  229.12600708    0.56999999    2.61999989
   14.43861103  217.91900635    0.58999997    2.61999989
   14.44166660  230.94900513    0.58999997    2.61999989
   14.44499969  215.52200317    0.58999997    2.61999989
   14.44833374  225.72200012    0.58999997    2.61999989
   14.45138836  230.47399902    0.58999997    2.61999989
   14.45472240  222.12399292    0.58999997    2.61999989
   14.45555496  220.80200195    0.58999997    2.61999989
   14.46055508  220.80200195    0.58999997    2.61999989
   14.46472168  228.29200745    0.58999997    2.64000010
   14.46777725  215.76499939    0.58999997    2.61999989
   14.47111034  205.95199585    0.58999997    2.61999989
   14.47444439  221.57699585    0.58999997    2.61999989
   14.47749996  192.38499451    0.58999997    2.61999989
   14.48083305  197.19599915    0.58999997    2.61999989
   14.48388958  205.66799927    0.61000001    2.61999989
   14.48722267  219.90199280    0.58999997    2.64000010
   14.48888874  224.28199768    0.58999997    2.64000010
   14.49083328  220.12600708    0.58999997    2.64000010
   14.49416733  227.16099548    0.58999997    2.64000010
   14.49722290  234.80599976    0.58999997    2.64000010
   14.50333309  234.80599976    0.61000001    2.61999989
   14.50749969  222.12800598    0.58999997    2.61999989
   14.51083374  229.00799561    0.58999997    2.61999989
   14.51388931  247.88699341    0.61000001    2.61999989
   14.51722240  208.80200195    0.61000001    2.61999989
   14.52027798  229.53799438    0.58999997    2.64000010
   14.52222157  243.02099609    0.58999997    2.64000010
   14.52416611  216.94599915    0.58999997    2.64000010
   14.52750015  209.78999329    0.58999997    2.64000010
   14.53055573  220.68899536    0.58999997    2.64000010
   14.53388977  240.92300415    0.58999997    2.64000010
   14.53722286  223.81199646    0.58999997    2.64000010
   14.54027843  222.36399841    0.58999997    2.64000010
   14.54611111  222.36399841    0.58999997    2.61999989
   14.55027771  211.47599792    0.58999997    2.64000010
   14.55361176  205.01800537    0.58999997    2.61999989
   14.55555534  223.46200562    0.58999997    2.61999989
   14.55722237  204.34199524    0.58999997    2.64000010
   14.56055546  211.39700317    0.58999997    2.64000010
   14.56361103  213.61700439    0.58999997    2.61999989
   14.56694412  211.15699768    0.58999997    2.64000010
   14.57027817  198.75199890    0.58999997    2.64000010
   14.57333374  210.39799500    0.58999997    2.64000010
   14.57666683  201.68299866    0.61000001    2.64000010
   14.57972240  208.58000183    0.61000001    2.64000010
   14.58305550  223.73300171    0.61000001    2.64000010
   14.58916664  223.73300171    0.58999997    2.64000010
   14.59333324  199.39700317    0.58999997    2.64000010
   14.59638882  204.19900513    0.58999997    2.64000010
   14.59972191  195.52200317    0.58999997    2.64000010
   14.60277843  201.00700378    0.58999997    2.64000010
   14.60611153  197.10499573    0.58999997    2.64000010
   14.60944462  209.97300720    0.58999997    2.64000010
   14.61250019  203.88000488    0.58999997    2.64000010
   14.61583328  185.00300598    0.58999997    2.64000010
   14.61916637  208.92100525    0.58999997    2.61999989
   14.62222195  200.32699585    0.58999997    2.64000010
   14.62277794  209.23300171    0.58999997    2.64000010
   14.62611103  187.86599731    0.58999997    2.64000010
   14.63194466  187.86599731    0.58999997    2.64000010
   14.63611126  185.26699829    0.58999997    2.64000010
   14.63916683  194.83200073    0.56999999    2.64000010
   14.64249992  184.28999329    0.56999999    2.64000010
   14.64583302  195.19999695    0.56999999    2.64000010
   14.64888859  193.07899475    0.56999999    2.61999989
   14.65222168  197.06900024    0.56999999    2.61999989
   14.65527725  185.20300293    0.58999997    2.64000010
   14.65611076  187.71299744    0.58999997    2.64000010
   14.65916634  205.63900757    0.56999999    2.64000010
   14.66249943  195.43600464    0.58999997    2.64000010
   14.66555500  191.92399597    0.58999997    2.64000010
   14.66888905  196.88200378    0.56999999    2.64000010
   14.67472267  196.88200378    0.56999999    2.61999989
   14.67888927  205.56599426    0.56999999    2.64000010
   14.68222237  180.92900085    0.56999999    2.64000010
   14.68527794  187.18600464    0.56999999    2.64000010
   14.68861103  175.09399414    0.56999999    2.64000010
   14.68944454  169.48800659    0.56999999    2.64000010
   14.69222260  172.26600647    0.56999999    2.64000010
   14.69527817  162.64700317    0.56999999    2.64000010
   14.69861126  177.10800171    0.55000001    2.64000010
   14.70194435  172.19799805    0.55000001    2.64000010
   14.70499992  179.10299683    0.56999999    2.64000010
   14.70833302  178.75000000    0.55000001    2.61999989
   14.71166611  171.01699829    0.55000001    2.66000009
   14.71749973  171.01699829    0.56999999    2.64000010
   14.72166634  182.10600281    0.56999999    2.61999989
   14.72277737  176.54899597    0.56999999    2.61999989
   14.72527695  163.57000732    0.56999999    2.61999989
   14.72833252  178.60600281    0.56999999    2.64000010
   14.73166656  174.12699890    0.56999999    2.64000010
   14.73500061  172.40199280    0.56999999    2.64000010
   14.73805618  161.30900574    0.58999997    2.61999989
   14.74138927  154.19599915    0.56999999    2.64000010
   14.74472237  173.89799500    0.56999999    2.64000010
   14.74777794  166.20300293    0.56999999    2.64000010
   14.75111103  173.34100342    0.56999999    2.64000010
   14.75416660  168.58500671    0.56999999    2.66000009
   14.75611115  169.52200317    0.56999999    2.66000009
   14.76055527  169.52200317    0.56999999    2.64000010
   14.76444435  162.43400574    0.56999999    2.64000010
   14.76777744  162.31799316    0.55000001    2.64000010
   14.77111053  155.48800659    0.56999999    2.64000010
   14.77416611  163.67999268    0.56999999    2.64000010
   14.77750015  154.88900757    0.55000001    2.64000010
   14.78083324  173.05499268    0.52999997    2.64000010
   14.78388977  152.86500549    0.55000001    2.66000009
   14.78722286  163.96299744    0.55000001    2.64000010
   14.78944492  164.26499939    0.55000001    2.64000010
   14.79083347  164.59899902    0.55000001    2.64000010
   14.79388905  151.51899719    0.52999997    2.64000010
   14.79722309  172.64199829    0.55000001    2.64000010
   14.80333328  172.64199829    0.52999997    2.64000010
   14.80749989  168.82400513    0.52999997    2.64000010
   14.81055546  165.04200745    0.52999997    2.64000010
   14.81416702  170.70799255    0.52999997    2.64000010
   14.81722260  183.70899963    0.52999997    2.64000010
   14.82055569  151.33299255    0.51999998    2.66000009
   14.82277775  163.33299255    0.52999997    2.64000010
   14.82416630  169.78900146    0.52999997    2.66000009
   14.82722187  157.49200439    0.52999997    2.66000009
   14.83055592  161.39199829    0.52999997    2.66000009
   14.83388901  166.04699707    0.52999997    2.64000010
   14.83694458  157.61399841    0.52999997    2.64000010
   14.84027767  154.90499878    0.52999997    2.64000010
   14.84611034  154.90499878    0.52999997    2.66000009
   14.85027790  162.57600403    0.52999997    2.64000010
   14.85361195  151.58999634    0.52999997    2.64000010
   14.85611153  166.57499695    0.52999997    2.66000009
   14.85722256  162.61099243    0.52999997    2.66000009
   14.86055565  161.15699768    0.52999997    2.66000009
   14.86361122  157.77600098    0.55000001    2.66000009
   14.86694431  152.55000305    0.55000001    2.64000010
   14.86999989  154.37699890    0.52999997    2.66000009
   14.87333393  160.10499573    0.52999997    2.66000009
   14.87666702  134.47500610    0.52999997    2.66000009
   14.98305511   -1.00000000   -1.00000000   -1.00000000
   15.07972240   -1.00000000   -1.00000000   -1.00000000
   15.18111134   -1.00000000   -1.00000000   -1.00000000
   15.20472240  135.79100037    0.58999997    2.67000008
   15.20805550  135.96499634    0.58999997    2.67000008
   15.21138859  137.54400635    0.58999997    2.67000008
   15.21444416  137.43600464    0.56999999    2.67000008
   15.21777725  134.27699280    0.58999997    2.67000008
   15.22111034  139.54299927    0.58999997    2.66000009
   15.22499943  139.54299927    0.58999997    2.67000008
   15.22916603  139.79200745    0.58999997    2.67000008
   15.23249912  143.64199829    0.58999997    2.66000009
   15.23583317  124.51799774    0.61000001    2.67000008
   15.23777771  141.42100525    0.61000001    2.67000008
   15.23944473  137.74699402    0.61000001    2.67000008
   15.24250031  131.05599976    0.61000001    2.67000008
   15.24583340  139.52699280    0.58999997    2.67000008
   15.24916649  142.73699951    0.61000001    2.67000008
   15.25222206  143.88299561    0.56999999    2.67000008
   15.25555515  141.23899841    0.56999999    2.67000008
   15.25888920  139.46899414    0.56999999    2.66000009
   15.26194477  119.59999847    0.55000001    2.67000008
   15.26805496  119.59999847    0.52999997    2.67000008
   15.27222157  125.60900116    0.52999997    2.67000008
   15.27527714  129.55200195    0.52999997    2.67000008
   15.27861118  135.07000732    0.52999997    2.67000008
   15.28166676  134.51800537    0.52999997    2.67000008
   15.28500080  128.61999512    0.51999998    2.67000008
   15.28833389  133.91499329    0.52999997    2.67000008
   15.29138947  137.54699707    0.52999997    2.67000008
   15.29472256  136.33799744    0.55000001    2.67000008
   15.29805565  136.14799500    0.55000001    2.67000008
   15.30111122  137.88900757    0.55000001    2.67000008
   15.30444431  139.34800720    0.52999997    2.67000008
   15.30500031  139.45500183    0.52999997    2.67000008
   15.31083393  139.45500183    0.52999997    2.67000008
   15.31500053  140.04800415    0.52999997    2.67000008
   15.31805515  130.49200439    0.51999998    2.67000008
   15.32138920  133.60400391    0.52999997    2.67000008
   15.32472229  131.15199280    0.51999998    2.67000008
   15.32777786  135.01800537    0.51999998    2.67000008
   15.33111095  135.77999878    0.52999997    2.67000008
   15.33444405  124.13600159    0.52999997    2.67000008
   15.33749962  130.17900085    0.52999997    2.67000008
   15.33833313  132.28900146    0.52999997    2.67000008
   15.34138870  138.89100647    0.55000001    2.67000008
   15.34444427  130.51300049    0.55000001    2.67000008
   15.34777737  117.87799835    0.55000001    2.67000008
   15.35361195  117.87799835    0.52999997    2.67000008
   15.35777855  123.85600281    0.55000001    2.67000008
   15.36111164  130.96200562    0.55000001    2.66000009
   15.36416721  129.79499817    0.55000001    2.66000009
   15.36750031  124.16400146    0.55000001    2.67000008
   15.37055588  132.07800293    0.55000001    2.67000008
   15.37166691  133.63299561    0.55000001    2.67000008
   15.37416649  131.07699585    0.52999997    2.67000008
   15.37750053  128.05900574    0.55000001    2.67000008
   15.38083363  125.96399689    0.52999997    2.67000008
   15.38388920  136.91299438    0.52999997    2.67000008
   15.38722229  133.75300598    0.52999997    2.67000008
   15.39027786  129.49200439    0.55000001    2.67000008
   15.39638901  129.49200439    0.51999998    2.67000008
   15.40055561  132.51499939    0.50000000    2.69000006
   15.40388870  134.61599731    0.50000000    2.66000009
   15.40499973  133.50599670    0.50000000    2.66000009
   15.40777779  133.43099976    0.50000000    2.69000006
   15.41083336  141.16900635    0.50000000    2.69000006
   15.41416645  129.23599243    0.50000000    2.67000008
   15.41722298  135.52600098    0.50000000    2.69000006
   15.42055607  125.34799957    0.50000000    2.67000008
   15.42388916  134.39100647    0.50000000    2.67000008
   15.42694473  127.66100311    0.50000000    2.67000008
   15.43027782  124.83399963    0.50000000    2.67000008
   15.43361092  121.05000305    0.50000000    2.67000008
   15.43944454  121.05000305    0.51999998    2.69000006
   15.44361115  133.83999634    0.51999998    2.67000008
   15.44666672  130.20899963    0.51999998    2.67000008
   15.44999981  128.07499695    0.51999998    2.69000006
   15.45305538  132.26800537    0.51999998    2.67000008
   15.45638847  134.88600159    0.52999997    2.67000008
   15.45972157  135.27799988    0.52999997    2.67000008
   15.46277714  132.78999329    0.51999998    2.67000008
   15.46611118  132.31300354    0.51999998    2.67000008
   15.46944427  132.75799561    0.52999997    2.67000008
   15.47166634  134.32899475    0.52999997    2.69000006
   15.47277737  131.63600159    0.52999997    2.69000006
   15.47611046  131.95300293    0.55000001    2.67000008
   15.48222160  131.95300293    0.52999997    2.67000008
   15.48638916  141.41700745    0.52999997    2.67000008
   15.48944473  134.49499512    0.52999997    2.67000008
   15.49277782  131.31500244    0.51999998    2.69000006
   15.49611092  128.59700012    0.51999998    2.67000008
   15.49916649  132.13600159    0.51999998    2.67000008
   15.50249958  131.64199829    0.52999997    2.67000008
   15.50500011  131.17300415    0.52999997    2.67000008
   15.50611115  135.54499817    0.51999998    2.67000008
   15.50944424  133.18600464    0.51999998    2.67000008
   15.51277733  141.46099854    0.50000000    2.67000008
   15.51583290  123.51699829    0.50000000    2.67000008
   15.51916599  121.67199707    0.51999998    2.67000008
   15.52499962  121.67199707    0.52999997    2.69000006
   15.52916622  137.73300171    0.51999998    2.67000008
   15.53249931  130.96000671    0.51999998    2.67000008
   15.53555584  129.52499390    0.52999997    2.67000008
   15.53833389  133.05900574    0.51999998    2.67000008
   15.53916740  128.80299377    0.51999998    2.67000008
   15.54250050  136.28100586    0.52999997    2.67000008
   15.54583359  132.48399353    0.51999998    2.67000008
   15.54888916  138.82499695    0.51999998    2.69000006
   15.55222225  132.46400452    0.51999998    2.69000006
   15.55555534  127.67500305    0.51999998    2.67000008
   15.55861092  125.06300354    0.50000000    2.67000008
   15.56194496  137.02600098    0.51999998    2.69000006
   15.56777763  137.02600098    0.51999998    2.69000006
   15.57194424  135.10800171    0.51999998    2.67000008
   15.57527733  132.98599243    0.51999998    2.67000008
   15.57833290  138.18699646    0.51999998    2.67000008
   15.58166695  132.28300476    0.51999998    2.67000008
   15.58500004  140.95899963    0.52999997    2.69000006
   15.58805561  134.48699951    0.51999998    2.67000008
   15.59138870  135.27699280    0.51999998    2.67000008
   15.59472179  120.03600311    0.51999998    2.67000008
   15.59777737  136.42799377    0.50000000    2.67000008
   15.60111141  127.54599762    0.51999998    2.67000008
   15.60416698  144.06100464    0.50000000    2.67000008
   15.60500050  130.72200012    0.50000000    2.67000008
   15.61083412  130.72200012    0.50000000    2.67000008
   15.61472225  131.00900269    0.50000000    2.67000008
   15.61805534  134.63900757    0.51999998    2.67000008
   15.62138939  118.28099823    0.51999998    2.69000006
   15.62444496  132.69799805    0.51999998    2.69000006
   15.62777805  128.49400330    0.50000000    2.69000006
   15.63111115  134.00599670    0.50000000    2.69000006
   15.63416672  128.26699829    0.50000000    2.67000008
   15.63749981  136.54200745    0.51999998    2.69000006
   15.63833332  136.47700500    0.51999998    2.69000006
   15.64111137  127.89499664    0.50000000    2.67000008
   15.64444447  129.08799744    0.50000000    2.67000008
   15.64777756  126.08799744    0.50000000    2.69000006
   15.65361118  126.08799744    0.50000000    2.69000006
   15.65777779  124.51599884    0.50000000    2.69000006
   15.66083336  129.61399841    0.50000000    2.69000006
   15.66416645  128.16900635    0.47999999    2.67000008
   15.66750050  129.90400696    0.47999999    2.67000008
   15.67055607  128.88400269    0.47999999    2.67000008
   15.67166710  128.26499939    0.47999999    2.67000008
   15.67416668  118.70899963    0.46000001    2.69000006
   15.67750072  122.03500366    0.46000001    2.67000008
   15.68083382  130.42700195    0.46000001    2.67000008
   15.68388939  123.51599884    0.46000001    2.69000006
   15.68722248  132.49400330    0.46000001    2.69000006
   15.69055557  131.80999756    0.46000001    2.69000006
   15.69638920  131.80999756    0.46000001    2.69000006
   15.70055580  124.76300049    0.46000001    2.69000006
   15.70388889  141.32400513    0.46000001    2.69000006
   15.70499992  127.26100159    0.47999999    2.69000006
   15.70749950  125.50000000    0.47999999    2.69000006
   15.71055508  130.98899841    0.47999999    2.69000006
   15.71388912  132.12699890    0.47999999    2.69000006
   15.71694374  131.72500610    0.47999999    2.67000008
   15.72027779  124.00700378    0.47999999    2.69000006
   15.72361088  124.85900116    0.47999999    2.69000006
   15.72666645  121.05999756    0.50000000    2.69000006
   15.72999954  130.17599487    0.50000000    2.67000008
   15.73333359  135.15899658    0.50000000    2.67000008
   15.73916721  135.15899658    0.47999999    2.69000006
   15.74333382  125.80100250    0.47999999    2.67000008
   15.74666691  121.85800171    0.47999999    2.69000006
   15.74972248  129.80900574    0.47999999    2.69000006
   15.75305557  124.73000336    0.47999999    2.67000008
   15.75638866  130.27400208    0.47999999    2.67000008
   15.75944424  125.45899963    0.47999999    2.69000006
   15.76277733  129.95899963    0.47999999    2.69000006
   15.76611137  125.61100006    0.47999999    2.69000006
   15.76916599  131.68299866    0.47999999    2.69000006
   15.77166653  122.85600281    0.47999999    2.69000006
   15.77305508  132.08299255    0.47999999    2.69000006
   15.77611065  123.57299805    0.50000000    2.69000006
   15.78222179  123.57299805    0.47999999    2.69000006
   15.78611183  136.50700378    0.47999999    2.67000008
   15.78944492  123.09999847    0.47999999    2.69000006
   15.79277802  121.69599915    0.46000001    2.69000006
   15.79583359  132.49699402    0.47999999    2.67000008
   15.79916668  130.49400330    0.46000001    2.69000006
   15.80249977  123.04000092    0.46000001    2.69000006
   15.80500031  122.73300171    0.46000001    2.69000006
   15.80611134  124.67199707    0.46000001    2.69000006
   15.80916691  129.00700378    0.46000001    2.67000008
   15.81250000  129.38600159    0.46000001    2.67000008
   15.81555557  127.60600281    0.46000001    2.67000008
   15.81888866  124.89700317    0.46000001    2.69000006
   15.82499981  124.89700317    0.47999999    2.69000006
   15.82916641  124.83499908    0.47999999    2.69000006
   15.83222198  130.43800354    0.47999999    2.69000006
   15.83555508  120.99299622    0.47999999    2.69000006
   15.83833313  128.01499939    0.47999999    2.69000006
   15.83944416  137.09599304    0.47999999    2.69000006
   15.84249973  123.20999908    0.47999999    2.67000008
   15.84583282  138.28500366    0.47999999    2.69000006
   15.84916592  123.97299957    0.47999999    2.69000006
   15.85222244  127.01799774    0.50000000    2.69000006
   15.85555553  131.63999939    0.50000000    2.69000006
   15.85861111  138.13999939    0.50000000    2.67000008
   15.86194515  129.65800476    0.50000000    2.69000006
   15.86805534  129.65800476    0.50000000    2.69000006
   15.87222195  125.46700287    0.50000000    2.69000006
   15.87527752  117.33699799    0.51999998    2.69000006
   15.87861156  114.36699677    0.51999998    2.69000006
   15.88194466  114.44300079    0.50000000    2.69000006
   15.88500023  118.89800262    0.47999999    2.69000006
   15.88833332  131.93099976    0.47999999    2.69000006
   15.89138889  119.67099762    0.47999999    2.69000006
   15.89472198  127.92900085    0.47999999    2.69000006
   15.89805508  130.01899719    0.46000001    2.69000006
   15.90111065  123.28299713    0.47999999    2.69000006
   15.90444374  131.48599243    0.46000001    2.67000008
   15.90499973  124.18399811    0.46000001    2.67000008
   15.91055489  124.18399811    0.46000001    2.69000006
   15.91472149  119.04399872    0.46000001    2.69000006
   15.91805553  123.98899841    0.46000001    2.69000006
   15.92111111  125.12300110    0.46000001    2.67000008
   15.92472267  141.19900513    0.46000001    2.69000006
   15.92777824  129.18899536    0.46000001    2.69000006
   15.93111134  132.22099304    0.44000000    2.69000006
   15.93416691  136.76199341    0.44000000    2.69000006
   15.93750000  130.32800293    0.44000000    2.69000006
   15.93833351  126.69599915    0.44000000    2.69000006
   15.94111156  119.94799805    0.44000000    2.69000006
   15.94416714  123.38899994    0.44000000    2.69000006
   15.94750023  127.67500305    0.44000000    2.69000006
   15.95361137  127.67500305    0.44000000    2.69000006
   15.95749950  109.17199707    0.44000000    2.67000008
   15.96083355  118.69499969    0.44000000    2.71000004
   15.96416664  136.01899719    0.44000000    2.69000006
   15.96722221  135.45500183    0.46000001    2.67000008
   15.97055531  126.55100250    0.46000001    2.69000006
   15.97166634  128.13800049    0.46000001    2.69000006
   15.97444439  130.25000000    0.46000001    2.69000006
   15.97749996  129.95799255    0.46000001    2.69000006
   15.98083305  124.69400024    0.46000001    2.69000006
   15.98388958  135.47000122    0.46000001    2.69000006
   15.98722267  136.54100037    0.46000001    2.67000008
   15.99055576  124.75099945    0.46000001    2.69000006
   15.99638939  124.75099945    0.46000001    2.71000004
   16.00055504  121.51100159    0.46000001    2.67000008
   16.00361061  140.40299988    0.46000001    2.69000006
   16.00499916  127.94200134    0.46000001    2.69000006
   16.00749969  119.82099915    0.46000001    2.69000006
   16.01055527  128.81199646    0.46000001    2.71000004
   16.01388931  129.29899597    0.47999999    2.69000006
   16.01722145  130.63000488    0.46000001    2.69000006
   16.02027702  126.24800110    0.46000001    2.69000006
   16.02361107  130.44999695    0.46000001    2.69000006
   16.02666664  125.99600220    0.46000001    2.71000004
   16.03000069  132.78100586    0.46000001    2.69000006
   16.03333282  135.87600708    0.46000001    2.69000006
   16.03916550  135.87600708    0.46000001    2.69000006
   16.04333305  132.14500427    0.46000001    2.71000004
   16.04638863  124.42199707    0.44000000    2.69000006
   16.04972076  132.01199341    0.44000000    2.69000006
   16.05305481  128.82000732    0.47999999    2.69000006
   16.05611038  146.38999939    0.47999999    2.69000006
   16.05944443  131.29200745    0.46000001    2.69000006
   16.06277657  131.09899902    0.44000000    2.69000006
   16.06583214  128.67999268    0.44000000    2.69000006
   16.06916809  124.32499695    0.44000000    2.69000006
   16.07166672  131.90800476    0.44000000    2.71000004
   16.07277870  141.87699890    0.44000000    2.71000004
   16.07583427  137.32699585    0.44000000    2.69000006
   16.08194542  137.32699585    0.44000000    2.69000006
   16.08611107  140.19400024    0.44000000    2.71000004
   16.08944511  128.69099426    0.44000000    2.69000006
   16.09250069  137.75000000    0.44000000    2.69000006
   16.09583473  145.71499634    0.44000000    2.71000004
   16.09916687  137.48500061    0.44000000    2.71000004
   16.10222244  142.16999817    0.44000000    2.69000006
   16.10499954  151.19999695    0.44000000    2.69000006
   16.10611153  136.52499390    0.44000000    2.69000006
   16.10916710  154.08399963    0.44000000    2.69000006
   16.11250114  141.33299255    0.41999999    2.71000004
   16.11583328  135.94999695    0.41999999    2.71000004
   16.11888885  148.17199707    0.41999999    2.69000006
   16.12500000  148.17199707    0.41999999    2.69000006
   16.12888908  149.52999878    0.41999999    2.71000004
   16.13222313  145.37199402    0.41999999    2.71000004
   16.13555527  139.23300171    0.41999999    2.71000004
   16.13833237  155.70700073    0.41999999    2.69000006
   16.13916588  144.16799927    0.41999999    2.69000006
   16.14222145  147.86399841    0.41999999    2.69000006
   16.14555550  147.96299744    0.41999999    2.69000006
   16.14888954  147.83000183    0.41999999    2.71000004
   16.15194321  141.31100464    0.41999999    2.71000004
   16.15527725  160.39500427    0.41999999    2.67000008
   16.15861130  125.93099976    0.41999999    2.71000004
   16.16166687  153.73500061    0.41999999    2.69000006
   16.16777802  153.73500061    0.41999999    2.69000006
   16.17194366  143.47000122    0.41999999    2.69000006
   16.17499924  138.75599670    0.41999999    2.69000006
   16.17833328  141.23500061    0.44000000    2.69000006
   16.18166542  144.54299927    0.41999999    2.69000006
   16.18472099  142.81799316    0.41999999    2.69000006
   16.18805504  141.62399292    0.41999999    2.69000006
   16.19111061  144.15800476    0.41999999    2.71000004
   16.19444275  153.20799255    0.41999999    2.69000006
   16.19777679  148.84899902    0.41999999    2.69000006
   16.20083427  141.05599976    0.41999999    2.69000006
   16.20416832  141.32299805    0.41999999    2.69000006
   16.20499992  139.95700073    0.41999999    2.71000004
   16.22583389  139.95700073    0.40000001    2.69000006
   16.23000145  140.28599548    0.41999999    2.69000006
   16.23333359  146.16600037    0.41999999    2.69000006
   16.23638916  153.37399292    0.41999999    2.69000006
   16.23833275  156.30799866    0.41999999    2.69000006
   16.24027824  148.38400269    0.41999999    2.69000006
   16.24333382  140.72399902    0.41999999    2.69000006
   16.24666786  146.03999329    0.41999999    2.69000006
   16.25000000  142.57499695    0.41999999    2.69000006
   16.25305557  141.59899902    0.41999999    2.69000006
   16.25638962  145.65199280    0.41999999    2.69000006
   16.25972176  139.86599731    0.41999999    2.69000006
   16.26277733  140.36700439    0.41999999    2.71000004
   16.26861000  140.36700439    0.41999999    2.71000004
   16.27277756  147.13900757    0.41999999    2.69000006
   16.27583313  145.96400452    0.41999999    2.69000006
   16.27916718  141.70500183    0.41999999    2.69000006
   16.28222275  145.95500183    0.41999999    2.69000006
   16.28555489  138.27299500    0.41999999    2.69000006
   16.28888893  145.70300293    0.41999999    2.71000004
   16.29194450  134.02499390    0.41999999    2.71000004
   16.29527664  143.41299438    0.41999999    2.69000006
   16.29861069  152.03199768    0.41999999    2.69000006
   16.30166626  141.59899902    0.41999999    2.71000004
   16.30499840  144.74800110    0.41999999    2.71000004
   16.30555534  138.16999817    0.41999999    2.69000006
   16.31138802  138.16999817    0.41999999    2.69000006
   16.31555557  136.49499512    0.40000001    2.71000004
   16.31861115  136.61300659    0.40000001    2.69000006
   16.32194519  133.16299438    0.40000001    2.69000006
   16.32527924  138.50300598    0.40000001    2.69000006
   16.32833481  140.38600159    0.40000001    2.69000006
   16.33166695  137.99299622    0.40000001    2.71000004
   16.33472252  137.69500732    0.40000001    2.71000004
   16.33805656  137.43800354    0.40000001    2.69000006
   16.33861160  138.33299255    0.40000001    2.69000006
   16.34194565  134.95500183    0.40000001    2.71000004
   16.34500122  134.87899780    0.40000001    2.69000006
   16.34833336  142.20100403    0.41999999    2.69000006
   16.35416794  142.20100403    0.40000001    2.69000006
   16.35833359  137.70399475    0.40000001    2.71000004
   16.36166763  128.48100281    0.40000001    2.71000004
   16.36472321  135.47200012    0.40000001    2.69000006
   16.36805534  146.57800293    0.40000001    2.71000004
   16.37111092  142.02699280    0.40000001    2.69000006
   16.37194443  125.65699768    0.40000001    2.69000006
   16.37500000  137.85000610    0.40000001    2.69000006
   16.37805557  135.75500488    0.41999999    2.69000006
   16.38138962  136.78799438    0.40000001    2.69000006
   16.38472176  133.95100403    0.41999999    2.71000004
   16.38777733  138.10299683    0.41999999    2.69000006
   16.39111137  135.35299683    0.41999999    2.69000006
   16.39694405  135.35299683    0.41999999    2.69000006
   16.40111160  127.92700195    0.41999999    2.71000004
   16.40444374  129.48399353    0.41999999    2.69000006
   16.40527725  127.81600189    0.41999999    2.69000006
   16.40805435  133.74200439    0.41999999    2.69000006
   16.41110992  123.18299866    0.44000000    2.69000006
   16.41444397  127.30599976    0.41999999    2.69000006
   16.41777802  131.53500366    0.41999999    2.69000006
   16.42083359  127.70899963    0.41999999    2.69000006
   16.42416573  126.95700073    0.41999999    2.69000006
   16.42722130  125.23400116    0.41999999    2.69000006
   16.43055534  129.05999756    0.41999999    2.69000006
   16.43388748  124.59300232    0.41999999    2.69000006
   16.43999863  124.59300232    0.41999999    2.69000006
   16.44388771  121.13700104    0.40000001    2.69000006
   16.44722176  132.47200012    0.40000001    2.69000006
   16.45055580  123.75700378    0.41999999    2.69000006
   16.45361137  131.83700562    0.47999999    2.69000006
   16.45694542  120.37000275    0.41999999    2.71000004
   16.46027946  128.79600525    0.40000001    2.69000006
   16.46333504  119.32800293    0.41999999    2.69000006
   16.46666718  128.66299438    0.41999999    2.69000006
   16.46972275  132.70199585    0.40000001    2.69000006
   16.47222328  132.50100708    0.41999999    2.71000004
   16.47361183  116.97000122    0.41999999    2.71000004
   16.47694588  127.87100220    0.41999999    2.69000006
   16.48277855  127.87100220    0.41999999    2.71000004
   16.48694420  121.79799652    0.40000001    2.69000006
   16.48999977  130.79299927    0.40000001    2.71000004
   16.49333382  132.40100098    0.41999999    2.71000004
   16.49666786  133.00000000    0.40000001    2.69000006
   16.49972153  126.75399780    0.40000001    2.69000006
   16.50305557  134.95700073    0.41999999    2.71000004
   16.50527763  133.61999512    0.40000001    2.71000004
   16.50666618  130.99200439    0.40000001    2.71000004
   16.50972176  127.96099854    0.40000001    2.69000006
   16.51305580  125.25900269    0.40000001    2.71000004
   16.51638794  134.49499512    0.40000001    2.71000004
   16.51944351  123.97399902    0.40000001    2.71000004
   16.52555466  123.97399902    0.40000001    2.69000006
   16.52972221  129.99800110    0.40000001    2.69000006
   16.53277779  126.98000336    0.40000001    2.69000006
   16.53610992  129.83900452    0.40000001    2.69000006
   16.53861046  127.33100128    0.40000001    2.69000006
   16.53972244  131.05999756    0.41999999    2.69000006
   16.54277802  131.01800537    0.41999999    2.71000004
   16.54611015  135.98800659    0.41999999    2.69000006
   16.54944420  129.04800415    0.41999999    2.69000006
   16.55249977  128.90299988    0.41999999    2.71000004
   16.55583191  130.72200012    0.41999999    2.69000006
   16.55916595  128.42700195    0.41999999    2.69000006
   16.56222153  130.62300110    0.41999999    2.69000006
   16.56833458  130.62300110    0.41999999    2.71000004
   16.57250023  127.66999817    0.41999999    2.71000004
   16.57583427  118.89900208    0.41999999    2.71000004
   16.57888985  132.88400269    0.40000001    2.69000006
   16.58222389  123.77600098    0.41999999    2.71000004
   16.58555603  128.96400452    0.40000001    2.71000004
   16.58861160  131.19500732    0.40000001    2.71000004
   16.59194565  128.30400085    0.40000001    2.71000004
   16.59500122  116.18399811    0.40000001    2.71000004
   16.59833336  122.26799774    0.40000001    2.69000006
   16.60166740  125.97799683    0.40000001    2.71000004
   16.60472298  128.72900391    0.40000001    2.71000004
   16.60527802  129.83900452    0.40000001    2.69000006
   16.61138916  129.83900452    0.40000001    2.69000006
   16.61527824  122.23300171    0.40000001    2.69000006
   16.61861038  127.34400177    0.40000001    2.69000006
   16.62194443  125.19999695    0.40000001    2.69000006
   16.62500000  125.29699707    0.40000001    2.69000006
   16.62833405  120.65000153    0.40000001    2.69000006
   16.63138962  116.25199890    0.40000001    2.69000006
   16.63472176  120.93499756    0.40000001    2.69000006
   16.63805580  125.26599884    0.40000001    2.69000006
   16.63861084  119.40200043    0.40000001    2.69000006
   16.64166641  136.84500122    0.40000001    2.69000006
   16.64500046  131.06399536    0.40000001    2.69000006
   16.64805603  126.07700348    0.40000001    2.69000006
   16.65416718  126.07700348    0.40000001    2.71000004
   16.65833282  122.95300293    0.40000001    2.69000006
   16.66138840  147.89199829    0.40000001    2.69000006
   16.66472244  149.35499573    0.41999999    2.71000004
   16.66805458  145.85499573    0.41999999    2.71000004
   16.67111015  133.99200439    0.41999999    2.69000006
   16.67194366  170.48100281    0.41999999    2.69000006
   16.67472076  159.04100037    0.40000001    2.71000004
   16.67805481  158.24800110    0.40000001    2.69000006
   16.68111038  131.44599915    0.40000001    2.69000006
   16.68444443  153.22200012    0.41999999    2.69000006
   16.68777657  134.87399292    0.41999999    2.71000004
   16.69083214  123.16799927    0.41999999    2.69000006
   16.69694328  123.16799927    0.41999999    2.69000006
   16.70111275  116.53900146    0.41999999    2.69000006
   16.70416832  156.50799561    0.41999999    2.69000006
   16.70527840  141.89399719    0.41999999    2.69000006
   16.70777893  150.31199646    0.41999999    2.69000006
   16.71111107  146.82899475    0.40000001    2.69000006
   16.71416664  130.04800415    0.41999999    2.69000006
   16.71750069  125.44300079    0.40000001    2.71000004
   16.72083473  127.90499878    0.40000001    2.71000004
   16.72389030  127.72799683    0.40000001    2.71000004
   16.72722244  130.79600525    0.40000001    2.69000006
   16.73027802  126.12100220    0.40000001    2.69000006
   16.73361206  123.45500183    0.41999999    2.69000006
   16.73972321  123.45500183    0.40000001    2.69000006
   16.74388885  129.46099854    0.40000001    2.69000006
   16.74722290  124.26599884    0.40000001    2.69000006
   16.75027847  126.69400024    0.40000001    2.69000006
   16.75361061  131.39500427    0.41999999    2.69000006
   16.75694466  128.75000000    0.41999999    2.71000004
   16.76000023  127.54699707    0.41999999    2.69000006
   16.76333427  126.97699738    0.41999999    2.69000006
   16.76638794  125.47299957    0.41999999    2.69000006
   16.76972198  125.94100189    0.44000000    2.69000006
   16.77222252  130.14900208    0.44000000    2.71000004
   16.77333260  124.59600067    0.44000000    2.71000004
   16.77666664  135.80900574    0.44000000    2.69000006
   16.78277779  135.80900574    0.44000000    2.69000006
   16.78666687  133.54600525    0.47999999    2.69000006
   16.78999901  116.63200378    0.52999997    2.69000006
   16.79333305  121.25000000    0.52999997    2.69000006
   16.79638863  128.36099243    0.52999997    2.69000006
   16.79972076  122.86599731    0.55000001    2.69000006
   16.80277634  125.01699829    0.50000000    2.69000006
   16.80527687  118.64499664    0.47999999    2.69000006
   16.80638885  146.59199524    0.47999999    2.69000006
   16.80972099  138.36900330    0.47999999    2.69000006
   16.81277657  123.40799713    0.47999999    2.69000006
   16.81611061  130.46600342    0.47999999    2.69000006
   16.81944466  119.64700317    0.51999998    2.69000006
   16.82555580  119.64700317    0.70999998    2.69000006
   16.82972336  121.84200287    0.76999998    2.69000006
   16.83277893  126.98600006    0.76999998    2.69000006
   16.83611107  131.60699463    0.88000000    2.69000006
   16.83861160  136.14399719    1.00000000    2.69000006
   16.83972359  132.87600708    1.00000000    2.69000006
   16.84305573  125.72599792    1.07000005    2.69000006
   16.84611130  121.71199799    1.13000000    2.69000006
   16.84944534  128.01400757    1.33000004    2.69000006
   16.85277748  117.55599976    1.33000004    2.69000006
   16.85583305  117.51599884    1.30999994    2.69000006
   16.85916710  123.66999817    1.21000004    2.69000006
   16.86222267  122.81199646    1.28999996    2.69000006
   16.86833382  122.81199646    1.66999996    2.71000004
   16.87249947  133.66200256    1.66999996    2.69000006
   16.87555504  134.55299377    1.58000004    2.69000006
   16.87888908  128.98899841    1.48000002    2.71000004
   16.88222313  131.96499634    1.03999996    2.71000004
   16.88527679  136.58999634    0.76999998    2.69000006
   16.88861084  134.24099731    0.69000000    2.69000006
   16.89194489  137.37300110    0.69000000    2.69000006
   16.89500046  132.92999268    0.67000002    2.71000004
   16.89833260  133.34500122    0.61000001    2.69000006
   16.90138817  138.62699890    0.55000001    2.69000006
   16.90472221  139.02900696    0.52999997    2.69000006
   16.90555573  139.83900452    0.52999997    2.69000006
   16.91110992  139.83900452    0.55000001    2.69000006
   16.91555595  132.33399963    0.55000001    2.69000006
   16.91860962  135.95399475    0.55000001    2.69000006
   16.92194366  121.83200073    0.55000001    2.69000006
   16.92527771  124.30799866    0.50000000    2.69000006
   16.92833328  130.80400085    0.50000000    2.69000006
   16.93166542  128.94799805    0.50000000    2.69000006
   16.93499947  140.91000366    0.50000000    2.71000004
   16.93833160  118.02799988    0.50000000    2.69000006
   16.93888855  113.14199829    0.50000000    2.69000006
   16.94166565  131.30700684    0.50000000    2.69000006
   16.94499969  138.09500122    0.50000000    2.69000006
   16.94805527  128.08799744    0.51999998    2.69000006
   16.95388985  128.08799744    0.52999997    2.69000006
   16.95805550  128.36199951    0.52999997    2.69000006
   16.96138954  136.19599915    0.51999998    2.69000006
   16.96472359  133.78100586    0.50000000    2.69000006
   16.96777916  138.78100586    0.50000000    2.69000006
   16.97111130  135.02900696    0.50000000    2.69000006
   16.97222328  130.00599670    0.50000000    2.69000006
   16.97472191  129.66600037    0.50000000    2.69000006
   16.97805595  128.57299805    0.50000000    2.69000006
   16.98111153  131.38800049    0.50000000    2.69000006
   16.98444557  128.84300232    0.50000000    2.69000006
   16.98777771  136.72200012    0.50000000    2.69000006
   16.99083328  130.52099609    0.51999998    2.69000006
   16.99694443  130.52099609    0.63000000    2.69000006
   17.00111198  133.48800659    0.64999998    2.69000006
   17.00416756  129.95300293    0.64999998    2.69000006
   17.00555611  122.10600281    0.64999998    2.69000006
   17.00777817  131.80299377    0.63000000    2.69000006
   17.01111031  126.27799988    0.61000001    2.69000006
   17.01444435  119.44499969    0.61000001    2.69000006
   17.01749992  133.76400757    2.13000011    2.67000008
   17.02083397  127.81199646    2.40000010    2.67000008
   17.02388954  135.30299377    4.01999998    2.61999989
   17.02722168  132.25799561    4.90999985    2.64000010
   17.03055573  132.77499390    4.46999979    2.69000006
   17.03361130  121.13300323    2.93000007    2.67000008
   17.03972244  121.13300323    1.25000000    2.69000006
   17.04388809  130.86999512    0.81999999    2.69000006
   17.04694366  127.94999695    0.76999998    2.69000006
   17.05027771  130.52000427    0.63000000    2.69000006
   17.05360985  124.19799805    0.63000000    2.69000006
   17.05666542  118.83599854    0.61000001    2.69000006
   17.05999947  128.96600342    0.61000001    2.69000006
   17.06333351  127.82900238    0.56999999    2.69000006
   17.06638718  125.71499634    0.56999999    2.69000006
   17.06972313  130.43299866    0.55000001    2.69000006
   17.07222366  121.94200134    0.55000001    2.69000006
   17.07333374  120.39800262    0.55000001    2.69000006
   17.07666779  116.79199982    0.56999999    2.69000006
   17.08250046  116.79199982    0.61000001    2.69000006
   17.08666801  122.57900238    0.61000001    2.69000006
   17.09000015  124.19899750    0.58999997    2.71000004
   17.09305573  117.32199860    0.58999997    2.69000006
   17.09638977  123.90200043    0.58999997    2.69000006
   17.09972191  122.80999756    0.58999997    2.69000006
   17.10277748  122.00599670    0.61000001    2.69000006
   17.10555649  124.60800171    0.61000001    2.69000006
   17.10639000  119.83799744    0.61000001    2.69000006
   17.10972214  129.66000366    0.56999999    2.69000006
   17.11305618  127.66400146    0.56999999    2.71000004
   17.11611176  124.91600037    0.56999999    2.69000006
   17.11944389  127.41000366    0.56999999    2.69000006
   17.12527847  127.41000366    0.56999999    2.71000004
   17.12944412  135.72500610    0.55000001    2.69000006
   17.13277817  128.43699646    0.55000001    2.69000006
   17.13611031  134.40299988    0.55000001    2.71000004
   17.13888931  123.36900330    0.56999999    2.69000006
   17.13944435  127.51499939    0.56999999    2.69000006
   17.14277840  115.61399841    0.55000001    2.71000004
   17.14611053  129.63999939    0.55000001    2.71000004
   17.14916611  123.62300110    0.55000001    2.69000006
   17.15250015  132.11099243    0.56999999    2.69000006
   17.15555573  129.96600342    0.56999999    2.69000006
   17.15888786  128.08099365    0.58999997    2.69000006
   17.16222191  123.40000153    0.61000001    2.69000006
   17.16833305  123.40000153    0.58999997    2.69000006
   17.17249870  119.78199768    0.58999997    2.69000006
   17.17555428  127.28500366    0.58999997    2.69000006
   17.17888832  126.66300201    0.61000001    2.69000006
   17.18194389  122.62100220    0.63000000    2.71000004
   17.18527603  130.60000610    0.63000000    2.69000006
   17.18861008  119.11499786    0.63000000    2.69000006
   17.19166565  119.38999939    0.63000000    2.69000006
   17.19499969  119.23899841    0.63000000    2.69000006
   17.19833183  115.77200317    0.61000001    2.69000006
   17.20138931  121.68900299    0.61000001    2.69000006
   17.20472336  129.19000244    0.61000001    2.69000006
   17.20555687  120.10199738    0.61000001    2.69000006
   17.21111107  120.10199738    0.58999997    2.69000006
   17.21527863  116.00499725    0.58999997    2.69000006
   17.21833420  109.50299835    0.56999999    2.69000006
   17.22166634  118.63400269    0.56999999    2.69000006
   17.23944473  124.06700134    0.55000001    2.69000006
   17.24166679  131.98699951    0.55000001    2.69000006
   17.24500084  131.99899292    0.55000001    2.69000006
   17.24805641  134.42599487    0.56999999    2.69000006
   17.25416756  134.42599487    0.56999999    2.69000006
   17.25833321  127.09999847    0.56999999    2.69000006
   17.26138878  139.68600464    0.56999999    2.69000006
   17.26472282  130.44700623    0.56999999    2.69000006
   17.26805496  121.16899872    0.56999999    2.69000006
   17.27111053  121.24600220    0.56999999    2.69000006
   17.27249908  130.82699585    0.56999999    2.69000006
   17.27499962  120.15000153    0.58999997    2.69000006
   17.27805519  129.51300049    0.58999997    2.69000006
   17.28138924  138.89599609    0.58999997    2.69000006
   17.28472137  121.47399902    0.61000001    2.69000006
   17.28777695  124.33999634    0.58999997    2.69000006
   17.29111099  125.48300171    0.58999997    2.71000004
   17.29694366  125.48300171    0.61000001    2.69000006
   17.30111122  128.41099548    0.61000001    2.69000006
   17.30444336  128.68099976    0.61000001    2.69000006
   17.30583191  124.65599823    0.61000001    2.69000006
   17.30805397  127.58300018    0.63000000    2.69000006
   17.31110954  122.49400330    0.61000001    2.69000006
   17.31444359  121.97000122    0.63000000    2.69000006
   17.31777954  122.02899933    0.63000000    2.69000006
   17.32083511  131.90400696    0.61000001    2.69000006
   17.32416725  125.63800049    0.61000001    2.69000006
   17.32750130  119.96299744    0.61000001    2.69000006
   17.33055687  119.46299744    0.58999997    2.69000006
   17.33388901  111.81800079    0.58999997    2.69000006
   17.33972359  111.81800079    0.63000000    2.69000006
   17.34388924  127.66200256    0.63000000    2.67000008
   17.34722328  122.37200165    0.64999998    2.69000006
   17.35027885  132.59500122    0.67000002    2.69000006
   17.35361099  128.40699768    0.67000002    2.69000006
   17.35694504  129.95700073    0.67000002    2.69000006
   17.36000061  128.96299744    0.69000000    2.69000006
   17.36333466  130.53999329    0.67000002    2.69000006
   17.36666679  124.16500092    0.67000002    2.69000006
   17.36972237  132.02099609    0.67000002    2.69000006
   17.37249947  125.98600006    0.64999998    2.69000006
   17.37361145  127.34799957    0.64999998    2.69000006
   17.37694550  133.07800293    0.64999998    2.69000006
   17.38277817  133.07800293    0.63000000    2.69000006
   17.38666725  121.94100189    0.63000000    2.69000006
   17.38999939  126.65799713    0.61000001    2.69000006
   17.39333344  124.88200378    0.61000001    2.69000006
   17.39638901  116.09899902    0.61000001    2.69000006
   17.39972115  120.54900360    0.61000001    2.69000006
   17.40305519  119.48999786    0.63000000    2.69000006
   17.40583229  114.08699799    0.63000000    2.69000006
   17.40666580  129.11999512    0.63000000    2.69000006
   17.40972137  132.65800476    0.63000000    2.69000006
   17.41305542  119.26200104    0.63000000    2.69000006
   17.41638756  115.46700287    0.61000001    2.69000006
   17.41944313  123.05400085    0.63000000    2.69000006
   17.42555428  123.05400085    0.64999998    2.69000006
   17.42972183  112.83499908    0.67000002    2.69000006
   17.43277740  119.76300049    0.67000002    2.69000006
   17.43610954  126.02500153    0.67000002    2.69000006
   17.43916512  121.61799622    0.69000000    2.69000006
   17.43972206  133.77400208    0.69000000    2.69000006
   17.44277763  130.79499817    0.67000002    2.69000006
   17.44610977  124.95200348    0.64999998    2.69000006
   17.44944382  125.76699829    0.64999998    2.69000006
   17.45250130  136.33000183    0.63000000    2.69000006
   17.45583344  130.22000122    0.61000001    2.69000006
   17.45916748  127.32599640    0.61000001    2.69000006
   17.46222305  122.95700073    0.58999997    2.69000006
   17.46833420  122.95700073    0.58999997    2.69000006
   17.47249985  125.87599945    0.56999999    2.67000008
   17.47305679  129.08299255    0.56999999    2.67000008
   17.47638893  130.23500061    0.56999999    2.67000008
   17.47944450  119.11399841    0.56999999    2.69000006
   17.48277855  110.73899841    0.61000001    2.69000006
   17.48583412  129.60499573    0.61000001    2.69000006
   17.48916626  138.75700378    0.61000001    2.69000006
   17.49250031  129.97799683    0.61000001    2.69000006
   17.49555588  125.76300049    0.64999998    2.71000004
   17.49888992  127.45700073    0.64999998    2.71000004
   17.50222206  117.82800293    0.67000002    2.71000004
   17.50527763  126.60700226    0.69000000    2.67000008
   17.50583267  128.92799377    0.69000000    2.69000006
   17.51111031  128.92799377    0.76999998    2.69000006
   17.51527786  127.06099701    0.83999997    2.67000008
   17.51861000  121.40000153    0.88000000    2.69000006
   17.52166557  120.82700348    0.88000000    2.69000006
   17.52499962  119.34700012    0.88000000    2.69000006
   17.52833366  124.77799988    0.83999997    2.67000008
   17.53138924  136.15800476    0.69000000    2.69000006
   17.53472137  127.82399750    0.67000002    2.69000006
   17.53805542  130.67900085    0.67000002    2.69000006
   17.53916550  127.34999847    0.67000002    2.69000006
   17.54166603  126.57499695    0.67000002    2.69000006
   17.54500008  133.22000122    0.67000002    2.69000006
   17.54805565  125.01699829    0.64999998    2.69000006
   17.55416679  125.01699829    0.58999997    2.69000006
   17.55861092  121.14600372    0.56999999    2.67000008
   17.56166649  132.95399475    0.56999999    2.69000006
   17.56499863  129.42900085    0.56999999    2.69000006
   17.56805611  125.75299835    0.56999999    2.67000008
   17.57139015  113.87500000    0.56999999    2.67000008
   17.57250023  128.78199768    0.56999999    2.69000006
   17.57500076  129.80099487    0.56999999    2.69000006
   17.57833481  119.10299683    0.52999997    2.69000006
   17.58139038  135.14399719    0.56999999    2.69000006
   17.58472252  126.39600372    0.61000001    2.69000006
   17.58805656  126.11799622    0.61000001    2.69000006
   17.59111214  133.94900513    0.67000002    2.69000006
   17.59694481  133.94900513    0.67000002    2.67000008
   17.60111237  129.91200256    0.67000002    2.69000006
   17.60416794  135.20899963    0.73000002    2.67000008
   17.60583305  136.48800659    0.73000002    2.67000008
   17.60777855  111.63800049    0.73000002    2.67000008
   17.61111069  137.19900513    0.76999998    2.69000006
   17.61416626  119.46299744    0.75000000    2.67000008
   17.61750031  118.17800140    0.76999998    2.67000008
   17.62083435  134.01199341    0.73000002    2.69000006
   17.62388992  132.31500244    0.70999998    2.67000008
   17.62722206  120.11900330    0.70999998    2.67000008
   17.63055611  123.45600128    0.69000000    2.67000008
   17.63361168  125.52500153    0.64999998    2.67000008
   17.63972282  125.52500153    0.61000001    2.69000006
   17.64388847  130.42300415    0.58999997    2.69000006
   17.64722252  122.77500153    0.56999999    2.69000006
   17.65027809  133.49600220    0.56999999    2.69000006
   17.65361023  128.04800415    0.56999999    2.69000006
   17.65666580  132.38099670    0.55000001    2.69000006
   17.65999985  129.84599304    0.52999997    2.67000008
   17.66333389  117.22799683    0.52999997    2.69000006
   17.66638756  121.71399689    0.52999997    2.69000006
   17.66972160  125.25800323    0.52999997    2.69000006
   17.67249870  123.22000122    0.52999997    2.69000006
   17.67333221  128.45199585    0.52999997    2.69000006
   17.67666626  126.78500366    0.52999997    2.69000006
   17.68249893  126.78500366    0.56999999    2.67000008
   17.68666649  125.93699646    0.64999998    2.69000006
   17.68999863  131.99299622    0.64999998    2.69000006
   17.69305420  130.98399353    0.67000002    2.69000006
   17.69638824  114.37100220    0.63000000    2.69000006
   17.69972038  128.20500183    0.67000002    2.69000006
   17.70277786  128.77699280    0.70999998    2.69000006
   17.70583344  120.65899658    0.70999998    2.69000006
   17.70639038  136.75500488    0.69000000    2.69000006
   17.70972252  127.00299835    0.69000000    2.69000006
   17.71277809  124.51200104    0.75000000    2.69000006
   17.71611214  128.37300110    0.75000000    2.69000006
   17.71944427  123.07199860    0.69000000    2.69000006
   17.72527885  123.07199860    0.67000002    2.67000008
   17.72944450  123.91799927    0.58999997    2.69000006
   17.73277855  118.27999878    0.55000001    2.69000006
   17.73611069  137.37800598    0.52999997    2.67000008
   17.73916626  129.43499756    0.52999997    2.67000008
   17.73972321  128.76300049    0.52999997    2.67000008
   17.74305534  127.37599945    0.51999998    2.69000006
   17.74611092  121.22499847    0.50000000    2.69000006
   17.74944496  121.83399963    0.50000000    2.69000006
   17.75277710  127.61100006    0.51999998    2.69000006
   17.75583267  123.13099670    0.51999998    2.67000008
   17.75916672  126.29900360    0.51999998    2.69000006
   17.76222229  124.08999634    0.52999997    2.69000006
   17.76833344  124.08999634    0.51999998    2.69000006
   17.77249908  129.22599792    0.52999997    2.69000006
   17.77277756  126.11399841    0.52999997    2.69000006
   17.77611160  129.92599487    0.56999999    2.67000008
   17.77944374  120.75000000    0.63000000    2.67000008
   17.78249931  122.13300323    0.75000000    2.69000006
   17.78583336  136.30000305    0.75000000    2.69000006
   17.78916550  128.70100403    0.86000001    2.67000008
   17.79222107  127.31999969    1.01999998    2.67000008
   17.79555511  136.07099915    0.92000002    2.67000008
   17.79888916  126.00299835    0.76999998    2.69000006
   17.80194283  136.59199524    0.56999999    2.67000008
   17.80527687  128.97200012    0.56999999    2.67000008
   17.80638885  127.08100128    0.56999999    2.67000008
   17.81110954  127.08100128    0.52999997    2.69000006
   17.81527710  123.93399811    0.55000001    2.67000008
   17.81833458  129.49000549    0.58999997    2.67000008
   17.82166672  133.68899536    0.58999997    2.69000006
   17.82500076  119.83000183    0.58999997    2.69000006
   17.82833481  118.11799622    0.56999999    2.67000008
   17.83139038  116.27500153    0.58999997    2.69000006
   17.83472252  121.44999695    0.63000000    2.67000008
   17.83805656  126.00099945    0.67000002    2.69000006
   17.83944511  126.49800110    0.67000002    2.69000006
   17.84166718  136.05900574    0.64999998    2.67000008
   17.84500122  125.02999878    0.64999998    2.67000008
   17.84833336  130.88200378    0.73000002    2.67000008
   17.85388947  130.88200378    0.73000002    2.69000006
   17.85805511  123.99199677    0.61000001    2.67000008
   17.86138916  121.24099731    0.56999999    2.69000006
   17.86444473  120.58100128    0.56999999    2.69000006
   17.86777878  114.75800323    0.55000001    2.67000008
   17.87111092  125.83300018    0.55000001    2.67000008
   17.87277794  120.15299988    0.55000001    2.67000008
   17.87472153  116.91600037    0.55000001    2.67000008
   17.87805557  121.96900177    0.55000001    2.67000008
   17.88111115  127.56900024    0.55000001    2.67000008
   17.88444519  128.29499817    0.55000001    2.67000008
   17.88777733  116.39900208    0.55000001    2.69000006
   17.89111137  120.00599670    0.55000001    2.67000008
   17.89666748  120.00599670    0.55000001    2.67000008
   17.90083313  124.63400269    0.56999999    2.67000008
   17.90416718  134.37600708    0.55000001    2.67000008
   17.90638924  121.82599640    0.55000001    2.67000008
   17.90777779  129.34599304    0.55000001    2.67000008
   17.91110992  134.04899597    0.55000001    2.67000008
   17.91416550  132.18400574    0.55000001    2.67000008
   17.91749954  117.94599915    0.55000001    2.67000008
   17.92083359  123.01200104    0.52999997    2.67000008
   17.92388916  124.89199829    0.52999997    2.67000008
   17.92722130  124.47299957    0.52999997    2.67000008
   17.93055534  119.36799622    0.52999997    2.67000008
   17.93361092  118.95500183    0.52999997    2.67000008
   17.93972206  118.95500183    0.55000001    2.67000008
   17.94388771  115.63500214    0.52999997    2.67000008
   17.94694328  122.07499695    0.51999998    2.67000008
   17.95027924  120.80999756    0.51999998    2.67000008
   17.95333481  126.58999634    0.51999998    2.67000008
   17.95666695  119.25099945    0.51999998    2.67000008
   17.96000099  118.63200378    0.50000000    2.67000008
   17.96305656  118.54299927    0.50000000    2.67000008
   17.96638870  127.18299866    0.50000000    2.67000008
   17.96972275  116.70099640    0.47999999    2.67000008
   17.97277832  127.33000183    0.50000000    2.67000008
   17.97333336  118.53800201    0.50000000    2.67000008
   17.97666740  119.17500305    0.50000000    2.66000009
   17.98250008  119.17500305    0.50000000    2.67000008
   17.98666763  124.90699768    0.50000000    2.67000008
   17.98972321  127.98100281    0.50000000    2.67000008
   17.99305534  128.36900330    0.50000000    2.67000008
   17.99638939  125.12000275    0.50000000    2.67000008
   17.99944496  133.29699707    0.51999998    2.67000008
   18.00277710  113.15000153    0.50000000    2.67000008
   18.00611115  123.16400146    0.50000000    2.67000008
   18.00666618  118.55100250    0.50000000    2.67000008
   18.00972176  123.55100250    0.50000000    2.67000008
   18.01277733  121.44699860    0.50000000    2.67000008
   18.01611137  108.53500366    0.50000000    2.67000008
   18.01972198  130.36999512    0.50000000    2.67000008
   18.02527809  130.36999512    0.50000000    2.67000008
   18.02944374  126.60600281    0.51999998    2.67000008
   18.03277779  133.39599609    0.55000001    2.67000008
   18.03583336  115.35299683    0.52999997    2.67000008
   18.03916550  127.24400330    0.52999997    2.67000008
   18.03999901  130.14999390    0.52999997    2.67000008
   18.04277802  124.47000122    0.52999997    2.67000008
   18.04583359  124.52999878    0.51999998    2.67000008
   18.04916573  119.49400330    0.51999998    2.67000008
   18.05249977  123.53199768    0.52999997    2.66000009
   18.05555534  130.41099548    0.52999997    2.67000008
   18.05888748  130.45899963    0.52999997    2.67000008
   18.06222153  123.18900299    0.52999997    2.67000008
   18.06805611  123.18900299    0.52999997    2.67000008
   18.07222366  117.37500000    0.51999998    2.67000008
   18.07333374  126.07099915    0.51999998    2.67000008
   18.07611275  117.14399719    0.52999997    2.67000008
   18.07916832  125.64399719    0.51999998    2.67000008
   18.08250046  127.63500214    0.51999998    2.67000008
   18.08583450  120.21800232    0.52999997    2.67000008
   18.08889008  124.52799988    0.52999997    2.67000008
   18.09222221  123.37899780    0.52999997    2.67000008
   18.09555626  118.91500092    0.52999997    2.67000008
   18.09861183  119.98100281    0.52999997    2.66000009
   18.10194397  123.70600128    0.52999997    2.67000008
   18.10499954  114.63400269    0.52999997    2.67000008
   18.10666656  114.11699677    0.52999997    2.67000008
   18.11111069  114.11699677    0.52999997    2.67000008
   18.11527824  123.14900208    0.52999997    2.67000008
   18.11833382  117.65200043    0.52999997    2.67000008
   18.12166595  113.79299927    0.52999997    2.66000009
   18.12472153  122.48699951    0.52999997    2.66000009
   18.12805557  132.34500122    0.55000001    2.66000009
   18.13138962  136.97000122    0.52999997    2.66000009
   18.13444519  131.07299805    0.52999997    2.66000009
   18.13777733  132.91900635    0.52999997    2.66000009
   18.13999939  122.91400146    0.55000001    2.69000006
   18.14138794  127.42299652    0.55000001    2.69000006
   18.14444351  121.88099670    0.52999997    2.66000009
   18.14777756  120.77899933    0.55000001    2.66000009
   18.15388870  120.77899933    0.55000001    2.67000008
   18.15805435  126.23300171    0.55000001    2.66000009
   18.16138840  131.66000366    0.55000001    2.66000009
   18.16444397  122.12899780    0.55000001    2.66000009
   18.16777802  127.36199951    0.55000001    2.67000008
   18.17083359  118.13500214    0.55000001    2.67000008
   18.17333221  119.01799774    0.55000001    2.67000008
   18.17472076  124.65699768    0.55000001    2.67000008
   18.17777634  121.37000275    0.52999997    2.67000008
   18.18111038  124.82700348    0.52999997    2.67000008
   18.18444443  120.67600250    0.52999997    2.67000008
   18.18777657  125.57099915    0.52999997    2.66000009
   18.19111061  122.28199768    0.51999998    2.67000008
   18.19666672  122.28199768    0.51999998    2.66000009
   18.20111275  119.23300171    0.51999998    2.66000009
   18.20444489  120.31900024    0.51999998    2.66000009
   18.20666695  117.94899750    0.51999998    2.67000008
   18.20805550  122.35099792    0.51999998    2.67000008
   18.21111107  115.71099854    0.50000000    2.66000009
   18.21444511  125.64600372    0.51999998    2.67000008
   18.21777916  113.89600372    0.51999998    2.66000009
   18.22083473  119.19200134    0.52999997    2.66000009
   18.22416687  120.60800171    0.51999998    2.66000009
   18.22750092  126.68099976    0.51999998    2.66000009
   18.23055649  126.45500183    0.51999998    2.66000009
   18.23388863  128.53999329    0.51999998    2.66000009
   18.23972321  128.53999329    0.52999997    2.66000009
   18.25805473  122.25499725    0.55000001    2.66000009
   18.26111031  121.34300232    0.55000001    2.66000009
   18.26444435  128.00300598    0.55000001    2.66000009
   18.26777840  126.36000061    0.55000001    2.66000009
   18.27083397  127.17700195    0.55000001    2.66000009
   18.27416611  134.21800232    0.55000001    2.66000009
   18.27750015  114.18399811    0.52999997    2.66000009
   18.28249931  114.18399811    0.52999997    2.67000008
   18.28666687  114.95700073    0.52999997    2.66000009
   18.28972244  124.65499878    0.52999997    2.66000009
   18.29111099  118.71700287    0.52999997    2.66000009
   18.29361153  127.00700378    0.52999997    2.66000009
   18.29666710  108.52899933    0.52999997    2.66000009
   18.29999924  125.28399658    0.52999997    2.66000009
   18.30333328  129.37500000    0.52999997    2.66000009
   18.30638885  126.82800293    0.51999998    2.67000008
   18.30972099  129.93699646    0.51999998    2.66000009
   18.31277657  119.42700195    0.52999997    2.66000009
   18.31611061  117.23200226    0.51999998    2.66000009
   18.31944466  123.37699890    0.51999998    2.66000009
   18.32527924  123.37699890    0.51999998    2.64000010
   18.32944489  119.25599670    0.51999998    2.66000009
   18.33277893  125.56300354    0.51999998    2.66000009
   18.33583450  120.22299957    0.51999998    2.66000009
   18.33916664  121.74700165    0.51999998    2.66000009
   18.34222221  117.24199677    0.50000000    2.66000009
   18.34555626  125.49700165    0.50000000    2.66000009
   18.34889030  131.75999451    0.50000000    2.66000009
   18.35194397  120.82299805    0.50000000    2.66000009
   18.35527802  129.85899353    0.50000000    2.66000009
   18.35777855  118.78900146    0.50000000    2.66000009
   18.35916710  126.12699890    0.50000000    2.66000009
   18.36222267  124.77700043    0.50000000    2.66000009
   18.36805534  124.77700043    0.50000000    2.66000009
   18.37222290  122.53500366    0.47999999    2.66000009
   18.37555504  129.64599609    0.47999999    2.66000009
   18.37861061  115.45300293    0.47999999    2.66000009
   18.38194466  123.11000061    0.47999999    2.66000009
   18.38527679  114.86699677    0.47999999    2.66000009
   18.38833237  116.37699890    0.47999999    2.66000009
   18.39111137  130.41600037    0.47999999    2.66000009
   18.39222145  131.28500366    0.47999999    2.66000009
   18.39527702  118.72000122    0.47999999    2.66000009
   18.39888954  125.50700378    0.47999999    2.66000009
   18.40222168  125.01799774    0.47999999    2.66000009
   18.40527725  122.49900055    0.47999999    2.66000009
   18.41110992  122.49900055    0.47999999    2.64000010
   18.41499901  126.06700134    0.47999999    2.66000009
   18.41833305  121.85700226    0.47999999    2.66000009
   18.42166519  120.56500244    0.47999999    2.66000009
   18.42444420  124.42900085    0.47999999    2.66000009
   18.42527771  133.57699585    0.47999999    2.66000009
   18.42833328  129.49600220    0.46000001    2.66000009
   18.43166542  118.18199921    0.46000001    2.64000010
   18.43499947  120.23899841    0.47999999    2.66000009
   18.43805504  128.47500610    0.46000001    2.66000009
   18.44138718  122.28600311    0.46000001    2.64000010
   18.44444275  126.17800140    0.46000001    2.66000009
   18.44777679  117.24299622    0.46000001    2.66000009
   18.45388985  117.24299622    0.47999999    2.66000009
   18.45805550  112.60900116    0.47999999    2.66000009
   18.46111107  127.90699768    0.47999999    2.66000009
   18.46444511  120.03700256    0.46000001    2.66000009
   18.46777916  123.75499725    0.46000001    2.66000009
   18.47083473  122.68000031    0.46000001    2.66000009
   18.47416687  126.77500153    0.46000001    2.66000009
   18.47722244  111.95700073    0.46000001    2.66000009
   18.48055649  121.11399841    0.46000001    2.66000009
   18.48388863  119.30100250    0.47999999    2.66000009
   18.48694420  121.31199646    0.47999999    2.66000009
   18.49027824  123.53099823    0.47999999    2.66000009
   18.49111176  126.54000092    0.47999999    2.66000009
   18.49666786  126.54000092    0.47999999    2.64000010
   18.50083351  125.75000000    0.47999999    2.66000009
   18.50416756  123.16899872    0.47999999    2.64000010
   18.50722313  112.51200104    0.47999999    2.66000009
   18.51055527  107.73000336    0.47999999    2.66000009
   18.51388931  120.14600372    0.50000000    2.66000009
   18.51694489  117.87599945    0.50000000    2.66000009
   18.52027702  114.38700104    0.50000000    2.64000010
   18.52333260  111.69799805    0.50000000    2.66000009
   18.52444458  113.43000031    0.50000000    2.66000009
   18.52722168  109.12799835    0.50000000    2.66000009
   18.53027725  124.26899719    0.50000000    2.64000010
   18.53361130  127.17600250    0.47999999    2.66000009
   18.53944397  127.17600250    0.47999999    2.66000009
   18.54361153  129.54200745    0.47999999    2.64000010
   18.54694366  126.43900299    0.50000000    2.66000009
   18.54999924  121.88500214    0.50000000    2.61999989
   18.55333328  131.21600342    0.52999997    2.66000009
   18.55666542  126.95999908    0.56999999    2.64000010
   18.55777740  118.60700226    0.56999999    2.64000010
   18.56027794  123.36499786    0.56999999    2.64000010
   18.56333351  120.17099762    0.58999997    2.64000010
   18.56666756  123.41699982    0.58999997    2.64000010
   18.57000160  118.36399841    0.56999999    2.64000010
   18.57305717  130.12800598    0.56999999    2.64000010
   18.57638931  117.13700104    0.56999999    2.64000010
   18.58250046  117.13700104    0.55000001    2.64000010
   18.58638954  114.59600067    0.55000001    2.64000010
   18.58972359  122.68299866    0.55000001    2.64000010
   18.59111214  124.82099915    0.55000001    2.64000010
   18.59333420  125.89900208    0.55000001    2.64000010
   18.59666824  127.37799835    0.55000001    2.64000010
   18.60000038  122.60900116    0.52999997    2.61999989
   18.60333443  115.18099976    0.52999997    2.61999989
   18.60639000  109.89700317    0.55000001    2.64000010
   18.60972214  121.25099945    0.55000001    2.64000010
   18.61305618  117.52899933    0.52999997    2.61999989
   18.61611176  120.60099792    0.55000001    2.64000010
   18.61944389  117.50800323    0.55000001    2.64000010
   18.62527847  117.50800323    0.55000001    2.64000010
   18.62944412  117.71399689    0.55000001    2.64000010
   18.63249969  119.28900146    0.52999997    2.64000010
   18.63583374  124.16600037    0.52999997    2.64000010
   18.63916588  124.57499695    0.51999998    2.64000010
   18.64222145  125.20099640    0.51999998    2.64000010
   18.64555550  125.83000183    0.51999998    2.64000010
   18.64861107  122.91300201    0.51999998    2.64000010
   18.65194321  115.66899872    0.52999997    2.64000010
   18.65527725  123.10199738    0.51999998    2.64000010
   18.65777779  114.50399780    0.51999998    2.64000010
   18.65888786  120.12100220    0.52999997    2.64000010
   18.66194344  112.33100128    0.52999997    2.64000010
   18.66805458  112.33100128    0.55000001    2.64000010
   18.67222214  115.66799927    0.52999997    2.64000010
   18.67555428  128.19599915    0.52999997    2.64000010
   18.67860985  118.76300049    0.55000001    2.64000010
   18.68194389  124.41000366    0.55000001    2.64000010
   18.68499947  120.02500153    0.55000001    2.64000010
   18.68833160  124.18399811    0.56999999    2.61999989
   18.69111061  120.42099762    0.56999999    2.61999989
   18.69194412  119.98699951    0.56999999    2.64000010
   18.69499969  119.51699829    0.56999999    2.64000010
   18.69833183  123.46600342    0.55000001    2.64000010
   18.70166779  127.77200317    0.56999999    2.64000010
   18.70472336  116.50700378    0.56999999    2.64000010
   18.71083450  116.50700378    0.56999999    2.61999989
   18.71500015  127.92700195    0.56999999    2.64000010
   18.71833420  121.43900299    0.56999999    2.64000010
   18.72138977  123.38099670    0.56999999    2.64000010
   18.72444534  119.92199707    0.56999999    2.61999989
   18.72527885  122.30500031    0.56999999    2.61999989
   18.72833443  122.34100342    0.56999999    2.64000010
   18.73166656  131.86300659    0.56999999    2.61999989
   18.73500061  123.60299683    0.56999999    2.61999989
   18.73805618  127.86399841    0.56999999    2.61999989
   18.74138832  119.93599701    0.56999999    2.61999989
   18.74444389  132.06799316    0.56999999    2.61999989
   18.74777794  118.02400208    0.56999999    2.64000010
   18.75361061  118.02400208    0.55000001    2.64000010
   18.75777817  115.43000031    0.55000001    2.61999989
   18.76111031  121.97599792    0.55000001    2.61999989
   18.76444435  119.46399689    0.55000001    2.64000010
   18.76749992  116.35399628    0.52999997    2.64000010
   18.77111053  116.20500183    0.52999997    2.64000010
   18.77416611  124.38400269    0.52999997    2.64000010
   18.77750015  123.96399689    0.52999997    2.64000010
   18.78055573  118.29000092    0.55000001    2.64000010
   18.78388786  125.24400330    0.55000001    2.64000010
   18.78722191  119.11499786    0.55000001    2.61999989
   18.79027748  125.68099976    0.55000001    2.61999989
   18.79111099  112.21800232    0.55000001    2.61999989
   18.79666710  112.21800232    0.55000001    2.59999990
   18.80083275  118.48799896    0.55000001    2.64000010
   18.80388832  122.51399994    0.56999999    2.61999989
   18.80722237  117.95800018    0.56999999    2.64000010
   18.81027794  121.20099640    0.55000001    2.64000010
   18.81361008  119.77700043    0.55000001    2.64000010
   18.81694603  122.84200287    0.55000001    2.64000010
   18.82000160  123.61599731    0.55000001    2.64000010
   18.82333374  115.44999695    0.55000001    2.61999989
   18.82444572  131.87399292    0.55000001    2.61999989
   18.82694626  125.80200195    0.55000001    2.64000010
   18.83000183  118.37300110    0.55000001    2.61999989
   18.83333397  128.52799988    0.55000001    2.61999989
   18.83944511  128.52799988    0.56999999    2.64000010
   18.84361267  120.18299866    0.55000001    2.64000010
   18.84666824  119.53900146    0.52999997    2.64000010
   18.85000038  125.92700195    0.52999997    2.61999989
   18.85333443  124.09600067    0.55000001    2.61999989
   18.85639000  119.60900116    0.55000001    2.61999989
   18.85777855  132.55000305    0.55000001    2.61999989
   18.86027908  121.79399872    0.58999997    2.64000010
   18.86333466  121.51300049    0.58999997    2.64000010
   18.86666679  129.49200439    0.63000000    2.61999989
   18.87000084  121.68900299    0.67000002    2.61999989
   18.87305641  117.91100311    0.76999998    2.61999989
   18.87638855  116.31300354    0.76999998    2.61999989
   18.88222313  116.31300354    0.92000002    2.61999989
   18.88638878  126.43900299    0.89999998    2.64000010
   18.88972282  121.76699829    0.89999998    2.64000010
   18.89111137  113.88899994    0.89999998    2.61999989
   18.89333344  122.08499908    0.89999998    2.61999989
   18.89638901  118.36399841    0.86000001    2.61999989
   18.89972115  131.65400696    0.86000001    2.61999989
   18.90305519  120.45300293    0.86000001    2.61999989
   18.90611076  126.08100128    0.88000000    2.59999990
   18.90944481  122.80799866    0.80000001    2.64000010
   18.91277695  127.39499664    0.64999998    2.61999989
   18.91583252  120.57900238    0.64999998    2.61999989
   18.91916656  125.70099640    0.64999998    2.61999989
   18.92499924  125.70099640    0.64999998    2.61999989
   18.92916679  125.36900330    0.64999998    2.61999989
   18.93249893  123.39600372    0.64999998    2.61999989
   18.93583298  124.30999756    0.64999998    2.61999989
   18.93888855  123.09200287    0.64999998    2.61999989
   18.94222069  127.13800049    0.61000001    2.61999989
   18.94527626  127.83000183    0.58999997    2.61999989
   18.94861031  122.91000366    0.55000001    2.61999989
   18.95194435  123.65499878    0.51999998    2.59999990
   18.95499992  117.25800323    0.51999998    2.59999990
   18.95777893  126.83200073    0.51999998    2.61999989
   18.95888901  126.13999939    0.51999998    2.61999989
   18.96194458  119.37300110    0.51999998    2.61999989
   18.96805573  119.37300110    0.51999998    2.59999990
   18.97194481  122.71199799    0.51999998    2.61999989
   18.97527885  117.56400299    0.51999998    2.61999989
   18.97861099  121.03600311    0.51999998    2.59999990
   18.98166656  116.86599731    0.51999998    2.59999990
   18.98500061  118.62200165    0.51999998    2.59999990
   18.98833275  118.33999634    0.51999998    2.61999989
   18.99111176  124.21299744    0.51999998    2.61999989
   18.99194527  115.67199707    0.51999998    2.61999989
   18.99500084  126.28700256    0.51999998    2.59999990
   18.99833298  125.06099701    0.51999998    2.59999990
   19.00166702  121.04799652    0.52999997    2.59999990
   19.00472260  124.72200012    0.52999997    2.59999990
   19.01083374  124.72200012    0.55000001    2.59999990
   19.01499939  123.13500214    0.56999999    2.59999990
   19.01805496  118.49800110    0.56999999    2.59999990
   19.02138901  121.17500305    0.56999999    2.59999990
   19.02444458  124.23899841    0.56999999    2.59999990
   19.02499962  126.63300323    0.56999999    2.59999990
   19.02833366  129.86099243    0.56999999    2.59999990
   19.03138924  127.94699860    0.56999999    2.59999990
   19.03472137  128.22999573    0.56999999    2.59999990
   19.03777695  127.93000031    0.56999999    2.59999990
   19.04111099  123.91400146    0.56999999    2.59999990
   19.04444313  122.80400085    0.56999999    2.59999990
   19.04749870  122.98500061    0.56999999    2.59999990
   19.05360985  122.98500061    0.56999999    2.59999990
   19.05777740  120.48899841    0.56999999    2.59999990
   19.05833244  119.76799774    0.58999997    2.59999990
   19.06138802  118.69200134    0.58999997    2.59999990
   19.06472206  124.50499725    0.61000001    2.59999990
   19.06805611  125.62000275    0.61000001    2.59999990
   19.07111168  120.86599731    0.61000001    2.59999990
   19.07444572  131.58399963    0.61000001    2.59999990
   19.07777786  120.35800171    0.61000001    2.59999990
   19.08083344  118.86199951    0.61000001    2.59999990
   19.08416748  119.97699738    0.61000001    2.59999990
   19.08722305  123.51200104    0.61000001    2.59999990
   19.09055710  124.50299835    0.61000001    2.59999990
   19.09111214  123.78199768    0.61000001    2.59999990
   19.09638977  123.78199768    0.61000001    2.59999990
   19.10055542  122.72899628    0.61000001    2.59999990
   19.10388947  122.33100128    0.61000001    2.59999990
   19.10722351  123.68199921    0.61000001    2.57999992
   19.11027908  123.58699799    0.61000001    2.59999990
   19.11361122  122.07399750    0.61000001    2.59999990
   19.11694527  123.12300110    0.61000001    2.59999990
   19.12000084  127.66100311    0.61000001    2.57999992
   19.12333298  117.38999939    0.58999997    2.59999990
   19.12444496  121.79799652    0.58999997    2.59999990
   19.12694550  120.62000275    0.58999997    2.57999992
   19.13027763  124.05599976    0.61000001    2.59999990
   19.13333321  124.90100098    0.58999997    2.57999992
   19.13944435  124.90100098    0.58999997    2.57999992
   19.14361191  124.05000305    0.58999997    2.59999990
   19.14666748  125.74700165    0.58999997    2.57999992
   19.14999962  120.30799866    0.58999997    2.57999992
   19.15305519  120.73500061    0.58999997    2.57999992
   19.15638924  125.85399628    0.58999997    2.57999992
   19.15777779  119.83100128    0.58999997    2.57999992
   19.15999985  122.01300049    0.61000001    2.57999992
   19.16333389  120.93099976    0.61000001    2.57999992
   19.16638756  125.39199829    0.58999997    2.57999992
   19.16972160  120.68699646    0.58999997    2.59999990
   19.17277718  123.68199921    0.58999997    2.59999990
   19.17611122  119.59200287    0.58999997    2.57999992
   19.18222237  119.59200287    0.58999997    2.57999992
   19.18638802  129.06300354    0.58999997    2.57999992
   19.18944359  127.79299927    0.58999997    2.57999992
   19.19111061  125.41699982    0.58999997    2.57999992
   19.19333267  127.86900330    0.58999997    2.57999992
   19.19666672  126.28700256    0.58999997    2.59999990
   19.19972038  118.91899872    0.58999997    2.57999992
   19.20305634  125.19999695    0.58999997    2.57999992
   19.20639038  125.50399780    0.58999997    2.57999992
   19.20944595  118.99199677    0.58999997    2.57999992
   19.21277809  119.83899689    0.58999997    2.57999992
   19.21583366  119.31099701    0.58999997    2.57999992
   19.21916771  123.23699951    0.61000001    2.57999992
   19.22500038  123.23699951    0.58999997    2.57999992
   19.22916794  129.25199890    0.58999997    2.57999992
   19.23250008  128.13299561    0.58999997    2.57999992
   19.23555565  124.48500061    0.58999997    2.55999994
   19.23888969  125.11900330    0.58999997    2.57999992
   19.24222183  125.24400330    0.58999997    2.57999992
   19.24527740  132.19999695    0.58999997    2.57999992
   19.24861145  126.72499847    0.58999997    2.57999992
   19.25166702  121.54299927    0.58999997    2.55999994
   19.25499916  122.56400299    0.61000001    2.57999992
   19.25777817  128.34399414    0.61000001    2.57999992
   19.27472115  121.63099670    0.61000001    2.57999992
   19.27888870  121.63099670    0.61000001    2.57999992
   19.28305435  127.37599945    0.63000000    2.57999992
   19.28638840  122.73000336    0.61000001    2.55999994
   19.28944397  116.79699707    0.63000000    2.55999994
   19.29138756  127.79599762    0.63000000    2.57999992
   19.29333305  131.69900513    0.63000000    2.57999992
   19.29638863  126.25299835    0.63000000    2.55999994
   19.29972076  126.45300293    0.63000000    2.55999994
   19.30277634  117.95899963    0.63000000    2.55999994
   19.30611038  119.92500305    0.63000000    2.55999994
   19.30944443  124.12400055    0.63000000    2.55999994
   19.31250000  125.29100037    0.63000000    2.55999994
   19.31583214  122.18699646    0.63000000    2.55999994
   19.32166672  122.18699646    0.63000000    2.55999994
   19.32583427  119.00299835    0.63000000    2.55999994
   19.32916832  112.63200378    0.63000000    2.55999994
   19.33222389  117.33000183    0.63000000    2.57999992
   19.33555603  121.21499634    0.63000000    2.57999992
   19.33889008  122.18800354    0.63000000    2.57999992
   19.34194565  122.90499878    0.63000000    2.57999992
   19.34527779  126.18800354    0.63000000    2.51999998
   19.34861183  127.40499878    0.63000000    2.55999994
   19.35166740  117.11299896    0.63000000    2.55999994
   19.35499954  127.65200043    0.63000000    2.55999994
   19.35805511  118.69999695    0.63000000    2.55999994
   19.35861206  126.43299866    0.63000000    2.55999994
   19.36472321  126.43299866    0.63000000    2.55999994
   19.36861038  121.48799896    0.64999998    2.55999994
   19.37194443  124.69100189    0.64999998    2.55999994
   19.37527847  120.50700378    0.67000002    2.55999994
   19.37833405  131.08700562    0.67000002    2.55999994
   19.38166618  153.88900757    0.64999998    2.55999994
   19.38500023  153.16400146    0.67000002    2.55999994
   19.38805580  152.66900635    0.67000002    2.55999994
   19.39138794  138.85400391    0.67000002    2.55999994
   19.39194489  168.16999817    0.67000002    2.55999994
   19.39500046  157.21499634    0.69000000    2.53999996
   19.39833260  151.01899719    0.69000000    2.53999996
   19.40138817  132.06700134    0.67000002    2.55999994
   19.40749931  132.06700134    0.67000002    2.55999994
   19.41166687  139.19299316    0.67000002    2.55999994
   19.41499901  156.12100220    0.67000002    2.55999994
   19.41805458  148.68400574    0.67000002    2.55999994
   19.42138863  151.46600342    0.69000000    2.55999994
   19.42444420  139.72099304    0.69000000    2.53999996
   19.42499924  135.38299561    0.69000000    2.53999996
   19.42833328  151.12899780    0.67000002    2.55999994
   19.43166542  139.92300415    0.67000002    2.55999994
   19.43472099  124.41999817    0.69000000    2.53999996
   19.43805504  147.18299866    0.69000000    2.53999996
   19.44111061  159.78100586    0.69000000    2.53999996
   19.44444275  139.56399536    0.69000000    2.53999996
   19.45027924  139.56399536    0.70999998    2.55999994
   19.45444489  132.96699524    0.70999998    2.55999994
   19.45777893  137.10099792    0.73000002    2.55999994
   19.45833397  126.62500000    0.73000002    2.55999994
   19.46138954  133.30400085    0.75000000    2.55999994
   19.46472359  148.27799988    0.73000002    2.53999996
   19.46777916  135.47399902    0.73000002    2.53999996
   19.47111130  129.42500305    0.75000000    2.53999996
   19.47416687  132.40899658    0.75000000    2.53999996
   19.47750092  146.98699951    0.75000000    2.53999996
   19.48083305  126.58599854    0.75000000    2.53999996
   19.48388863  135.13600159    0.75000000    2.53999996
   19.48722267  140.29400635    0.73000002    2.55999994
   19.49305534  140.29400635    0.73000002    2.53999996
   19.49722290  135.17100525    0.73000002    2.51999998
   19.50055504  124.18900299    0.73000002    2.51999998
   19.50361061  123.64800262    0.73000002    2.53999996
   19.50694466  136.67799377    0.73000002    2.53999996
   19.51027870  135.64900208    0.73000002    2.53999996
   19.51333427  138.77099609    0.73000002    2.53999996
   19.51666641  128.52400208    0.73000002    2.55999994
   19.52000046  120.67099762    0.73000002    2.55999994
   19.52305603  122.71399689    0.73000002    2.53999996
   19.52499962  138.61599731    0.73000002    2.53999996
   19.52666664  132.32400513    0.73000002    2.53999996
   19.53000069  120.77200317    0.73000002    2.53999996
   19.53610992  120.77200317    0.70999998    2.53999996
   19.54027748  128.73199463    0.70999998    2.53999996
   19.54333305  131.13499451    0.70999998    2.53999996
   19.54666710  120.48699951    0.70999998    2.51999998
   19.54999924  112.45300293    0.70999998    2.51999998
   19.55305481  123.89900208    0.70999998    2.53999996
   19.55638885  125.88200378    0.70999998    2.53999996
   19.55833244  129.11199951    0.70999998    2.53999996
   19.55999947  128.90899658    0.70999998    2.53999996
   19.56333351  119.94599915    0.69000000    2.53999996
   19.56638718  127.65899658    0.69000000    2.53999996
   19.56972313  126.93299866    0.69000000    2.53999996
   19.57305717  125.62699890    0.69000000    2.53999996
   19.57888985  125.62699890    0.70999998    2.51999998
   19.58305550  116.94499969    0.69000000    2.51999998
   19.58638954  122.42600250    0.69000000    2.51999998
   19.58972359  121.53500366    0.70999998    2.53999996
   19.59166718  126.22399902    0.70999998    2.51999998
   19.59333420  122.82199860    0.70999998    2.51999998
   19.59666824  117.76699829    0.70999998    2.53999996
   19.59972191  121.07800293    0.70999998    2.53999996
   19.60305595  126.94599915    0.70999998    2.51999998
   19.60639000  124.66999817    0.70999998    2.51999998
   19.60944557  127.63700104    0.73000002    2.51999998
   19.61277771  127.91100311    0.75000000    2.51999998
   19.61583328  123.72499847    0.73000002    2.51999998
   19.62166595  123.72499847    0.75000000    2.51999998
   19.62583351  121.81099701    0.75000000    2.51999998
   19.62916756  121.36100006    0.76999998    2.53999996
   19.63222313  120.70899963    0.76999998    2.51999998
   19.63555527  123.77100372    0.79000002    2.51999998
   19.63861084  119.87300110    0.76999998    2.51999998
   19.64194489  120.00399780    0.76999998    2.51999998
   19.64527702  125.01499939    0.79000002    2.51999998
   19.64833260  122.64900208    0.79000002    2.51999998
   19.65166664  123.49600220    0.79000002    2.51999998
   19.65499878  119.71800232    0.80000001    2.51999998
   19.65805435  128.14599609    0.80000001    2.51999998
   19.65861130  120.51000214    0.79000002    2.51999998
   19.66444397  120.51000214    0.79000002    2.51999998
   19.66860962  125.27200317    0.79000002    2.51999998
   19.67194366  127.15599823    0.80000001    2.51999998
   19.67527771  121.85500336    0.80000001    2.51999998
   19.67860985  121.23300171    0.80000001    2.50000000
   19.68166542  119.58999634    0.80000001    2.50000000
   19.68499947  118.05000305    0.80000001    2.51999998
   19.68833160  120.11000061    0.81999999    2.51999998
   19.69166565  118.97399902    0.81999999    2.51999998
   19.69222069  122.01999664    0.83999997    2.50000000
   19.69499969  124.26699829    0.83999997    2.50000000
   19.69833183  120.46399689    0.81999999    2.51999998
   19.70166779  118.25199890    0.81999999    2.51999998
   19.70750046  118.25199890    1.16999996    2.50000000
   19.71166801  117.78099823    1.05999994    2.50000000
   19.71472359  122.83000183    0.88000000    2.50000000
   19.71805573  120.87500000    0.88000000    2.50000000
   19.72111130  124.28700256    0.88000000    2.50000000
   19.72444534  115.18299866    0.86000001    2.50000000
   19.72555542  122.61499786    0.86000001    2.50000000
   19.72805595  121.22599792    0.86000001    2.50000000
   19.73139000  123.62999725    0.88000000    2.51999998
   19.73472214  117.52799988    0.89999998    2.50000000
   19.73777771  125.77899933    0.89999998    2.50000000
   19.74111176  120.83200073    0.89999998    2.50000000
   19.74416733  109.02200317    0.89999998    2.50000000
   19.75027847  109.02200317    0.89999998    2.50000000
   19.75444412  126.05000305    0.92000002    2.50000000
   19.75749969  119.37899780    0.89999998    2.51999998
   19.75888824  124.63400269    0.89999998    2.51999998
   19.76111031  138.86199951    0.89999998    2.48000002
   19.76444435  188.52200317    0.89999998    2.48000002
   19.76777840  193.04400635    0.89999998    2.50000000
   19.77083397   -1.00000000    0.92000002    2.50000000
   19.77416611   -1.00000000    0.92000002    2.50000000
   19.77722168   -1.00000000    0.92000002    2.50000000
   19.78055573   -1.00000000    0.92000002    2.50000000
   19.78388786   -1.00000000    0.94000000    2.50000000
   19.78694344   -1.00000000    0.94000000    2.48000002
   19.79722214   -1.00000000    2.07999992    2.50000000
   19.80027771   -1.00000000    2.78999996    2.50000000
   19.80360985   -1.00000000    3.41000009    2.48000002
   19.80666542   -1.00000000    3.95000005    2.40000010
   19.80999947   -1.00000000    4.32999992    2.40000010
   19.81333351   -1.00000000    4.69999981    2.39000010
   19.81638718   -1.00000000    4.90999985    2.42000008
   19.81972313   -1.00000000    4.90999985    2.39000010
   19.82305717   -1.00000000    4.90999985    2.46000004
   19.82638931   -1.00000000    4.90999985    2.46000004
   19.82972336   -1.00000000    4.90999985    2.44000006
   19.84000015   -1.00000000    4.90999985    2.30999994
   19.84305573   -1.00000000    4.90999985    2.26999998
   19.84638977   -1.00000000    4.90999985    2.39000010
   19.84972191   -1.00000000    4.90999985    2.34999990
   19.85277748   -1.00000000    4.90999985    2.21000004
   19.85611153   -1.00000000    4.90999985    2.17000008
   19.85972214   -1.00000000    4.90999985    2.19000006
   19.86305618   -1.00000000    4.90999985    2.28999996
   19.86611176   -1.00000000    4.90999985    2.28999996
   19.86944389   -1.00000000    4.90999985    2.32999992
   19.87277794   -1.00000000    4.90999985    2.32999992
   19.88277817   -1.00000000    4.90999985    2.40000010
   19.88611031   -1.00000000    4.90999985    2.39000010
   19.88916588   -1.00000000    4.90999985    2.40000010
   19.89277840   -1.00000000    4.90999985    2.36999989
   19.89611053   -1.00000000    4.90999985    2.34999990
   19.89916611   -1.00000000    4.90999985    2.19000006
   19.90250015   -1.00000000    4.90999985    2.26999998
   19.90583229   -1.00000000    4.90999985    2.25000000
   19.90888786   -1.00000000    4.90999985    2.23000002
   19.91222191   -1.00000000    4.90999985    2.23000002
   19.91527748   -1.00000000    4.90999985    2.26999998
   19.92555428   -1.00000000    4.90999985    2.21000004
   19.92888832   -1.00000000    4.90999985    2.25000000
   19.93222237   -1.00000000    4.90999985    2.28999996
   19.93527603   -1.00000000    4.90999985    2.23000002
   19.93861008   -1.00000000    4.90999985    2.28999996
   19.94166565   -1.00000000    4.90999985    2.30999994
   19.94499969   -1.00000000    4.90999985    2.28999996
   19.94833183   -1.00000000    4.90999985    2.26999998
   19.95138931   -1.00000000    4.90999985    2.23000002
   19.95472336   -1.00000000    4.90999985    2.25000000
   19.95805550   -1.00000000    4.90999985    2.28999996
   19.96861076   -1.00000000    4.90999985    2.28999996
   19.97166634   -1.00000000    4.90999985    2.32999992
   19.97500038   -1.00000000    4.90999985    2.32999992
   19.97805595   -1.00000000    4.90999985    2.32999992
   19.98139000   -1.00000000    4.90999985    2.34999990
   19.98472214   -1.00000000    4.90999985    2.36999989
   19.98777771   -1.00000000    4.90999985    2.36999989
   19.99111176   -1.00000000    4.90999985    2.34999990
   19.99472237   -1.00000000    4.90999985    2.36999989
   19.99805641   -1.00000000    4.90999985    2.34999990
   20.00111198   -1.00000000    4.90999985    2.34999990
   20.01138878   -1.00000000    4.90999985    2.36999989
   20.01444435   -1.00000000    4.90999985    2.36999989
   20.01777840   -1.00000000    4.90999985    2.34999990
   20.02111053   -1.00000000    4.90999985    2.32999992
   20.02416611   -1.00000000    4.90999985    2.26999998
   20.02777672   -1.00000000    4.90999985    2.21000004
   20.03111076   -1.00000000    4.90999985    2.23000002
   20.03416634   -1.00000000    4.90999985    2.15000010
   20.03750038   -1.00000000    4.90999985    2.09999990
   20.04083252   -1.00000000    4.90999985    2.07999992
   20.04388809   -1.00000000    4.90999985    2.09999990
   20.05416679   -1.00000000    4.90999985    2.00000000
   20.05749893   -1.00000000    4.90999985    1.88000000
   20.06083298   -1.00000000    4.90999985    1.83000004
   20.06416512   -1.00000000    4.90999985    1.88000000
   20.06722260   -1.00000000    4.90999985    1.83000004
   20.07055664   -1.00000000    4.90999985    1.76999998
   20.07389069   -1.00000000    4.90999985    1.76999998
   20.07694626   -1.00000000    4.90999985    1.63000000
   20.08027840   -1.00000000    4.90999985    1.44000006
   20.08361244   -1.00000000    4.90999985    1.38000000
   20.08666801   -1.00000000    4.90999985    1.25000000
   20.09694481   -1.00000000    4.90999985    1.39999998
   20.10027885   -1.00000000    4.90999985    1.50000000
   20.10361099   -1.00000000    4.90999985    1.75000000
   20.10666656   -1.00000000    4.90999985    1.80999994
   20.11000061   -1.00000000    4.90999985    1.96000004
   20.11305618   -1.00000000    4.90999985    2.19000006
   20.11638832   -1.00000000    4.90999985    2.21000004
   20.11972237   -1.00000000    4.90999985    2.17000008
   20.12277794   -1.00000000    4.90999985    2.15000010
   20.12638855   -1.00000000    4.90999985    2.07999992
   20.12972260   -1.00000000    4.90999985    2.01999998
   20.13999939   -1.00000000    4.90999985    1.98000002
   20.14305496   -1.00000000    4.90999985    1.94000006
   20.14638901   -1.00000000    4.90999985    1.98000002
   20.14944458   -1.00000000    4.90999985    1.85000002
   20.15277672   -1.00000000    4.90999985    1.83000004
   20.15611076   -1.00000000    4.90999985    1.75000000
   20.15944481   -1.00000000    4.90999985    1.66999996
   20.16277695   -1.00000000    4.90999985    1.51999998
   20.16583252   -1.00000000    4.90999985    1.51999998
   20.16916656   -1.00000000    4.90999985    1.55999994
   20.17249870   -1.00000000    4.90999985    1.60000002
   20.18277740   -1.00000000    4.90999985    1.58000004
   20.18583298   -1.00000000    4.90999985    1.19000006
