    HOUR (UT)   FLARE FACTOR    SKY TESTER    SUN TESTER
   10.50638866   -1.00000000   -1.00000000   -1.00000000
   10.52638817  240.61199951    4.90999985    1.46000004
   10.52972221  228.08500671    4.90999985    1.46000004
   10.53277779  289.34600830    4.90999985    1.46000004
   10.53611183  266.79598999    4.90999985    1.48000002
   10.53916740  301.50201416    4.90999985    1.48000002
   10.54388905  258.04400635    4.90999985    1.48000002
   10.54777813  270.87799072    4.90999985    1.50000000
   10.55111122  296.81201172    4.90999985    1.50000000
   10.55416679  295.92001343    4.90999985    1.50000000
   10.55749989  276.96099854    4.90999985    1.50000000
   10.55972195  297.06799316    4.90999985    1.51999998
   10.56083393  291.52099609    4.90999985    1.51999998
   10.56416702  299.36599731    4.90999985    1.51999998
   10.56777763  312.85101318    4.90999985    1.51999998
   10.57083321  314.13699341    4.90999985    1.53999996
   10.57416630  301.43099976    4.90999985    1.53999996
   10.57750034  319.00500488    4.90999985    1.53999996
   10.58055592  316.29400635    4.90999985    1.55999994
   10.58388901  310.01501465    4.90999985    1.55999994
   10.58722210  282.89599609    4.90999985    1.55999994
   10.59027767  286.45498657    4.90999985    1.55999994
   10.59305477  282.81500244    4.90999985    1.55999994
   10.59388828  292.58200073    4.90999985    1.55999994
   10.59722233  309.67999268    4.90999985    1.55999994
   10.60055637  265.42999268    4.90999985    1.58000004
   10.60361195  279.45001221    4.90999985    1.58000004
   10.60694504  265.63198853    4.90999985    1.60000002
   10.61027813  286.70401001    4.90999985    1.60000002
   10.61333370  259.86499023    4.90999985    1.60000002
   10.61666679  269.46099854    4.90999985    1.60000002
   10.61999989  265.03698730    4.90999985    1.61000001
   10.62305546  269.10000610    4.90999985    1.61000001
   10.62638855  258.70498657    4.90999985    1.61000001
   10.62666702  268.57901001    4.90999985    1.61000001
   10.63000011  256.24200439    4.90999985    1.61000001
   10.63305569  248.62399292    4.90999985    1.63000000
   10.63638878  247.11399841    4.90999985    1.63000000
   10.63972187  255.27299500    4.90999985    1.63000000
   10.64277744  227.84399414    4.90999985    1.64999998
   10.64611053  259.96899414    4.90999985    1.64999998
   10.64944458  230.33099365    4.90999985    1.64999998
   10.65249920  226.97500610    4.90999985    1.64999998
   10.65583324  241.82600403    4.90999985    1.66999996
   10.65888882  243.66900635    4.90999985    1.66999996
   10.65972137  232.37399292    4.90999985    1.66999996
   10.66249943  221.91000366    4.90999985    1.66999996
   10.66583252  233.77400208    4.90999985    1.66999996
   10.66916656  222.32000732    4.90999985    1.66999996
   10.67222214  234.35200500    4.90999985    1.69000006
   10.67555618  228.10400391    4.90999985    1.69000006
   10.67861176  221.59899902    4.90999985    1.69000006
   10.68194485  224.97700500    4.90999985    1.71000004
   10.68527794  208.05799866    4.90999985    1.71000004
   10.68833351  218.98699951    4.90999985    1.71000004
   10.69166660  209.82299805    4.90999985    1.71000004
   10.69305515  215.97500610    4.90999985    1.71000004
   10.69527817  225.37199402    4.90999985    1.71000004
   10.69861126  213.50100708    4.90999985    1.73000002
   10.70194435  213.82400513    4.90999985    1.71000004
   10.70499992  224.11999512    4.90999985    1.73000002
   10.70833302  228.69599915    4.90999985    1.73000002
   10.71138859  218.62300110    4.90999985    1.73000002
   10.71472168  220.57000732    4.90999985    1.73000002
   10.71805477  215.98500061    4.90999985    1.73000002
   10.72111034  209.87399292    4.90999985    1.75000000
   10.72444439  235.58500671    4.90999985    1.75000000
   10.72638798  212.96299744    4.90999985    1.75000000
   10.72805500  184.34300232    4.90999985    1.75000000
   10.73138809  202.82200623    4.90999985    1.76999998
   10.73472214  197.98199463    4.90999985    1.75000000
   10.73777771  196.67300415    4.90999985    1.76999998
   10.74111176  210.88800049    4.90999985    1.76999998
   10.74444485  199.47599792    4.90999985    1.76999998
   10.74750042  236.85000610    4.90999985    1.76999998
   10.75083351  210.42199707    4.90999985    1.78999996
   10.75388908  201.61700439    4.90999985    1.78999996
   10.75722218  203.68299866    4.90999985    1.78999996
   10.75972176  200.19000244    4.90999985    1.78999996
   10.76083374  207.38999939    4.90999985    1.78999996
   10.76416683  195.84399414    4.90999985    1.78999996
   10.76749992  189.87699890    4.90999985    1.78999996
   10.77055550  194.70100403    4.90999985    1.80999994
   10.77388859  192.45700073    4.90999985    1.80999994
   10.77694416  186.17399597    4.90999985    1.80999994
   10.78027725  182.69500732    4.90999985    1.83000004
   10.78361130  200.98699951    4.90999985    1.83000004
   10.78666687  184.50399780    4.90999985    1.83000004
   10.79000092  198.29800415    4.90999985    1.83000004
   10.79305553  193.52099609    4.90999985    1.83000004
   10.79333401  193.15800476    4.90999985    1.83000004
   10.79666710  193.30000305    4.90999985    1.83000004
   10.80000019  193.33500671    4.90999985    1.83000004
   10.80305576  183.94799805    4.90999985    1.83000004
   10.80638885  189.48599243    4.90999985    1.83000004
   10.80944443  194.02900696    4.90999985    1.85000002
   10.81277752  185.18699646    4.90999985    1.85000002
   10.81611156  187.43099976    4.90999985    1.85000002
   10.81916618  175.88400269    4.90999985    1.85000002
   10.82250023  179.39500427    4.90999985    1.86000001
   10.82583332  176.26100159    4.90999985    1.86000001
   10.82638836  185.12600708    4.90999985    1.86000001
   10.82916641  161.88299561    4.90999985    1.86000001
   10.83249950  176.27000427    4.90999985    1.86000001
   10.83583260  181.98399353    4.90999985    1.86000001
   10.83888817  180.83900452    4.90999985    1.86000001
   10.84222221  186.30499268    4.90999985    1.86000001
   10.84555531  174.86099243    4.90999985    1.88000000
   10.84861088  181.87100220    4.90999985    1.88000000
   10.85194492  166.39700317    4.90999985    1.88000000
   10.85500050  180.82200623    4.90999985    1.88000000
   10.85833359  171.97000122    4.90999985    1.88000000
   10.85972214  168.14399719    4.90999985    1.88000000
   10.86194515  192.06300354    4.90999985    1.89999998
   10.86527824  182.04899597    4.90999985    1.89999998
   10.86861134  165.63499451    4.90999985    1.89999998
   10.87166691  173.46400452    4.90999985    1.89999998
   10.87500000  165.73300171    4.90999985    1.89999998
   10.87833309  169.09100342    4.90999985    1.89999998
   10.88138866  171.42399597    4.90999985    1.89999998
   10.88472176  171.84199524    4.90999985    1.91999996
   10.88777733  167.00900269    4.90999985    1.89999998
   10.89111137  159.88400269    4.90999985    1.91999996
   10.89305496  174.89500427    4.90999985    1.91999996
   10.89472198  169.49099731    4.90999985    1.91999996
   10.89805508  168.82400513    4.90999985    1.94000006
   10.90138817  176.80900574    4.90999985    1.94000006
   10.90444374  165.55700684    4.90999985    1.94000006
   10.90777779  178.63299561    4.90999985    1.94000006
   10.91111088  161.04800415    4.90999985    1.96000004
   10.91416645  164.87100220    4.90999985    1.94000006
   10.91750050  165.05599976    4.90999985    1.96000004
   10.92055607  151.07499695    4.90999985    1.94000006
   10.92388916  149.64500427    4.90999985    1.96000004
   10.92638874  166.76699829    4.90999985    1.96000004
   10.92750072  156.19799805    4.90999985    1.96000004
   10.93083382  166.51400757    4.90999985    1.96000004
   10.93416691  161.81700134    4.90999985    1.96000004
   10.93722248  154.53700256    4.90999985    1.98000002
   10.94055557  166.18699646    4.90999985    1.98000002
   10.94388866  163.61300659    4.90999985    1.96000004
   10.94694424  156.37699890    4.90999985    1.98000002
   10.95027733  171.38099670    4.90999985    1.98000002
   10.95333290  160.35000610    4.90999985    1.98000002
   10.95666695  155.88299561    4.90999985    1.98000002
   10.95972157  155.87600708    4.90999985    1.98000002
   10.96027756  161.13999939    4.90999985    1.98000002
   10.96361065  162.99400330    4.90999985    1.98000002
   10.96694374  159.05499268    4.90999985    2.00000000
   10.96999931  158.03599548    4.90999985    2.00000000
   10.97333336  155.29299927    4.90999985    2.00000000
   10.97666645  160.24299622    4.90999985    2.00000000
   10.97972202  160.70500183    4.90999985    2.01999998
   10.98305511  146.48899841    4.90999985    2.01999998
   10.98611164  160.93899536    4.90999985    2.01999998
   10.98944473  159.77299500    4.90999985    2.01999998
   10.99277782  171.61799622    4.90999985    2.01999998
   10.99305534  163.40100098    4.90999985    2.01999998
   10.99638939  170.87800598    4.90999985    2.01999998
   10.99972248  161.69599915    4.90999985    2.01999998
   11.00277805  169.59500122    4.90999985    2.01999998
   11.00611115  158.01699829    4.90999985    2.01999998
   11.00944424  154.53199768    4.90999985    2.01999998
   11.01249981  147.61900330    4.90999985    2.03999996
   11.01583290  150.32000732    4.90999985    2.03999996
   11.01888847  159.59300232    4.90999985    2.03999996
   11.02222157  153.14599609    4.90999985    2.03999996
   11.02555561  162.01100159    4.90999985    2.03999996
   11.02638817  155.21200562    4.90999985    2.03999996
   11.02888870  151.00700378    4.90999985    2.05999994
   11.03222179  160.70399475    4.90999985    2.05999994
   11.03527832  154.39700317    4.90999985    2.05999994
   11.03861141  149.64100647    4.90999985    2.05999994
   11.04194450  145.29899597    4.90999985    2.05999994
   11.04500008  146.39199829    4.90999985    2.05999994
   11.04833412  152.64700317    4.90999985    2.07999992
   11.05138874  141.41000366    4.90999985    2.07999992
   11.05472279  164.29299927    4.90999985    2.05999994
   11.05805588  153.16799927    4.90999985    2.07999992
   11.05972195  164.68499756    4.90999985    2.07999992
   11.06166649  160.32499695    4.90999985    2.07999992
   11.06500053  147.83500671    4.90999985    2.07999992
   11.06805515  161.67500305    4.90999985    2.07999992
   11.07138920  151.33000183    4.90999985    2.09999990
   11.07472229  150.01499939    4.90999985    2.09999990
   11.07777786  153.64700317    4.90999985    2.09999990
   11.08111095  151.55700684    4.90999985    2.09999990
   11.08416653  147.22300720    4.90999985    2.09999990
   11.08749962  150.11999512    4.90999985    2.09999990
   11.09083271  142.66600037    4.90999985    2.09999990
   11.09305477  153.18200684    4.90999985    2.09999990
   11.09444427  145.49400330    4.90999985    2.09999990
   11.09777737  146.75999451    4.90999985    2.09999990
   11.10083389  146.44299316    4.90999985    2.11999989
   11.10416698  140.25500488    4.90999985    2.09999990
   11.10750008  144.28799438    4.90999985    2.09999990
   11.11055565  145.93699646    4.90999985    2.09999990
   11.11388969  147.59899902    4.90999985    2.09999990
   11.11694431  150.77400208    4.90999985    2.11999989
   11.12027836  160.26600647    4.90999985    2.09999990
   11.12361145  153.27699280    4.90999985    2.11999989
   11.12638855  154.66700745    4.90999985    2.11999989
   11.12694454  151.64300537    4.90999985    2.11999989
   11.13027763  153.69900513    4.90999985    2.11999989
   11.13333321  150.00999451    4.90999985    2.13000011
   11.13666630  143.34599304    4.90999985    2.13000011
   11.14000034  151.84599304    4.90999985    2.13000011
   11.14305496  149.24800110    4.90999985    2.13000011
   11.14638901  145.90400696    4.90999985    2.13000011
   11.14944458  145.46299744    4.90999985    2.13000011
   11.15277767  144.05700684    4.90999985    2.15000010
   11.15611076  137.20799255    4.90999985    2.13000011
   11.15916634  143.19999695    4.90999985    2.15000010
   11.15972137  133.53599548    4.90999985    2.15000010
   11.16277695  134.93499756    4.90999985    2.15000010
   11.16611099  135.74099731    4.90999985    2.15000010
   11.16916656  138.27600098    4.90999985    2.15000010
   11.17250061  138.32600403    4.90999985    2.15000010
   11.17583370  141.10299683    4.90999985    2.17000008
   11.17888927  134.64300537    4.90999985    2.17000008
   11.18222237  146.13299561    4.90999985    2.15000010
   11.18555546  145.91200256    4.90999985    2.17000008
   11.18861103  152.41999817    4.90999985    2.17000008
   11.19194412  143.97500610    4.90999985    2.15000010
   11.19305515  146.24899292    4.90999985    2.17000008
   11.19555569  146.16600037    4.90999985    2.17000008
   11.19888878  149.10800171    4.90999985    2.17000008
   11.20194435  147.98100281    4.90999985    2.17000008
   11.20527744  149.41499329    4.90999985    2.17000008
   11.20861053  141.80400085    4.90999985    2.19000006
   11.21166611  143.35099792    4.90999985    2.17000008
   11.21500015  136.80000305    4.90999985    2.19000006
   11.21833324  142.93200684    4.90999985    2.19000006
   11.22138882  143.43800354    4.90999985    2.19000006
   11.22472191  136.69299316    4.90999985    2.19000006
   11.22638798  138.84700012    4.90999985    2.19000006
   11.22833252  137.02400208    4.90999985    2.19000006
   11.23166656  134.71800232    4.90999985    2.19000006
   11.23472214  139.28500366    4.90999985    2.19000006
   11.23805618  144.37500000    4.90999985    2.19000006
   11.24138927  144.63800049    4.90999985    2.19000006
   11.24444485  144.95100403    4.90999985    2.19000006
   11.24777794  140.52999878    4.90999985    2.19000006
   11.25083351  137.12600708    4.90999985    2.19000006
   11.25416660  138.79299927    4.90999985    2.19000006
   11.25749969  140.74000549    4.90999985    2.21000004
   11.25972176  143.24299622    4.90999985    2.19000006
   11.26111126  136.45100403    4.90999985    2.21000004
   11.26444435  138.92999268    4.90999985    2.21000004
   11.26749992  135.45399475    4.90999985    2.21000004
   11.27083302  133.00000000    4.90999985    2.21000004
   11.27416611  137.98899841    4.90999985    2.21000004
   11.27750015  141.86399841    4.90999985    2.21000004
   11.28055573  136.26899719    4.90999985    2.21000004
   11.28388977  135.20799255    4.90999985    2.21000004
   11.28694534  135.55700684    4.90999985    2.21000004
   11.29027843  134.91700745    4.90999985    2.23000002
   11.29333401  134.54100037    4.90999985    2.23000002
   11.29388905  132.69400024    4.90999985    2.23000002
   11.29722309  145.64399719    4.90999985    2.21000004
   11.30027771  140.92399597    4.90999985    2.23000002
   11.30361176  145.35800171    4.90999985    2.23000002
   11.30694485  140.03999329    4.90999985    2.23000002
   11.31000042  136.46400452    4.90999985    2.23000002
   11.31333351  140.02400208    4.90999985    2.23000002
   11.31638908  139.26300049    4.90999985    2.25000000
   11.31972218  133.95100403    4.90999985    2.25000000
   11.32305527  130.91099548    4.90999985    2.25000000
   11.32611084  129.21099854    4.90999985    2.25000000
   11.32666683  131.43400574    4.90999985    2.25000000
   11.32999992  130.75500488    4.90999985    2.25000000
   11.33305550  128.80400085    4.90999985    2.25000000
   11.33638859  128.94400024    4.90999985    2.25000000
   11.33972168  128.62800598    4.90999985    2.25000000
   11.34277725  131.02200317    4.90999985    2.25000000
   11.34611034  124.42400360    4.90999985    2.25000000
   11.34916592  119.24900055    4.90999985    2.25000000
   11.35249996  132.79100037    4.90999985    2.25000000
   11.35583401  145.80900574    4.90999985    2.25000000
   11.35888958  136.23100281    4.90999985    2.25000000
   11.36000061  130.65100098    4.90999985    2.25000000
   11.36277771  135.24099731    4.90999985    2.26999998
   11.36583328  140.79100037    4.90999985    2.26999998
   11.36916637  141.06599426    4.90999985    2.26999998
   11.37250042  130.64599609    4.90999985    2.25000000
   11.37555599  140.83099365    4.90999985    2.26999998
   11.37888908  136.87399292    4.90999985    2.26999998
   11.38194466  136.49499512    4.90999985    2.26999998
   11.38527775  135.79699707    4.90999985    2.26999998
   11.38861084  132.11900330    4.90999985    2.28999996
   11.39166641  134.53399658    4.90999985    2.28999996
   11.39333344  125.56199646    4.90999985    2.28999996
   11.39555550  138.36799622    4.90999985    2.28999996
   11.39861107  144.52200317    4.90999985    2.28999996
   11.40194416  143.28100586    4.90999985    2.28999996
   11.40527725  149.00599670    4.90999985    2.28999996
   11.40833282  133.82400513    4.90999985    2.28999996
   11.41166592  142.57800293    4.90999985    2.28999996
   11.41499996  150.26699829    4.90999985    2.28999996
   11.41805553  142.45899963    4.90999985    2.30999994
   11.42138958  139.70100403    4.90999985    2.28999996
   11.42444515  147.45599365    4.90999985    2.28999996
   11.42666721  137.02799988    4.90999985    2.30999994
   11.42833328  140.23500061    4.90999985    2.28999996
   11.43138885  144.38400269    4.90999985    2.30999994
   11.43472195  135.02999878    4.90999985    2.30999994
   11.43805599  135.02699280    4.90999985    2.30999994
   11.44111156  146.21699524    4.90999985    2.30999994
   11.44444466  144.42599487    4.90999985    2.30999994
   11.44777775  144.91900635    4.90999985    2.30999994
   11.45083332  150.41700745    4.90999985    2.30999994
   11.45416641  146.52099609    4.90999985    2.30999994
   11.45722198  149.05099487    4.90999985    2.30999994
   11.46000004  157.85400391    4.90999985    2.30999994
   11.46111107  143.25900269    4.90999985    2.30999994
   11.46416664  145.90899658    4.90999985    2.30999994
   11.46749973  167.31599426    4.90999985    2.32999992
   11.47083282  158.07200623    4.90999985    2.32999992
   11.47388840  159.14199829    4.90999985    2.32999992
   11.47722149  164.94999695    4.90999985    2.32999992
   11.48055553  149.70199585    4.90999985    2.32999992
   11.48361111  147.36500549    4.90999985    2.32999992
   11.48694515  149.77699280    4.90999985    2.32999992
   11.49000072  151.77900696    4.90999985    2.32999992
   11.49333382  146.71400452    4.90999985    2.32999992
   11.49388885  150.82200623    4.90999985    2.32999992
   11.49694443  151.69200134    4.90999985    2.34999990
   11.50027752  141.78799438    4.90999985    2.34999990
   11.50361156  151.21200562    4.90999985    2.32999992
   11.50666714  135.20399475    4.90999985    2.32999992
   11.51000023  146.71299744    4.90999985    2.32999992
   11.51333332  131.59199524    4.90999985    2.34999990
   11.51638889  136.94299316    4.90999985    2.34999990
   11.51972198  148.81399536    4.90999985    2.32999992
   11.52277756  149.22599792    4.90999985    2.34999990
   11.52611065  152.45799255    4.90999985    2.34999990
   11.54333401  133.56900024    4.90999985    2.34999990
   11.54611111  157.68899536    4.90999985    2.34999990
   11.54944515  157.25999451    4.90999985    2.34999990
   11.55249977  139.19999695    4.90999985    2.34999990
   11.55583382  145.00199890    4.90999985    2.34999990
   11.55916691  132.27999878    4.90999985    2.34999990
   11.56222248  130.68099976    4.90999985    2.34999990
   11.56555557  138.62300110    4.90999985    2.36999989
   11.56888866  132.81100464    4.90999985    2.36999989
   11.57194424  132.32800293    4.90999985    2.36999989
   11.57527733  136.37100220    4.90999985    2.36999989
   11.57638836  147.12199402    4.90999985    2.34999990
   11.57888889  130.92999268    4.90999985    2.36999989
   11.58194447  151.02699280    4.90999985    2.36999989
   11.58527756  153.55499268    4.90999985    2.36999989
   11.58861065  143.80799866    4.90999985    2.36999989
   11.59166622  144.77900696    4.90999985    2.36999989
   11.59499931  152.39900208    4.90999985    2.36999989
   11.59833336  145.70100403    4.90999985    2.36999989
   11.60138893  145.01400757    4.90999985    2.36999989
   11.60472298  135.63800049    4.90999985    2.36999989
   11.60777855  146.25599670    4.90999985    2.36999989
   11.60972214  140.39900208    4.90999985    2.36999989
   11.61166668  132.14199829    4.90999985    2.36999989
   11.61472225  138.77299500    4.90999985    2.36999989
   11.61805534  134.03500366    4.90999985    2.36999989
   11.62138939  146.63800049    4.90999985    2.36999989
   11.62444496  133.22500610    4.90999985    2.36999989
   11.62777805  138.10699463    4.90999985    2.39000010
   11.63111115  133.94299316    4.90999985    2.39000010
   11.63416672  131.95300293    4.90999985    2.39000010
   11.63749981  129.85400391    4.90999985    2.39000010
   11.64055538  138.47200012    4.90999985    2.36999989
   11.64305496  146.01300049    4.90999985    2.39000010
   11.64444447  143.71200562    4.90999985    2.39000010
   11.64750004  137.94299316    4.90999985    2.39000010
   11.65083313  136.00399780    4.90999985    2.39000010
   11.65416622  134.69799805    4.90999985    2.39000010
   11.65722179  140.03100586    4.90999985    2.39000010
   11.66055489  136.28900146    4.90999985    2.39000010
   11.66388893  133.49899292    4.90999985    2.39000010
   11.66694450  139.31300354    4.90999985    2.39000010
   11.67027855  136.25300598    4.90999985    2.39000010
   11.67333412  128.58599854    4.90999985    2.39000010
   11.67638874  134.53700256    4.90999985    2.40000010
   11.67722225  133.10000610    4.90999985    2.40000010
   11.68027782  126.60600281    4.90999985    2.40000010
   11.68361092  129.32299805    4.90999985    2.39000010
   11.68694496  127.03700256    4.90999985    2.39000010
   11.69000053  125.08200073    4.90999985    2.40000010
   11.69333363  128.55999756    4.90999985    2.40000010
   11.69666672  142.46600342    4.90999985    2.40000010
   11.69972229  129.91000366    4.90999985    2.40000010
   11.70305538  140.83900452    4.90999985    2.40000010
   11.70638847  135.77499390    4.90999985    2.40000010
   11.70944405  132.50900269    4.90999985    2.40000010
   11.71000004  133.36700439    4.90999985    2.40000010
   11.71333313  133.12300110    4.90999985    2.40000010
   11.71638870  125.99800110    4.90999985    2.40000010
   11.71972179  129.97399902    4.90999985    2.40000010
   11.72305489  134.60499573    4.90999985    2.40000010
   11.72611046  135.68600464    4.90999985    2.40000010
   11.72944355  128.64700317    4.90999985    2.40000010
   11.73249912  133.37699890    4.90999985    2.40000010
   11.73583317  121.81700134    4.90999985    2.42000008
   11.73916721  123.98699951    4.90999985    2.42000008
   11.74222279  123.58899689    4.90999985    2.42000008
   11.74333382  124.95700073    4.90999985    2.42000008
   11.74583340  127.95700073    4.90999985    2.40000010
   11.74888897  129.74499512    4.90999985    2.40000010
   11.75222206  141.61599731    4.90999985    2.42000008
   11.75555515  133.07400513    4.90999985    2.40000010
   11.75861073  131.83799744    4.90999985    2.40000010
   11.76194477  133.32000732    4.90999985    2.42000008
   11.76500034  136.38900757    4.90999985    2.40000010
   11.76833344  132.15499878    4.90999985    2.42000008
   11.77166653  132.31399536    4.90999985    2.42000008
   11.77472210  132.26300049    4.90999985    2.40000010
   11.77666664  125.71600342    4.90999985    2.40000010
   11.77861118  130.60899353    4.90999985    2.42000008
   11.78166676  124.51799774    4.90999985    2.40000010
   11.78500080  128.04800415    4.90999985    2.42000008
   11.78833389  128.86500549    4.90999985    2.42000008
   11.79138947  123.65899658    4.90999985    2.40000010
   11.79472256  129.83099365    4.90999985    2.42000008
   11.79777813  126.71700287    4.90999985    2.42000008
   11.80111122  126.06099701    4.90999985    2.42000008
   11.80444431  129.47599792    4.90999985    2.42000008
   11.80749989  125.53600311    4.90999985    2.44000006
   11.81000042  124.59700012    4.90999985    2.44000006
   11.81138897  120.69599915    4.90999985    2.42000008
   11.81444454  127.96800232    4.90999985    2.44000006
   11.81777763  137.67399597    4.90999985    2.44000006
   11.82111073  136.80400085    4.90999985    2.42000008
   11.82416630  135.18299866    4.90999985    2.42000008
   11.82750034  130.66400146    4.90999985    2.44000006
   11.83083344  136.93499756    4.90999985    2.44000006
   11.83388901  137.53999329    4.90999985    2.44000006
   11.83722210  133.29600525    4.90999985    2.44000006
   11.84027767  132.12600708    4.90999985    2.44000006
   11.84333324  126.59400177    4.90999985    2.44000006
   11.84416676  128.75100708    4.90999985    2.44000006
   11.84722233  133.45599365    4.90999985    2.44000006
   11.85055637  127.09400177    4.90999985    2.44000006
   11.85388947  127.85800171    4.90999985    2.44000006
   11.85694504  124.80000305    4.90999985    2.44000006
   11.86027813  121.37599945    4.90999985    2.44000006
   11.86361122  122.09300232    4.90999985    2.44000006
   11.86666679  117.65000153    4.90999985    2.44000006
   11.86999989  120.90100098    4.90999985    2.44000006
   11.87333393  131.73199463    4.90999985    2.44000006
   11.87638855  130.07699585    4.90999985    2.44000006
   11.87694454  122.88899994    4.90999985    2.44000006
   11.88055611  127.59200287    4.90999985    2.44000006
   11.88361073  130.19799805    4.90999985    2.44000006
   11.88694477  126.66799927    4.90999985    2.44000006
   11.89027786  125.92299652    4.90999985    2.46000004
   11.89333344  127.06600189    4.90999985    2.46000004
   11.89666653  128.03900146    4.90999985    2.44000006
   11.89972210  127.49199677    4.90999985    2.44000006
   11.90305519  127.85399628    4.90999985    2.46000004
   11.90638828  123.11100006    4.90999985    2.46000004
   11.90944386  121.76799774    4.90999985    2.46000004
   11.91027737  121.72699738    4.90999985    2.46000004
   11.91333294  122.12100220    4.90999985    2.46000004
   11.91638851  121.69000244    4.90999985    2.46000004
   11.91972256  117.58899689    4.90999985    2.46000004
   11.92305565  114.43900299    4.90999985    2.46000004
   11.92611122  119.73799896    4.90999985    2.44000006
   11.92944431  127.15799713    4.90999985    2.46000004
   11.93277836  124.86900330    4.90999985    2.46000004
   11.93583298  124.37799835    4.90999985    2.46000004
   11.93916702  126.33399963    4.90999985    2.46000004
   11.94222260  127.21499634    4.90999985    2.48000002
   11.94361115  126.18000031    4.90999985    2.46000004
   11.94611073  127.29399872    4.90999985    2.46000004
   11.94916630  128.39399719    4.90999985    2.48000002
   11.95249939  127.43399811    4.90999985    2.46000004
   11.95583344  125.76200104    4.90999985    2.46000004
   11.95888901  125.76699829    4.90999985    2.46000004
   11.96222210  125.79499817    4.90999985    2.46000004
   11.96527767  122.18699646    4.90999985    2.48000002
   11.96861076  121.09100342    4.90999985    2.48000002
   11.97194386  129.48399353    4.90999985    2.46000004
   11.97499943  122.01399994    4.90999985    2.48000002
   11.97694397  116.71299744    4.90999985    2.46000004
   11.97888851  125.70500183    4.90999985    2.48000002
   11.98194408  117.63700104    4.90999985    2.46000004
   11.98527813  119.90200043    4.90999985    2.46000004
   11.98861122  117.99299622    4.90999985    2.46000004
   11.99166679  124.85800171    4.90999985    2.46000004
   11.99499989  119.90499878    4.90999985    2.46000004
   11.99805546  119.44699860    4.90999985    2.48000002
   12.00138855  114.70999908    4.90999985    2.46000004
   12.00472260  127.06199646    4.90999985    2.48000002
   12.00777817  125.60800171    4.90999985    2.48000002
   12.01027775  120.51399994    4.90999985    2.48000002
   12.01166630  127.19799805    4.90999985    2.48000002
   12.01472187  122.19400024    4.90999985    2.48000002
   12.01805496  124.10500336    4.90999985    2.48000002
   12.02138901  127.12999725    4.90999985    2.48000002
   12.02444458  125.27100372    4.90999985    2.48000002
   12.02777767  127.27100372    4.90999985    2.48000002
   12.03083324  125.68499756    4.90999985    2.48000002
   12.03416729  122.33300018    4.90999985    2.48000002
   12.03750038  116.77500153    4.90999985    2.48000002
   12.04055595  122.94999695    4.90999985    2.50000000
   12.04361153  116.15399933    4.90999985    2.48000002
   12.04444504  116.33300018    4.90999985    2.48000002
   12.04750061  107.38099670    4.90999985    2.48000002
   12.05083370  117.10500336    4.90999985    2.50000000
   12.05416679  113.01300049    4.90999985    2.48000002
   12.05722237  114.40499878    4.90999985    2.50000000
   12.06055546  111.64499664    4.90999985    2.48000002
   12.06361103  115.69499969    4.90999985    2.48000002
   12.06694412  115.80100250    4.90999985    2.50000000
   12.07027817  117.77200317    4.90999985    2.48000002
   12.07333374  129.50000000    4.90999985    2.48000002
   12.07666683  122.93000031    4.90999985    2.50000000
   12.07722187  119.27799988    4.90999985    2.50000000
   12.08027744  125.92400360    4.90999985    2.48000002
   12.08361053  119.65100098    4.90999985    2.50000000
   12.08694458  124.41200256    4.90999985    2.48000002
   12.09000015  123.03900146    4.90999985    2.48000002
   12.09333324  116.58799744    4.90999985    2.48000002
   12.09638882  120.84200287    4.90999985    2.50000000
   12.09972191  120.38899994    4.90999985    2.48000002
   12.10305595  118.14099884    4.90999985    2.48000002
   12.10611153  118.67199707    4.90999985    2.50000000
   12.10944462  119.57399750    4.90999985    2.50000000
   12.11055565  119.78299713    4.90999985    2.48000002
   12.11277771  119.26399994    4.90999985    2.48000002
   12.11611176  117.94599915    4.90999985    2.50000000
   12.11944485  121.72599792    4.90999985    2.50000000
   12.12250042  117.10800171    4.90999985    2.50000000
   12.12583351  113.71199799    4.90999985    2.50000000
   12.12888908  120.25399780    4.90999985    2.50000000
   12.13222218  116.52100372    4.90999985    2.51999998
   12.13555527  116.94999695    4.90999985    2.50000000
   12.13861084  121.45999908    4.90999985    2.50000000
   12.14194393  108.91899872    4.90999985    2.51999998
   12.14388847  115.11499786    4.90999985    2.50000000
   12.14555550  114.33599854    4.90999985    2.50000000
   12.14888859  127.25599670    4.90999985    2.50000000
   12.15222168  120.85500336    4.90999985    2.51999998
   12.15527725  118.48500061    4.90999985    2.51999998
   12.15861034  120.76799774    4.90999985    2.50000000
   12.16166592  119.98400116    4.90999985    2.50000000
   12.16499996  118.80500031    4.90999985    2.51999998
   12.16833401  125.10399628    4.90999985    2.48000002
   12.17138958  121.62300110    4.90999985    2.51999998
   12.17472267  118.01300049    4.90999985    2.51999998
   12.17722225  120.53700256    4.90999985    2.51999998
   12.17833328  115.69000244    4.90999985    2.51999998
   12.18166733  112.11799622    4.90999985    2.51999998
   12.18500042  120.59799957    4.90999985    2.51999998
   12.18805599  122.51999664    4.90999985    2.51999998
   12.19138908  119.47599792    4.90999985    2.51999998
   12.19472218  115.30999756    4.90999985    2.51999998
   12.19777775  117.88400269    4.90999985    2.51999998
   12.20111084  114.28900146    4.90999985    2.50000000
   12.20416641  117.30899811    4.90999985    2.51999998
   12.20749950  113.85399628    4.90999985    2.51999998
   12.21055508  110.13800049    4.90999985    2.51999998
   12.21111107  114.91100311    4.90999985    2.51999998
   12.21444416  118.49600220    4.90999985    2.51999998
   12.21777725  117.94899750    4.90999985    2.51999998
   12.22083282  123.95400238    4.90999985    2.51999998
   12.22416592  122.56300354    4.90999985    2.51999998
   12.22749996  125.03500366    4.90999985    2.51999998
   12.23055553  120.82199860    4.90999985    2.51999998
   12.23388958  120.16999817    4.90999985    2.51999998
   12.23694515  121.89800262    4.90999985    2.51999998
   12.24027824  121.22599792    4.90999985    2.51999998
   12.24361134  120.85099792    4.90999985    2.51999998
   12.24388885  118.67600250    4.90999985    2.51999998
   12.24722290  114.60600281    4.90999985    2.53999996
   12.25055599  115.40200043    4.90999985    2.53999996
   12.25361156  114.29599762    4.90999985    2.53999996
   12.25694466  115.11199951    4.90999985    2.53999996
   12.26027775  114.33300018    4.90999985    2.53999996
   12.26333332  112.98100281    4.90999985    2.51999998
   12.26666641  111.54399872    4.90999985    2.51999998
   12.26972198  110.40599823    4.90999985    2.51999998
   12.27305508  118.28199768    4.90999985    2.53999996
   12.27638817  121.12300110    4.90999985    2.53999996
   12.27722168  116.87799835    4.90999985    2.53999996
   12.27972221  119.19899750    4.90999985    2.53999996
   12.28305531  119.68499756    4.90999985    2.53999996
   12.28611183  113.99299622    4.90999985    2.53999996
   12.28944492  114.96700287    4.90999985    2.53999996
   12.29277802  115.24099731    4.90999985    2.53999996
   12.29583359  114.99400330    4.90999985    2.53999996
   12.29916668  111.11499786    4.90999985    2.53999996
   12.30249977  120.76300049    4.90999985    2.53999996
   12.30555534  115.89499664    4.90999985    2.53999996
   12.30888939  116.97699738    4.90999985    2.55999994
   12.31083393  114.64099884    4.90999985    2.53999996
   12.31250000  110.21099854    4.90999985    2.53999996
   12.31583309  112.31900024    4.90999985    2.53999996
   12.31888866  122.32700348    4.90999985    2.53999996
   12.32222176  114.10199738    4.90999985    2.53999996
   12.32555580  114.36699677    4.90999985    2.53999996
   12.32861137  108.83200073    4.90999985    2.53999996
   12.33194447  114.08899689    4.90999985    2.53999996
   12.33527756  108.95500183    4.90999985    2.53999996
   12.33833313  113.27999878    4.90999985    2.53999996
   12.34166622  115.41100311    4.90999985    2.55999994
   12.34416676  119.21499634    4.90999985    2.55999994
   12.34527779  119.55200195    4.90999985    2.55999994
   12.34861088  125.13500214    4.90999985    2.55999994
   12.35166740  124.07599640    4.90999985    2.55999994
   12.35500050  109.42400360    4.90999985    2.55999994
   12.35833359  115.82399750    4.90999985    2.55999994
   12.36138916  114.97499847    4.90999985    2.55999994
   12.36472225  116.42299652    4.90999985    2.55999994
   12.36805534  116.93599701    4.90999985    2.55999994
   12.37111092  116.62000275    4.90999985    2.55999994
   12.37444496  118.44400024    4.90999985    2.55999994
   12.37750053  113.08399963    4.90999985    2.55999994
   12.37805557  116.64099884    4.90999985    2.55999994
   12.38138866  113.72100067    4.90999985    2.55999994
   12.38444424  104.36599731    4.90999985    2.55999994
   12.38777733  112.94400024    4.90999985    2.55999994
   12.39111137  112.23699951    4.90999985    2.55999994
   12.39416695  112.60399628    4.90999985    2.55999994
   12.39750004  111.47799683    4.90999985    2.55999994
   12.40055561  109.00099945    4.90999985    2.55999994
   12.40388870  119.53299713    4.90999985    2.55999994
   12.40722179  120.49600220    4.90999985    2.55999994
   12.41027737  121.74199677    4.90999985    2.55999994
   12.41083336  120.75099945    4.90999985    2.55999994
   12.41388893  120.80799866    4.90999985    2.55999994
   12.41694450  115.91600037    4.90999985    2.55999994
   12.42027855  116.44799805    4.90999985    2.55999994
   12.42361164  110.49700165    4.90999985    2.55999994
   12.42666721  116.47699738    4.90999985    2.55999994
   12.43000031  120.19400024    4.90999985    2.55999994
   12.43305588  117.92400360    4.90999985    2.55999994
   12.43638897  112.33799744    4.90999985    2.55999994
   12.43972206  115.19200134    4.90999985    2.55999994
   12.44277763  114.11299896    4.90999985    2.55999994
   12.44416714  114.91500092    4.90999985    2.55999994
   12.44666672  113.26499939    4.90999985    2.55999994
   12.44972229  115.01699829    4.90999985    2.57999992
   12.45305538  112.62200165    4.90999985    2.55999994
   12.45638847  117.01499939    4.90999985    2.55999994
   12.45944405  107.69999695    4.90999985    2.55999994
   12.46277714  111.47599792    4.90999985    2.55999994
   12.46583271  109.83599854    4.90999985    2.55999994
   12.46916580  109.34400177    4.90999985    2.55999994
   12.47249985  108.16799927    4.90999985    2.55999994
   12.47555542  106.50900269    4.90999985    2.57999992
   12.47749996  115.20800018    4.90999985    2.57999992
   12.47944355  119.48500061    4.90999985    2.57999992
   12.48249912  119.83799744    4.90999985    2.57999992
   12.48583317  118.24900055    4.90999985    2.57999992
   12.48916721  119.34200287    4.90999985    2.57999992
   12.49222279  118.76399994    4.90999985    2.57999992
   12.49555588  116.81900024    4.90999985    2.57999992
   12.49888897  114.90200043    4.90999985    2.57999992
   12.50194454  118.50299835    4.90999985    2.55999994
   12.50527763  114.62799835    4.90999985    2.57999992
   12.50833321  112.16799927    4.90999985    2.57999992
   12.51083374  117.35099792    4.90999985    2.57999992
   12.51222229  117.80899811    4.90999985    2.55999994
   12.51527786  110.23300171    4.90999985    2.57999992
   12.51861095  112.99600220    4.90999985    2.55999994
   12.52194405  112.53600311    4.90999985    2.57999992
   12.52527714  110.95899963    4.90999985    2.57999992
   12.52861118  113.55200195    4.90999985    2.57999992
   12.53194427  111.14299774    4.90999985    2.57999992
   12.53500080  110.31099701    4.90999985    2.57999992
   12.53833389  112.71800232    4.90999985    2.57999992
   12.54138947  109.51799774    4.90999985    2.59999990
   12.55972195  118.87899780    4.90999985    2.59999990
   12.56138897  121.59600067    4.90999985    2.57999992
   12.56444454  120.35299683    4.90999985    2.59999990
   12.56777763  117.58799744    4.90999985    2.59999990
   12.57111073  115.44799805    4.90999985    2.55999994
   12.57416630  116.87400055    4.90999985    2.59999990
   12.57750034  116.75800323    4.90999985    2.59999990
   12.58083344  116.87799835    4.90999985    2.59999990
   12.58388901  115.69000244    4.90999985    2.57999992
   12.58722210  119.81300354    4.90999985    2.59999990
   12.59027767  113.16200256    4.90999985    2.59999990
   12.59305477  118.25099945    4.90999985    2.59999990
   12.59388828  118.08499908    4.90999985    2.59999990
   12.59722233  114.25000000    4.90999985    2.59999990
   12.60055637  113.00700378    4.90999985    2.59999990
   12.60361195  114.11299896    4.90999985    2.59999990
   12.60694504  109.61000061    4.90999985    2.59999990
   12.61027813  112.81400299    4.90999985    2.59999990
   12.61333370  110.93800354    4.90999985    2.59999990
   12.61666679  114.04499817    4.90999985    2.59999990
   12.61972237  110.01100159    4.90999985    2.59999990
   12.62305546  122.54699707    4.90999985    2.59999990
   12.62638855  118.70200348    4.90999985    2.59999990
   12.62694454  118.96900177    4.90999985    2.59999990
   12.63000011  118.23699951    4.90999985    2.59999990
   12.63333321  117.33300018    4.90999985    2.59999990
   12.63666630  116.46600342    4.90999985    2.59999990
   12.63972187  120.04199982    4.90999985    2.59999990
   12.64305496  116.11199951    4.90999985    2.59999990
   12.64611053  112.00599670    4.90999985    2.59999990
   12.64944458  115.60700226    4.90999985    2.59999990
   12.65277767  114.45800018    4.90999985    2.59999990
   12.65583324  111.95500183    4.90999985    2.59999990
   12.65916634  113.39099884    4.90999985    2.59999990
   12.65972137  109.11399841    4.90999985    2.59999990
   12.66277695  112.04399872    4.90999985    2.59999990
   12.66583252  110.59100342    4.90999985    2.59999990
   12.66916656  112.34700012    4.90999985    2.61999989
   12.67250061  110.13999939    4.90999985    2.59999990
   12.67555618  107.22100067    4.90999985    2.59999990
   12.67888927  109.28299713    4.90999985    2.59999990
   12.68222237  102.45800018    4.90999985    2.59999990
   12.68527794  116.48100281    4.90999985    2.61999989
   12.68861103  122.90299988    4.90999985    2.59999990
   12.69166660  119.17700195    4.90999985    2.61999989
   12.69305515  124.23999786    4.90999985    2.59999990
   12.69555569  116.10199738    4.90999985    2.59999990
   12.69861126  117.80899811    4.90999985    2.59999990
   12.70194435  117.39199829    4.90999985    2.61999989
   12.70527744  113.66400146    4.90999985    2.61999989
   12.70833302  117.48999786    4.90999985    2.61999989
   12.71166611  126.20400238    4.90999985    2.61999989
   12.71500015  120.73500061    4.90999985    2.61999989
   12.71805477  115.41699982    4.90999985    2.61999989
   12.72138882  111.37400055    4.90999985    2.61999989
   12.72472191  112.46800232    4.90999985    2.61999989
   12.72638798  114.50199890    4.90999985    2.61999989
   12.72833252  114.49400330    4.90999985    2.61999989
   12.73138809  112.51999664    4.90999985    2.61999989
   12.73472214  112.82199860    4.90999985    2.64000010
   12.73805618  113.77300262    4.90999985    2.61999989
   12.74111176  107.96099854    4.90999985    2.61999989
   12.74444485  105.31199646    4.90999985    2.61999989
   12.74777794  107.82599640    4.90999985    2.64000010
   12.75083351  110.73500061    4.90999985    2.61999989
   12.75416660  116.19899750    4.90999985    2.61999989
   12.75722218  119.09999847    4.90999985    2.64000010
   12.75972176  119.72100067    4.90999985    2.61999989
   12.76111126  120.28700256    4.90999985    2.61999989
   12.76416683  120.26699829    4.90999985    2.61999989
   12.76749992  115.70500183    4.90999985    2.61999989
   12.77083302  113.62200165    4.90999985    2.61999989
   12.77388859  115.78199768    4.90999985    2.61999989
   12.77722168  114.92700195    4.90999985    2.59999990
   12.78055573  113.07299805    4.90999985    2.61999989
   12.78361130  113.94000244    4.90999985    2.61999989
   12.78694534  116.88300323    4.90999985    2.61999989
   12.79000092  112.21299744    4.90999985    2.61999989
   12.79305553  113.73999786    4.90999985    2.64000010
   12.79388905  105.31500244    4.90999985    2.64000010
   12.79694462  108.24500275    4.90999985    2.61999989
   12.80027771  114.61900330    4.90999985    2.61999989
   12.80361176  113.69799805    4.90999985    2.64000010
   12.80666733  111.37100220    4.90999985    2.64000010
   12.81000042  110.61799622    4.90999985    2.64000010
   12.81333351  113.18199921    4.90999985    2.64000010
   12.81638908  113.24700165    4.90999985    2.61999989
   12.81972218  111.13400269    4.90999985    2.61999989
   12.82277775  109.47799683    4.90999985    2.61999989
   12.82611084  115.52899933    4.90999985    2.64000010
   12.82666683  122.47000122    4.90999985    2.64000010
   12.82972240  119.63899994    4.90999985    2.61999989
   12.83305550  117.73799896    4.90999985    2.61999989
   12.83638859  117.55200195    4.90999985    2.61999989
   12.83944416  119.49500275    4.90999985    2.64000010
   12.84277725  119.86799622    4.90999985    2.64000010
   12.84611034  113.82199860    4.90999985    2.64000010
   12.84916592  118.07900238    4.90999985    2.64000010
   12.85249996  113.68000031    4.90999985    2.64000010
   12.85555553  116.50099945    4.90999985    2.64000010
   12.85888958  115.64099884    4.90999985    2.64000010
   12.86000061  115.40699768    4.90999985    2.64000010
   12.86250019  116.11599731    4.90999985    2.64000010
   12.86555576  117.50299835    4.90999985    2.64000010
   12.86888885  116.35800171    4.90999985    2.64000010
   12.87194443  110.69400024    4.90999985    2.64000010
   12.87527752  117.28900146    4.90999985    2.64000010
   12.87861156  113.66999817    4.90999985    2.64000010
   12.88194466  109.89399719    4.90999985    2.61999989
   12.88500023  108.89199829    4.90999985    2.64000010
   12.88833332  106.70200348    4.90999985    2.61999989
   12.89138889  104.58899689    4.90999985    2.66000009
   12.89333344  114.27600098    4.90999985    2.64000010
   12.89499950  112.08200073    4.90999985    2.64000010
   12.89833355  117.54000092    4.90999985    2.64000010
   12.90166664  119.10099792    4.90999985    2.64000010
   12.90472221  118.27799988    4.90999985    2.64000010
   12.90805531  119.60800171    4.90999985    2.64000010
   12.91138840  115.97100067    4.90999985    2.64000010
   12.91444397  118.77799988    4.90999985    2.64000010
   12.91777802  115.66200256    4.90999985    2.64000010
   12.92083359  117.62300110    4.90999985    2.64000010
   12.92416668  116.94799805    4.90999985    2.64000010
   12.92666721  118.26899719    4.90999985    2.64000010
   12.92805576  108.63099670    4.90999985    2.64000010
   12.93111134  109.78800201    4.90999985    2.64000010
   12.93444443  113.03399658    4.90999985    2.66000009
   12.93750000  115.17800140    4.90999985    2.64000010
   13.04722309   -1.00000000   -1.00000000   -1.00000000
   13.14388847   -1.00000000   -1.00000000   -1.00000000
   13.24527836   -1.00000000   -1.00000000   -1.00000000
   13.27416611   69.66049957    4.90999985    2.67000008
   13.27722168  114.62899780    4.90999985    2.67000008
   13.28055573  120.84200287    4.90999985    2.69000006
   13.28388977  117.08699799    4.90999985    2.67000008
   13.28694534  118.60900116    4.90999985    2.67000008
   13.29027843  121.24600220    4.90999985    2.67000008
   13.29444504  121.24600220    4.90999985    2.67000008
   13.29833412  114.06900024    4.90999985    2.67000008
   13.30166721  114.29399872    4.90999985    2.67000008
   13.30500031  108.16899872    4.90999985    2.69000006
   13.30749989  114.00099945    4.90999985    2.69000006
   13.30833340  114.33200073    4.90999985    2.69000006
   13.31166649  112.24700165    4.90999985    2.67000008
   13.31500053  112.73200226    4.90999985    2.69000006
   13.31805515  110.30799866    4.90999985    2.67000008
   13.32138920  110.47599792    4.90999985    2.69000006
   13.32444477  111.40699768    4.90999985    2.67000008
   13.32777786  109.95200348    4.90999985    2.67000008
   13.33111095  107.78900146    4.90999985    2.69000006
   13.33722210  107.78900146    4.90999985    2.67000008
   13.34138870  113.43299866    4.90999985    2.71000004
   13.34444427  117.51699829    4.90999985    2.67000008
   13.34777737  123.26599884    4.90999985    2.69000006
   13.35111141  118.65499878    4.90999985    2.69000006
   13.35416698  111.44699860    4.90999985    2.69000006
   13.35750008  116.59999847    4.90999985    2.71000004
   13.36055565  113.90499878    4.90999985    2.69000006
   13.36388969  111.62699890    4.90999985    2.69000006
   13.36722279  115.75000000    4.90999985    2.71000004
   13.37027836  116.34899902    4.90999985    2.69000006
   13.37361145  113.54299927    4.90999985    2.69000006
   13.37416649  114.55999756    4.90999985    2.69000006
   13.38000011  114.55999756    4.90999985    2.69000006
   13.38416672  116.85399628    4.90999985    2.69000006
   13.38749981  110.05000305    4.90999985    2.69000006
   13.39055538  114.82199860    4.90999985    2.69000006
   13.39388847  110.12300110    4.90999985    2.69000006
   13.39694405  107.13300323    4.90999985    2.71000004
   13.40027714  114.23100281    4.90999985    2.69000006
   13.40361118  111.13600159    4.90999985    2.71000004
   13.40666676  108.96499634    4.90999985    2.69000006
   13.40749931  115.59100342    4.90999985    2.69000006
   13.41027737  118.17299652    4.90999985    2.69000006
   13.41361046  118.09300232    4.90999985    2.71000004
   13.41694450  122.45099640    4.90999985    2.69000006
   13.42277813  122.45099640    4.90999985    2.71000004
   13.42694473  123.38600159    4.90999985    2.69000006
   13.43027782  118.23699951    4.90999985    2.69000006
   13.43333340  121.10900116    4.90999985    2.69000006
   13.43666649  117.72899628    4.90999985    2.71000004
   13.44000053  117.46199799    4.90999985    2.69000006
   13.44083309  116.60399628    4.90999985    2.71000004
   13.44333363  120.42400360    4.90999985    2.71000004
   13.44666672  119.06500244    4.90999985    2.69000006
   13.44999981  118.18699646    4.90999985    2.69000006
   13.45305538  104.91600037    4.90999985    2.71000004
   13.45638847  117.45700073    4.90999985    2.71000004
   13.45972157  115.75299835    4.90999985    2.71000004
   13.46583271  115.75299835    4.90999985    2.69000006
   13.46999931  116.46099854    4.90999985    2.71000004
   13.47305489  112.60399628    4.90999985    2.69000006
   13.47416592  114.91400146    4.90999985    2.71000004
   13.47666645  112.33999634    4.90999985    2.71000004
   13.47999954  112.13200378    4.90999985    2.71000004
   13.48333359  120.29299927    4.90999985    2.69000006
   13.48638916  114.89499664    4.90999985    2.71000004
   13.48972225  112.60399628    4.90999985    2.71000004
   13.49305534  108.01599884    4.90999985    2.71000004
   13.49611092  124.31500244    4.90999985    2.71000004
   13.49944496  118.81300354    4.90999985    2.69000006
   13.50249958  117.03600311    4.90999985    2.71000004
   13.50861073  117.03600311    4.90999985    2.71000004
   13.51277733  115.43199921    4.90999985    2.69000006
   13.51583290  121.61499786    4.90999985    2.71000004
   13.51916599  113.90799713    4.90999985    2.69000006
   13.52250004  110.86599731    4.90999985    2.71000004
   13.52555561  115.15100098    4.90999985    2.69000006
   13.52888870  114.06600189    4.90999985    2.69000006
   13.53222179  116.39800262    4.90999985    2.69000006
   13.53527832  115.44400024    4.90999985    2.71000004
   13.53861141  110.40399933    4.90999985    2.71000004
   13.54083347  111.93199921    4.90999985    2.71000004
   13.54222298  112.11499786    4.90999985    2.71000004
   13.54555607  108.37599945    4.90999985    2.69000006
   13.55138874  108.37599945    4.90999985    2.71000004
   13.55555534  122.59899902    4.90999985    2.71000004
   13.55888939  122.20200348    4.90999985    2.71000004
   13.56194496  117.15100098    4.90999985    2.69000006
   13.56527805  115.65399933    4.90999985    2.69000006
   13.56861115  117.62200165    4.90999985    2.71000004
   13.57166672  114.88800049    4.90999985    2.69000006
   13.57416630  117.53900146    4.90999985    2.69000006
   13.57527733  115.63400269    4.90999985    2.69000006
   13.57861137  118.12999725    4.90999985    2.69000006
   13.58194447  120.26899719    4.90999985    2.71000004
   13.58500004  119.11900330    4.90999985    2.71000004
   13.58833313  116.02799988    4.90999985    2.71000004
   13.59416676  116.02799988    4.90999985    2.71000004
   13.59833336  116.69599915    4.90999985    2.71000004
   13.60166740  110.16899872    4.90999985    2.69000006
   13.60500050  117.20899963    4.90999985    2.71000004
   13.60750008  107.05999756    4.90999985    2.69000006
   13.60833359  113.34400177    4.90999985    2.71000004
   13.61166668  109.00299835    4.90999985    2.71000004
   13.61500072  109.41500092    4.90999985    2.69000006
   13.61805534  121.20099640    4.90999985    2.71000004
   13.62138939  120.29799652    4.90999985    2.71000004
   13.62472248  120.56900024    4.90999985    2.71000004
   13.62777805  120.05500031    4.90999985    2.71000004
   13.63111115  119.89900208    4.90999985    2.71000004
   13.63722229  119.89900208    4.90999985    2.69000006
   13.64138889  116.21900177    4.90999985    2.69000006
   13.64444447  122.19400024    4.90999985    2.71000004
   13.64777756  119.37899780    4.90999985    2.69000006
   13.65083313  118.18299866    4.90999985    2.71000004
   13.65416622  112.23000336    4.90999985    2.71000004
   13.65749931  112.85399628    4.90999985    2.71000004
   13.66055489  118.00900269    4.90999985    2.71000004
   13.66388893  109.96499634    4.90999985    2.71000004
   13.66722298  111.90000153    4.90999985    2.71000004
   13.67027855  111.51899719    4.90999985    2.71000004
   13.67361164  111.46299744    4.90999985    2.71000004
   13.67416668  110.34899902    4.90999985    2.71000004
   13.68000031  110.34899902    4.90999985    2.71000004
   13.68416691  113.66999817    4.90999985    2.71000004
   13.68722248  115.86699677    4.90999985    2.71000004
   13.69055557  116.18699646    4.90999985    2.71000004
   13.69388866  117.73200226    4.90999985    2.71000004
   13.69694424  117.47399902    4.90999985    2.71000004
   13.70027733  118.08300018    4.90999985    2.71000004
   13.70361137  122.47200012    4.90999985    2.71000004
   13.70666695  119.98699951    4.90999985    2.71000004
   13.70749950  117.75099945    4.90999985    2.71000004
   13.71027756  118.58599854    4.90999985    2.71000004
   13.71361065  119.63300323    4.90999985    2.71000004
   13.71694374  120.41000366    4.90999985    2.71000004
   13.72277737  120.41000366    4.90999985    2.71000004
   13.72694397  116.28600311    4.90999985    2.73000002
   13.73027706  113.77100372    4.90999985    2.71000004
   13.73333359  118.04499817    4.90999985    2.71000004
   13.73666668  112.59899902    4.90999985    2.71000004
   13.74000072  115.69599915    4.90999985    2.73000002
   13.74083328  116.19400024    4.90999985    2.71000004
   13.74361134  116.89199829    4.90999985    2.73000002
   13.74666691  116.92900085    4.90999985    2.73000002
   13.75000000  117.58000183    4.90999985    2.73000002
   13.75305557  114.13500214    4.90999985    2.71000004
   13.75638866  110.22799683    4.90999985    2.73000002
   13.75972176  113.16500092    4.90999985    2.73000002
   13.76555538  113.16500092    4.90999985    2.71000004
   13.76972198  118.92900085    4.90999985    2.71000004
   13.77305508  123.16999817    4.90999985    2.73000002
   13.77416611  115.35900116    4.90999985    2.73000002
   13.77666664  124.63300323    4.90999985    2.73000002
   13.77972221  120.16500092    4.90999985    2.73000002
   13.78305531  117.07199860    4.90999985    2.71000004
   13.78611183  119.64399719    4.90999985    2.71000004
   13.78944492  118.94400024    4.90999985    2.73000002
   13.79277802  121.02500153    4.90999985    2.71000004
   13.79583359  120.97599792    4.90999985    2.73000002
   13.79916668  121.73300171    4.90999985    2.73000002
   13.80249977  109.94899750    4.90999985    2.71000004
   13.80861092  109.94899750    4.90999985    2.73000002
   13.81277752  119.41799927    4.90999985    2.73000002
   13.81583309  120.33499908    4.90999985    2.73000002
   13.81916618  110.68599701    4.90999985    2.71000004
   13.82222176  112.12200165    4.90999985    2.73000002
   13.82555580  115.02400208    4.90999985    2.71000004
   13.82888889  111.31999969    4.90999985    2.73000002
   13.83194447  109.77999878    4.90999985    2.71000004
   13.83527756  112.84700012    4.90999985    2.71000004
   13.83861065  114.33200073    4.90999985    2.73000002
   13.84083271  120.68299866    4.90999985    2.71000004
   13.84222221  119.24600220    4.90999985    2.71000004
   13.84527779  118.98699951    4.90999985    2.73000002
   13.85138893  118.98699951    4.90999985    2.73000002
   13.85555553  117.85399628    4.90999985    2.73000002
   13.85861111  123.68699646    4.90999985    2.71000004
   13.86194515  115.63700104    4.90999985    2.71000004
   13.86527824  119.20800018    4.90999985    2.73000002
   13.86833382  118.99900055    4.90999985    2.73000002
   13.87166691  119.36100006    4.90999985    2.73000002
   13.87416649  117.63400269    4.90999985    2.73000002
   13.87555599  116.14399719    4.90999985    2.73000002
   13.87861156  120.77600098    4.90999985    2.73000002
   13.88194466  111.81900024    4.90999985    2.73000002
   13.88500023  115.04900360    4.90999985    2.75000000
   13.88833332  119.04699707    4.90999985    2.73000002
   13.89416695  119.04699707    4.90999985    2.73000002
   13.89833355  110.95999908    4.90999985    2.73000002
   13.90166664  110.51100159    4.90999985    2.73000002
   13.90472221  107.54399872    4.90999985    2.71000004
   13.90749931  103.98799896    4.90999985    2.73000002
   13.90861034  107.80999756    4.90999985    2.71000004
   13.91166592  113.46299744    4.90999985    2.75000000
   13.91499996  120.28299713    4.90999985    2.73000002
   13.91805553  121.85800171    4.90999985    2.73000002
   13.92138958  119.85099792    4.90999985    2.73000002
   13.92472267  116.87899780    4.90999985    2.73000002
   13.92777824  116.45099640    4.90999985    2.73000002
   13.93111134  114.51300049    4.90999985    2.73000002
   13.93694496  114.51300049    4.90999985    2.73000002
   13.94111156  115.35800171    4.90999985    2.73000002
   13.94444466  114.12500000    4.90999985    2.75000000
   13.94777775  112.00599670    4.90999985    2.73000002
   13.95083332  114.02999878    4.90999985    2.73000002
   13.95416641  109.67600250    4.90999985    2.73000002
   13.95749950  112.17700195    4.90999985    2.73000002
   13.96055508  112.08000183    4.90999985    2.71000004
   13.96388912  113.32099915    4.90999985    2.73000002
   13.96694374  113.79100037    4.90999985    2.75000000
   13.97027779  114.23600006    4.90999985    2.73000002
   13.97361088  111.16400146    4.90999985    2.73000002
   13.97416592  108.76999664    4.90999985    2.73000002
   13.97999954  108.76999664    4.90999985    2.73000002
   13.98416710  117.81700134    4.90999985    2.73000002
   13.98722267  113.44899750    4.90999985    2.73000002
   13.99055576  115.19999695    4.90999985    2.73000002
   13.99361134  118.71099854    4.90999985    2.75000000
   13.99694443  123.33999634    4.90999985    2.75000000
   14.00027752  117.51999664    4.90999985    2.75000000
   14.00333309  114.34200287    4.90999985    2.75000000
   14.00666714  117.35800171    4.90999985    2.75000000
   14.00749969  118.16500092    4.90999985    2.75000000
   14.01027775  118.72299957    4.90999985    2.75000000
   14.01333332  112.86000061    4.90999985    2.75000000
   14.01666641  115.11499786    4.90999985    2.73000002
   14.02277756  115.11499786    4.90999985    2.75000000
   14.02694416  110.14900208    4.90999985    2.75000000
   14.02999973  111.69999695    4.90999985    2.75000000
   14.03333378  118.21700287    4.90999985    2.75000000
   14.03666687  114.51499939    4.90999985    2.75000000
   14.03972244  118.32900238    4.90999985    2.75000000
   14.04083347  113.92299652    4.90999985    2.75000000
   14.04361153  113.05100250    4.90999985    2.75000000
   14.04666710  111.68299866    4.90999985    2.75000000
   14.05000019  121.04199982    4.90999985    2.73000002
   14.05333328  120.91699982    4.90999985    2.75000000
   14.05638885  122.20200348    4.90999985    2.75000000
   14.05972195  120.68299866    4.90999985    2.75000000
   14.06555557  120.68299866    4.90999985    2.75000000
   14.06972218  121.30100250    4.90999985    2.75000000
   14.07305527  122.06999969    4.90999985    2.75000000
   14.07416630  121.54100037    4.90999985    2.75000000
   14.07666683  122.83499908    4.90999985    2.75000000
   14.07972240  120.36499786    4.90999985    2.75000000
   14.08305550  112.50800323    4.90999985    2.75000000
   14.08638859  116.23500061    4.90999985    2.76999998
   14.08944416  118.60800171    4.90999985    2.75000000
   14.09277725  119.02999878    4.90999985    2.75000000
   14.09583282  113.83999634    4.90999985    2.76999998
   14.09916592  117.50800323    4.90999985    2.75000000
   14.10249996  114.12100220    4.90999985    2.75000000
   14.10833359  114.12100220    4.90999985    2.75000000
   14.11250019  113.83599854    4.90999985    2.76999998
   14.11583328  111.20200348    4.90999985    2.76999998
   14.11916637  112.77700043    4.90999985    2.76999998
   14.12222195  108.12200165    4.90999985    2.76999998
   14.12555599  112.04799652    4.90999985    2.76999998
   14.12888908  121.60199738    4.90999985    2.75000000
   14.13194466  123.26999664    4.90999985    2.75000000
   14.13527775  124.39700317    4.90999985    2.75000000
   14.13861084  117.27799988    4.90999985    2.75000000
   14.14083290  120.69599915    4.90999985    2.75000000
   14.14222240  126.89700317    4.90999985    2.76999998
   14.14527798  117.51200104    4.90999985    2.75000000
   14.15138817  117.51200104    4.90999985    2.75000000
   14.15555477  112.86900330    4.90999985    2.76999998
   14.15861034  113.23899841    4.90999985    2.76999998
   14.16194439  113.27999878    4.90999985    2.75000000
   14.16499996  115.30400085    4.90999985    2.76999998
   14.16833401  115.53399658    4.90999985    2.75000000
   14.17166710  115.94899750    4.90999985    2.75000000
   14.17416668  112.26899719    4.90999985    2.76999998
   14.17527771  114.45500183    4.90999985    2.76999998
   14.17833328  109.27899933    4.90999985    2.75000000
   14.18166733  114.01599884    4.90999985    2.86999989
   14.18500042  117.30799866    0.13000000    0.47999999
   14.18805599  113.35900116    0.11000000    0.25999999
   14.19416714  113.35900116    0.11000000    0.01000000
   14.19833374  111.39399719    0.11000000    0.01000000
   14.20138836  115.52300262    0.11000000    0.01000000
   14.20472240  115.22599792    0.11000000    0.01000000
   14.20749950  111.25599670    0.11000000    0.01000000
   14.20833302  110.34999847    0.11000000    0.01000000
   14.21138859  110.65499878    0.11000000    0.01000000
   14.21472168  107.50099945    0.11000000    0.01000000
   14.21805477  108.82700348    0.11000000    0.01000000
   14.22111034  105.58999634    0.11000000    0.01000000
   14.22444439  111.99199677    0.11000000    0.01000000
   14.22749996  112.86699677    0.11000000    0.01000000
   14.23083305  116.95899963    0.11000000    0.01000000
   14.23694515  116.95899963    0.11000000    0.01000000
   14.24111176  111.31999969    0.11000000    0.01000000
   14.24444485  114.27100372    0.11000000    0.01000000
   14.24750042  111.71099854    0.11000000    0.01000000
   14.25083351  116.24600220    0.11000000    0.01000000
   14.25416660  109.13400269    0.11000000    0.01000000
   14.25722218  109.17800140    0.11000000    0.01000000
   14.26055527  114.86299896    0.11000000    0.01000000
   14.26361084  112.56700134    0.11000000    0.01000000
   14.26694393  114.93399811    0.11000000    0.01000000
   14.27027798  114.41400146    0.11000000    0.01000000
   14.27333355  110.80300140    0.11000000    0.01000000
   14.27416611  113.81099701    0.11000000    0.01000000
   14.29500008  113.81099701    0.11000000    0.01000000
   14.29916668  115.65200043    0.11000000    0.01000000
   14.30222225  113.82700348    0.11000000    0.01000000
   14.30555534  115.95400238    0.11000000    0.01000000
   14.30749989  115.93499756    0.11000000    0.01000000
   14.30916691  117.71399689    0.11000000    0.01000000
   14.31250000  116.73600006    0.11000000    0.01000000
   14.31555557  115.20300293    0.11000000    0.01000000
   14.31888866  116.81400299    0.11000000    0.01000000
   14.32194424  112.58000183    0.11000000    0.01000000
   14.32527733  115.47699738    0.11000000    0.01000000
   14.32861137  116.44999695    0.11000000    0.01000000
   14.33166695  106.80699921    0.11000000    0.01000000
   14.33777714  106.80699921    0.11000000    0.01000000
   14.34194374  117.43800354    0.11000000    0.01000000
   14.34499931  108.18499756    0.11000000    0.01000000
   14.34833336  114.91200256    0.11000000    0.01000000
   14.35166740  103.46600342    0.11000000    0.01000000
   14.35472298  114.13300323    0.11000000    0.01000000
   14.35805607  118.04199982    0.11000000    0.01000000
   14.36111164  110.63999939    0.11000000    0.01000000
   14.36444473  107.77400208    0.11000000    0.01000000
   14.36777782  116.38600159    0.11000000    0.01000000
   14.37083340  116.07399750    0.11000000    0.01000000
   14.37416649  110.87999725    0.11000000    0.01000000
   14.37472248  111.98999786    0.11000000    0.01000000
   14.38055611  111.98999786    0.11000000    0.01000000
   14.38472176  109.92299652    0.11000000    0.01000000
   14.38777733  111.87400055    0.11000000    0.01000000
   14.39111137  115.82299805    0.11000000    0.01000000
   14.39444447  111.85700226    0.11000000    0.01000000
   14.39750004  116.70899963    0.11000000    0.01000000
   14.40083313  117.66400146    0.11000000    0.01000000
   14.40416622  111.97299957    0.11000000    0.01000000
   14.40722179  119.30999756    0.11000000    0.01000000
   14.40805531  118.12100220    0.11000000    0.01000000
   14.41083336  117.66500092    0.11000000    0.01000000
   14.41416645  115.03199768    0.11000000    0.01000000
   14.41750050  115.20400238    0.11000000    0.01000000
   14.42333412  115.20400238    0.11000000    0.01000000
   14.42750072  116.68099976    0.11000000    0.01000000
   14.43083382  118.78900146    0.11000000    0.01000000
   14.43388939  113.06199646    0.11000000    0.01000000
   14.43722248  116.44899750    0.11000000    0.01000000
   14.44055557  114.24099731    0.11000000    0.01000000
   14.44138908  115.05999756    0.11000000    0.01000000
   14.44388866  112.34300232    0.11000000    0.01000000
   14.44722271  113.14499664    0.11000000    0.01000000
   14.45055580  113.13899994    0.11000000    0.01000000
   14.45361137  112.07499695    0.11000000    0.01000000
   14.45694447  105.27700043    0.11000000    0.01000000
   14.46027756  113.56800079    0.11000000    0.01000000
   14.46638870  113.56800079    0.11000000    0.01000000
   14.47027779  115.02600098    0.11000000    0.01000000
   14.47361088  117.89800262    0.11000000    0.01000000
   14.47472191  117.55500031    0.11000000    0.01000000
   14.47722149  109.69499969    0.11000000    0.01000000
   14.48055553  110.16000366    0.11000000    0.01000000
   14.48388958  112.15399933    0.11000000    0.01000000
   14.48694515  109.73100281    0.11000000    0.01000000
   14.49027824  110.91400146    0.11000000    0.01000000
   14.49361134  115.08999634    0.11000000    0.01000000
   14.49666691  109.31900024    0.11000000    0.01000000
   14.50000000  112.84200287    0.11000000    0.01000000
   14.50305557  115.07199860    0.11000000    0.01000000
   14.50916672  115.07199860    0.11000000    0.01000000
   14.51333332  117.13500214    0.11000000    0.01000000
   14.51638889  115.59100342    0.11000000    0.01000000
   14.51972198  110.21600342    0.11000000    0.01000000
   14.52277756  111.31500244    0.11000000    0.01000000
   14.52611065  115.69999695    0.11000000    0.01000000
   14.52944374  108.10099792    0.11000000    0.01000000
   14.53249931  106.72699738    0.11000000    0.01000000
   14.53583336  114.80100250    0.11000000    0.01000000
   14.53916740  113.76799774    0.11000000    0.01000000
   14.54138947  115.66200256    0.11000000    0.01000000
   14.54250050  115.01200104    0.11000000    0.01000000
   14.54583359  115.21399689    0.11000000    0.01000000
   14.55194473  115.21399689    0.11000000    0.01000000
   14.55611134  116.70999908    0.11000000    0.01000000
   14.55916691  108.60600281    0.11000000    0.01000000
   14.56250000  117.41899872    0.11000000    0.01000000
   14.56583309  109.67800140    0.11000000    0.01000000
   14.56888866  112.24600220    0.11000000    0.01000000
   14.57222176  114.51999664    0.11000000    0.01000000
   14.57472229  113.22200012    0.11000000    0.01000000
   14.57583332  115.79199982    0.11000000    0.01000000
   14.57916641  113.97200012    0.11000000    0.01000000
   14.58249950  113.72799683    0.11000000    0.01000000
   14.58555508  109.61900330    0.11000000    0.01000000
   14.58888817  111.32499695    0.11000000    0.01000000
   14.59472179  111.32499695    0.11000000    0.01000000
   14.59888840  109.91400146    0.11000000    0.01000000
   14.60222244  109.75199890    0.11000000    0.01000000
   14.60527802  109.90000153    0.11000000    0.01000000
   14.60805607  117.11499786    0.11000000    0.01000000
   14.60888958  118.03900146    0.11000000    0.01000000
   14.61222267  114.90699768    0.11000000    0.01000000
   14.61555576  116.39600372    0.11000000    0.01000000
   14.61861134  114.28600311    0.11000000    0.01000000
   14.62194443  111.13999939    0.11000000    0.01000000
   14.62527752  114.66899872    0.11000000    0.01000000
   14.62833309  116.41200256    0.11000000    0.01000000
   14.63166714  117.09100342    0.11000000    0.01000000
   14.63777733  117.09100342    0.11000000    0.01000000
   14.64166641  105.33699799    0.11000000    0.01000000
   14.64499950  117.06999969    0.11000000    0.01000000
   14.64833355  112.01000214    0.11000000    0.01000000
   14.65138817  109.95200348    0.11000000    0.01000000
   14.65472221  111.65799713    0.11000000    0.01000000
   14.65805531  109.63800049    0.11000000    0.01000000
   14.66111088  110.16799927    0.11000000    0.01000000
   14.66444397  108.28500366    0.11000000    0.01000000
   14.66750050  107.18900299    0.11000000    0.01000000
   14.67083359  107.54000092    0.11000000    0.01000000
   14.67416668  123.59799957    0.11000000    0.01000000
   14.67472267  118.27600098    0.11000000    0.01000000
   14.68055630  118.27600098    0.11000000    0.01000000
   14.68472195  119.59999847    0.11000000    0.01000000
   14.68777752  118.07199860    0.11000000    0.01000000
   14.69111156  123.92099762    0.11000000    0.01000000
   14.69444466  122.01799774    0.11000000    0.01000000
   14.69750023  116.43399811    0.11000000    0.01000000
   14.70083332  116.89499664    0.11000000    0.01000000
   14.70388889  117.57399750    0.11000000    0.01000000
   14.70722198  120.00000000    0.11000000    0.01000000
   14.70805550  117.84300232    0.11000000    0.01000000
   14.71083355  115.31099701    0.11000000    0.01000000
   14.71388912  110.47299957    0.11000000    0.01000000
   14.71722221  109.99500275    0.11000000    0.01000000
   14.72333336  109.99500275    0.11000000    0.01000000
   14.72749996  115.52100372    0.11000000    0.01000000
   14.73083305  114.25700378    0.11000000    0.01000000
   14.73388958  113.31500244    0.11000000    0.01000000
   14.73722267  106.42099762    0.11000000    0.01000000
   14.74027824  111.01999664    0.11000000    0.01000000
   14.74138927  108.01100159    0.11000000    0.01000000
   14.74416733  113.56500244    0.11000000    0.01000000
   14.74722290  114.93800354    0.11000000    0.01000000
   14.75055599  118.34700012    0.11000000    0.01000000
   14.75361156  113.79299927    0.11000000    0.01000000
   14.75694466  113.26499939    0.11000000    0.01000000
   14.76027775  121.16600037    0.11000000    0.01000000
   14.76611137  121.16600037    0.11000000    0.01000000
   14.77027798  119.53099823    0.11000000    0.01000000
   14.77361107  114.00900269    0.11000000    0.01000000
   14.77472210  121.38400269    0.11000000    0.01000000
   14.77722168  117.96099854    0.11000000    0.01000000
   14.78027725  113.08000183    0.11000000    0.01000000
   14.78361130  118.05100250    0.11000000    0.01000000
   14.78666687  121.36900330    0.11000000    0.01000000
   14.79000092  114.20999908    0.11000000    0.01000000
   14.79333401  114.04100037    0.11000000    0.01000000
   14.79638958  107.18299866    0.11000000    0.01000000
   14.79972267  108.61900330    0.11000000    0.01000000
   14.80305576  109.87899780    0.11000000    0.01000000
   14.80916691  109.87899780    0.11000000    0.01000000
   14.81305599  119.85299683    0.11000000    0.01000000
   14.81638908  118.00399780    0.11000000    0.01000000
   14.81972218  122.10099792    0.11000000    0.01000000
   14.82277775  121.68299866    0.11000000    0.01000000
   14.82611084  116.67700195    0.11000000    0.01000000
   14.82944393  116.59999847    0.11000000    0.01000000
   14.83249950  113.95800018    0.11000000    0.01000000
   14.83583260  117.75199890    0.11000000    0.01000000
   14.83888817  115.41999817    0.11000000    0.01000000
   14.84138870  114.17500305    0.11000000    0.01000000
   14.84277725  113.84999847    0.11000000    0.01000000
   14.84583282  120.84500122    0.11000000    0.01000000
   14.85194492  120.84500122    0.11000000    0.01000000
   14.85611153  117.57399750    0.11000000    0.01000000
   14.85916710  114.11000061    0.11000000    0.01000000
   14.86250019  109.99700165    0.11000000    0.01000000
   14.86583328  116.71900177    0.11000000    0.01000000
   14.86888885  108.95200348    0.11000000    0.01000000
   14.87222195  113.31999969    0.11000000    0.01000000
   14.87472248  115.76999664    0.11000000    0.01000000
   14.87583351  106.58000183    0.11000000    0.01000000
   14.87888908  104.47499847    0.11000000    0.01000000
   14.88222218  105.24700165    0.11000000    0.01000000
   14.88527775  117.43900299    0.11000000    0.01000000
   14.88861084  120.89600372    0.11000000    0.01000000
   14.89472198  120.89600372    0.11000000    0.01000000
   14.89888859  113.76000214    0.11000000    0.01000000
   14.90222168  115.18299866    0.11000000    0.01000000
   14.90527725  121.31999969    0.11000000    0.01000000
   14.90805531  110.94400024    0.11000000    0.01000000
   14.90916634  116.73500061    0.11000000    0.01000000
   14.91222191  115.84300232    0.11000000    0.01000000
   14.91555500  113.23400116    0.11000000    0.01000000
   14.91861153  113.31600189    0.11000000    0.01000000
   14.92194462  120.01100159    0.11000000    0.01000000
   14.92527771  118.04299927    0.11000000    0.01000000
   14.92833328  117.44799805    0.11000000    0.01000000
   14.93166733  117.56400299    0.11000000    0.01000000
   14.93750000  117.56400299    0.11000000    0.01000000
   14.94166660  114.72899628    0.11000000    0.01000000
   14.94499969  114.73600006    0.11000000    0.01000000
   14.94805527  110.55799866    0.11000000    0.01000000
   14.95138836  110.58599854    0.11000000    0.01000000
   14.95472240  104.76499939    0.11000000    0.01000000
   14.95777798  114.52999878    0.11000000    0.01000000
   14.96111107  121.11900330    0.11000000    0.01000000
   14.96444416  118.44899750    0.11000000    0.01000000
   14.96749973  117.51200104    0.11000000    0.01000000
   14.97083282  117.40399933    0.11000000    0.01000000
   14.97388840  119.20999908    0.11000000    0.01000000
   14.97472191  112.55999756    0.11000000    0.01000000
   14.98027706  112.55999756    0.11000000    0.01000000
   14.98444462  119.03700256    0.11000000    0.01000000
   14.98777771  116.14600372    0.11000000    0.01000000
   14.99111176  118.29399872    0.11000000    0.01000000
   14.99416733  114.13899994    0.11000000    0.01000000
   14.99750042  116.51699829    0.11000000    0.01000000
   15.00055599  115.48799896    0.11000000    0.01000000
   15.00388908  116.50700378    0.11000000    0.01000000
   15.00722218  113.91000366    0.11000000    0.01000000
   15.00805569  112.67700195    0.11000000    0.01000000
   15.01083374  110.51899719    0.11000000    0.01000000
   15.01388931  117.40100098    0.11000000    0.01000000
   15.01722240  114.75599670    0.11000000    0.01000000
   15.02333355  114.75599670    0.11000000    0.01000000
   15.02750015  123.14499664    0.11000000    0.01000000
   15.03055573  115.47299957    0.11000000    0.01000000
   15.03388977  114.33699799    0.11000000    0.01000000
   15.03694534  116.32299805    0.11000000    0.01000000
   15.04027843  118.89800262    0.11000000    0.01000000
   15.04138947  113.14199829    0.11000000    0.01000000
   15.04388905  123.57599640    0.11000000    0.01000000
   15.04694462  120.09200287    0.11000000    0.01000000
   15.05027771  111.83599854    0.11000000    0.01000000
   15.05333328  118.83499908    0.11000000    0.01000000
   15.05666733  122.28399658    0.11000000    0.01000000
   15.06000042  114.46800232    0.11000000    0.01000000
   15.06611156  114.46800232    0.11000000    0.01000000
   15.07027817  120.58100128    0.11000000    0.01000000
   15.07333374  121.14600372    0.11000000    0.01000000
   15.07472229  114.74199677    0.11000000    0.01000000
   15.07722187  119.28700256    0.11000000    0.01000000
   15.08027744  114.15899658    0.11000000    0.01000000
   15.08361053  108.88700104    0.11000000    0.01000000
   15.08666611  112.02700043    0.11000000    0.01000000
   15.09000015  108.25499725    0.11000000    0.01000000
   15.09333324  108.42900085    0.11000000    0.01000000
   15.09638882  107.22399902    0.11000000    0.01000000
   15.09972191  113.45300293    0.11000000    0.01000000
   15.10305595  109.53600311    0.11000000    0.01000000
   15.10888958  109.53600311    0.11000000    0.01000000
   15.11305618  117.10900116    0.11000000    0.01000000
   15.11638927  115.19400024    0.11000000    0.01000000
   15.11944485  115.27400208    0.11000000    0.01000000
   15.12277794  112.06400299    0.11000000    0.01000000
   15.12611103  110.76599884    0.11000000    0.01000000
   15.12916660  114.61499786    0.11000000    0.01000000
   15.13249969  114.52400208    0.11000000    0.01000000
   15.13583279  110.71600342    0.11000000    0.01000000
   15.13888836  112.92700195    0.11000000    0.01000000
   15.14138889  110.93099976    0.11000000    0.01000000
   15.14277744  110.23400116    0.11000000    0.01000000
   15.14583302  114.19599915    0.11000000    0.01000000
   15.15194416  114.19599915    0.11000000    0.01000000
   15.15583324  108.28900146    0.11000000    0.01000000
   15.15916634  109.05100250    0.11000000    0.01000000
   15.16249943  106.43299866    0.11000000    0.01000000
   15.16555500  110.20300293    0.11000000    0.01000000
   15.16888905  112.40299988    0.11000000    0.01000000
   15.17194462  111.59600067    0.11000000    0.01000000
   15.17472267  109.53199768    0.11000000    0.01000000
   15.17583370  116.22799683    0.11000000    0.01000000
   15.17888927  108.16699982    0.11000000    0.01000000
   15.18222237  112.66200256    0.11000000    0.01000000
   15.18527794  117.07499695    0.11000000    0.01000000
   15.18861103  111.84899902    0.11000000    0.01000000
   15.19472218  111.84899902    0.11000000    0.01000000
   15.19888878  113.16999817    0.11000000    0.01000000
   15.20194435  114.14800262    0.11000000    0.01000000
   15.20527744  115.61299896    0.11000000    0.01000000
   15.20805550  114.41999817    0.11000000    0.01000000
   15.20888901  115.61199951    0.11000000    0.01000000
   15.21194458  116.04299927    0.11000000    0.01000000
   15.21527767  104.90299988    0.11000000    0.01000000
   15.21833324  111.67900085    0.11000000    0.01000000
   15.22166634  102.09300232    0.11000000    0.01000000
   15.22499943  111.13700104    0.11000000    0.01000000
   15.22805500  111.75599670    0.11000000    0.01000000
   15.23138809  109.12500000    0.11000000    0.01000000
   15.23750019  109.12500000    0.11000000    0.01000000
   15.24166679  111.33200073    0.11000000    0.01000000
   15.24472237  115.93199921    0.11000000    0.01000000
   15.24805546  117.65599823    0.11000000    0.01000000
   15.25138855  110.05899811    0.11000000    0.01000000
   15.25444412  113.29199982    0.11000000    0.01000000
   15.25777817  112.07199860    0.11000000    0.01000000
   15.26111126  114.78500366    0.11000000    0.01000000
   15.26416683  116.44899750    0.11000000    0.01000000
   15.26749992  116.28299713    0.11000000    0.01000000
   15.27055550  113.94499969    0.11000000    0.01000000
   15.27388859  112.59300232    0.11000000    0.01000000
   15.27472210  112.12500000    0.11000000    0.01000000
   15.28027725  112.12500000    0.11000000    0.01000000
   15.28444481  108.23699951    0.11000000    0.01000000
   15.28777790  110.57099915    0.11000000    0.01000000
   15.29083347  112.69799805    0.11000000    0.01000000
   15.30861092  117.37100220    0.11000000    0.01000000
   15.31083393  120.40799713    0.11000000    0.01000000
   15.31416702  115.49700165    0.11000000    0.01000000
   15.31750011  115.61599731    0.11000000    0.01000000
   15.32333374  115.61599731    0.11000000    0.01000000
   15.32750034  113.58000183    0.11000000    0.01000000
   15.33055592  117.60299683    0.11000000    0.01000000
   15.33388901  111.16500092    0.11000000    0.01000000
   15.33722210  114.82700348    0.11000000    0.01000000
   15.34027767  111.85800171    0.11000000    0.01000000
   15.34166622  108.09100342    0.11000000    0.01000000
   15.34388828  104.72399902    0.11000000    0.01000000
   15.34722233  106.05899811    0.11000000    0.01000000
   15.35027790  106.48699951    0.11000000    0.01000000
   15.35361195  109.19200134    0.11000000    0.01000000
   15.35666752  112.55500031    0.11000000    0.01000000
   15.36000061  106.03299713    0.11000000    0.01000000
   15.36611176  106.03299713    0.11000000    0.01000000
   15.37027836  121.84500122    0.11000000    0.01000000
   15.37361145  118.51699829    0.11000000    0.01000000
   15.37500000  119.28700256    0.11000000    0.01000000
   15.37722206  116.08399963    0.11000000    0.01000000
   15.38055611  117.49800110    0.11000000    0.01000000
   15.38361073  114.97000122    0.11000000    0.01000000
   15.38694477  116.25599670    0.11000000    0.01000000
   15.39000034  116.14099884    0.11000000    0.01000000
   15.39333344  114.69999695    0.11000000    0.01000000
   15.39666653  117.16000366    0.11000000    0.01000000
   15.39999962  112.81400299    0.11000000    0.01000000
   15.40305519  115.42700195    0.11000000    0.01000000
   15.40888882  115.42700195    0.11000000    0.01000000
   15.41305542  107.09100342    0.11000000    0.01000000
   15.41638851  113.77999878    0.11000000    0.01000000
   15.41972256  111.85600281    0.11000000    0.01000000
   15.42277813  111.82299805    0.11000000    0.01000000
   15.42611122  104.84799957    0.11000000    0.01000000
   15.42916679  110.06199646    0.11000000    0.01000000
   15.43249989  109.01899719    0.11000000    0.01000000
   15.43583298  112.26100159    0.11000000    0.01000000
   15.43888855  118.32199860    0.11000000    0.01000000
   15.44166660  117.40599823    0.11000000    0.01000000
   15.44250011  116.56700134    0.11000000    0.01000000
   15.44583321  117.53399658    0.11000000    0.01000000
   15.45194435  117.53399658    0.11000000    0.01000000
   15.45611095  106.48300171    0.11000000    0.01000000
   15.45916653  107.90499878    0.11000000    0.01000000
   15.46249962  111.66799927    0.11000000    0.01000000
   15.46555519  108.70999908    0.11000000    0.01000000
   15.46888828  112.14499664    0.11000000    0.01000000
   15.47222137  108.25099945    0.11000000    0.01000000
   15.47499943  109.31700134    0.11000000    0.01000000
   15.47583294  106.93599701    0.11000000    0.01000000
   15.47916603  108.94999695    0.11000000    0.01000000
   15.48222160  108.28299713    0.11000000    0.01000000
   15.48555565  106.45300293    0.11000000    0.01000000
   15.48888874  107.63099670    0.11000000    0.01000000
   15.49472237  107.63099670    0.11000000    0.01000000
   15.49888897  117.86299896    0.11000000    0.01000000
   15.50194454  108.97200012    0.11000000    0.01000000
   15.50527763  116.44699860    0.11000000    0.01000000
   15.50833321  114.84300232    0.11000000    0.01000000
   15.50888920  112.86900330    0.11000000    0.01000000
   15.51222229  117.52600098    0.11000000    0.01000000
   15.51527786  115.62300110    0.11000000    0.01000000
   15.51861095  113.90499878    0.11000000    0.01000000
   15.52166653  116.47000122    0.11000000    0.01000000
   15.52499962  114.04199982    0.11000000    0.01000000
   15.52833271  108.41300201    0.11000000    0.01000000
   15.53138828  114.54499817    0.11000000    0.01000000
   15.53750038  114.54499817    0.11000000    0.01000000
   15.54166698  110.37000275    0.11000000    0.01000000
   15.54222298  109.74099731    0.11000000    0.01000000
   15.54527855  109.97100067    0.11000000    0.01000000
   15.54861164  111.61699677    0.11000000    0.01000000
   15.55194473  112.07399750    0.11000000    0.01000000
   15.55500031  116.40599823    0.11000000    0.01000000
   15.55833340  114.89499664    0.11000000    0.01000000
   15.56138897  112.28700256    0.11000000    0.01000000
   15.56472206  116.16000366    0.11000000    0.01000000
   15.56805515  110.89099884    0.11000000    0.01000000
   15.57111073  119.25399780    0.11000000    0.01000000
   15.57444477  111.63800049    0.11000000    0.01000000
   15.57555580  115.74299622    0.11000000    0.01000000
   15.58027744  115.74299622    0.11000000    0.01000000
   15.58444405  114.20899963    0.11000000    0.01000000
   15.58777714  113.43499756    0.11000000    0.01000000
   15.59111118  112.44200134    0.11000000    0.01000000
   15.59416676  111.82800293    0.11000000    0.01000000
   15.59749985  108.65200043    0.11000000    0.01000000
   15.60055637  115.58999634    0.11000000    0.01000000
   15.60388947  110.39199829    0.11000000    0.01000000
   15.60722256  109.19599915    0.11000000    0.01000000
   15.60888958  111.29000092    0.11000000    0.01000000
   15.61055565  117.15299988    0.11000000    0.01000000
   15.61388969  114.51899719    0.11000000    0.01000000
   15.61722279  117.40000153    0.11000000    0.01000000
   15.62333393  117.40000153    0.11000000    0.01000000
   15.62750053  117.06600189    0.11000000    0.01000000
   15.63055611  118.74099731    0.11000000    0.01000000
   15.63388920  115.15000153    0.11000000    0.01000000
   15.63694477  113.20800018    0.11000000    0.01000000
   15.64027786  114.19200134    0.11000000    0.01000000
   15.64222240  113.33200073    0.11000000    0.01000000
   15.64388847  115.61599731    0.11000000    0.01000000
   15.64722252  113.31199646    0.11000000    0.01000000
   15.65055561  109.96900177    0.11000000    0.01000000
   15.65361118  112.01000214    0.11000000    0.01000000
   15.65694427  114.11900330    0.11000000    0.01000000
   15.66027737  109.10500336    0.11000000    0.01000000
   15.66611099  109.10500336    0.11000000    0.01000000
   15.67027855  108.56700134    0.11000000    0.01000000
   15.67333412  116.84300232    0.11000000    0.01000000
   15.67555618  116.60800171    0.11000000    0.01000000
   15.67694473  116.36399841    0.11000000    0.01000000
   15.68027782  118.37999725    0.11000000    0.01000000
   15.68361092  115.96900177    0.11000000    0.01000000
   15.68666649  118.85099792    0.11000000    0.01000000
   15.69000053  113.12699890    0.11000000    0.01000000
   15.69333363  114.64499664    0.11000000    0.01000000
   15.69638920  117.33399963    0.11000000    0.01000000
   15.69972229  117.34400177    0.11000000    0.01000000
   15.70277786  117.37799835    0.11000000    0.01000000
   15.70888901  117.37799835    0.11000000    0.01000000
   15.71305561  115.94699860    0.11000000    0.01000000
   15.71638870  111.84600067    0.11000000    0.01000000
   15.71944427  112.59500122    0.11000000    0.01000000
   15.72277737  110.03399658    0.11000000    0.01000000
   15.72611046  110.94799805    0.11000000    0.01000000
   15.72916603  112.66500092    0.11000000    0.01000000
   15.73249912  111.45500183    0.11000000    0.01000000
   15.73583317  109.33499908    0.11000000    0.01000000
   15.73888874  117.40499878    0.11000000    0.01000000
   15.74222279  121.72299957    0.11000000    0.01000000
   15.74250031  115.79900360    0.11000000    0.01000000
   15.74583340  115.19300079    0.11000000    0.01000000
   15.75166702  115.19300079    0.11000000    0.01000000
   15.75583363  123.85199738    0.11000000    0.01000000
   15.75916672  114.27100372    0.11000000    0.01000000
   15.76249981  115.91699982    0.11000000    0.01000000
   15.76555538  114.27100372    0.11000000    0.01000000
   15.76888847  114.87400055    0.11000000    0.01000000
   15.77194405  113.00900269    0.11000000    0.01000000
   15.77527714  114.89900208    0.11000000    0.01000000
   15.77583313  114.69200134    0.11000000    0.01000000
   15.77888870  111.42600250    0.11000000    0.01000000
   15.78222179  114.31999969    0.11000000    0.01000000
   15.78555584  113.25000000    0.11000000    0.01000000
   15.78861141  105.47399902    0.11000000    0.01000000
   15.79472256  105.47399902    0.11000000    0.01000000
   15.79888916  120.31199646    0.11000000    0.01000000
   15.80194473  115.45700073    0.11000000    0.01000000
   15.80527782  123.40399933    0.11000000    0.01000000
   15.80833340  118.42199707    0.11000000    0.01000000
   15.80916691  122.80799866    0.11000000    0.01000000
   15.81222248  115.18000031    0.11000000    0.01000000
   15.81527805  116.93499756    0.11000000    0.01000000
   15.81861115  113.21199799    0.11000000    0.01000000
   15.82194424  111.39600372    0.11000000    0.01000000
   15.82499981  115.57399750    0.11000000    0.01000000
   15.82833290  116.76999664    0.11000000    0.01000000
   15.83138847  116.38899994    0.11000000    0.01000000
   15.83749962  116.38899994    0.11000000    0.01000000
   15.84166622  111.09799957    0.11000000    0.01000000
   15.84249973  112.48500061    0.11000000    0.01000000
   15.84499931  111.87100220    0.11000000    0.01000000
   15.84833336  112.29199982    0.11000000    0.01000000
   15.85166740  113.26200104    0.11000000    0.01000000
   15.85472298  113.62699890    0.11000000    0.01000000
   15.85805607  118.95099640    0.11000000    0.01000000
   15.86138916  115.80699921    0.11000000    0.01000000
   15.86444473  119.30400085    0.11000000    0.01000000
   15.86777782  118.16999817    0.11000000    0.01000000
   15.87083340  115.66500092    0.11000000    0.01000000
   15.87416649  118.09899902    0.11000000    0.01000000
   15.87583351  117.42500305    0.11000000    0.01000000
   15.88027763  117.42500305    0.11000000    0.01000000
   15.88444424  118.41799927    0.11000000    0.01000000
   15.88777733  121.07299805    0.11000000    0.01000000
   15.89083290  120.74900055    0.11000000    0.01000000
   15.89416695  114.54599762    0.11000000    0.01000000
   15.89750004  119.23300171    0.11000000    0.01000000
   15.90055561  124.80300140    0.11000000    0.01000000
   15.90388870  117.10700226    0.11000000    0.01000000
   15.90722179  115.09899902    0.11000000    0.01000000
   15.90916634  116.06700134    0.11000000    0.01000000
   15.91083336  120.09300232    0.11000000    0.01000000
   15.91388893  117.91799927    0.11000000    0.01000000
   15.91722298  116.80100250    0.11000000    0.01000000
   15.92305565  116.80100250    0.11000000    0.01000000
   15.92722225  115.68399811    0.11000000    0.01000000
   15.93055630  118.92800140    0.11000000    0.01000000
   15.93388939  116.10700226    0.11000000    0.01000000
   15.93694496  120.16799927    0.11000000    0.01000000
   15.94027805  117.80799866    0.11000000    0.01000000
   15.94250011  118.89299774    0.11000000    0.01000000
   15.94388866  114.01999664    0.11000000    0.01000000
   15.94694424  118.48999786    0.11000000    0.01000000
   15.95027733  114.65399933    0.11000000    0.01000000
   15.95333290  118.38200378    0.11000000    0.01000000
   15.95666695  117.20200348    0.11000000    0.01000000
   15.96000004  116.47299957    0.11000000    0.01000000
   15.96611118  116.47299957    0.11000000    0.01000000
   15.97027779  111.18699646    0.11000000    0.01000000
   15.97333336  112.73799896    0.11000000    0.01000000
   15.97583294  112.25700378    0.11000000    0.01000000
   15.97722149  117.79599762    0.11000000    0.01000000
   15.98027706  111.57800293    0.11000000    0.01000000
   15.98361111  114.62699890    0.11000000    0.01000000
   15.98666668  115.69200134    0.11000000    0.01000000
   15.99000072  118.07700348    0.11000000    0.01000000
   15.99333382  121.08599854    0.11000000    0.01000000
   15.99638939  118.05000305    0.11000000    0.01000000
   15.99972248  122.27400208    0.11000000    0.01000000
   16.00305557  118.16000366    0.11000000    0.01000000
   16.00888824  118.16000366    0.11000000    0.01000000
   16.01305580  119.85800171    0.11000000    0.01000000
   16.01611137  117.13099670    0.11000000    0.01000000
   16.01944351  117.05500031    0.11000000    0.01000000
   16.02277756  115.94200134    0.11000000    0.01000000
   16.02583313  114.83200073    0.11000000    0.01000000
   16.02916718  114.81099701    0.11000000    0.01000000
   16.03249931  114.89800262    0.11000000    0.01000000
   16.03555489  112.78800201    0.11000000    0.01000000
   16.03888893  114.49500275    0.11000000    0.01000000
   16.04194450  117.36399841    0.11000000    0.01000000
   16.04388809  110.25900269    0.11000000    0.01000000
   16.04583359  195.64199829    0.11000000    0.01000000
   16.05166626  195.64199829    0.11000000    0.01000000
   16.05583191  118.16300201    0.11000000    0.01000000
   16.05916595  120.32900238    0.11000000    0.01000000
   16.06250000  123.37699890    0.11000000    0.01000000
   16.06555557  121.73899841    0.11000000    0.01000000
   16.06888962  114.95899963    0.11000000    0.01000000
   16.07194519  116.61499786    0.11000000    0.01000000
   16.07527924  116.75099945    0.11000000    0.01000000
   16.07722282  118.85600281    0.11000000    0.01000000
   16.07888985  118.48899841    0.11000000    0.01000000
   16.08194542  118.52600098    0.11000000    0.01000000
   16.08527756  119.39600372    0.11000000    0.01000000
   16.08861160  116.83799744    0.11000000    0.01000000
   16.09444427  116.83799744    0.11000000    0.01000000
   16.09861183  122.25000000    0.11000000    0.01000000
   16.10194397  114.96700287    0.11000000    0.01000000
   16.10527802  112.34899902    0.11000000    0.01000000
   16.10833359  114.19999695    0.11000000    0.01000000
   16.11083412  122.28099823    0.11000000    0.01000000
   16.11194420  122.77300262    0.11000000    0.01000000
   16.11527824  122.45200348    0.11000000    0.01000000
   16.11861038  125.02999878    0.11000000    0.01000000
   16.12166595  116.74900055    0.11000000    0.01000000
   16.12500000  118.76300049    0.11000000    0.01000000
   16.12805557  116.77100372    0.11000000    0.01000000
   16.13138962  120.10399628    0.11000000    0.01000000
   16.13750076  120.10399628    0.11000000    0.01000000
   16.14166641  120.51499939    0.11000000    0.01000000
   16.14416695  119.37100220    0.11000000    0.01000000
   16.14500046  116.84700012    0.11000000    0.01000000
   16.14833260  113.61599731    0.11000000    0.01000000
   16.15166664  111.17099762    0.11000000    0.01000000
   16.15472221  116.04499817    0.11000000    0.01000000
   16.15805435  121.01399994    0.11000000    0.01000000
   16.16110992  116.73899841    0.11000000    0.01000000
   16.16444397  116.37100220    0.11000000    0.01000000
   16.16777802  115.96900177    0.11000000    0.01000000
   16.17083359  119.73799896    0.11000000    0.01000000
   16.17416573  110.61699677    0.11000000    0.01000000
   16.18027687  110.61699677    0.11000000    0.01000000
   16.18444443  119.76000214    0.11000000    0.01000000
   16.18750000  120.72000122    0.11000000    0.01000000
   16.19083214  124.56500244    0.11000000    0.01000000
   16.19416618  120.11900330    0.11000000    0.01000000
   16.19722176  119.21399689    0.11000000    0.01000000
   16.20055580  120.25099945    0.11000000    0.01000000
   16.20388985  115.23100281    0.11000000    0.01000000
   16.20694542  118.70200348    0.11000000    0.01000000
   16.21027946  114.22100067    0.11000000    0.01000000
   16.21111107  117.22899628    0.11000000    0.01000000
   16.21389008  116.17099762    0.11000000    0.01000000
   16.21722221  123.54699707    0.11000000    0.01000000
   16.22305679  123.54699707    0.11000000    0.01000000
   16.22722244  119.20999908    0.11000000    0.01000000
   16.23055649  116.32099915    0.11000000    0.01000000
   16.23388863  116.91600037    0.11000000    0.01000000
   16.23694420  119.31700134    0.11000000    0.01000000
   16.24027824  120.99900055    0.11000000    0.01000000
   16.24333382  112.45099640    0.11000000    0.01000000
   16.24444389  119.06900024    0.11000000    0.01000000
   16.24694443  118.86399841    0.11000000    0.01000000
   16.25027847  125.50099945    0.11000000    0.01000000
   16.25333405  126.80599976    0.11000000    0.01000000
   16.25666618  121.47599792    0.11000000    0.01000000
   16.25972176  124.74099731    0.11000000    0.01000000
   16.26583290  124.74099731    0.11000000    0.01000000
   16.27000046  122.71299744    0.11000000    0.01000000
   16.27333260  120.17700195    0.11000000    0.01000000
   16.27666664  119.57700348    0.11000000    0.01000000
   16.27805519  118.25399780    0.11000000    0.01000000
   16.28027725  123.33799744    0.11000000    0.01000000
   16.28333282  121.01899719    0.11000000    0.01000000
   16.28666687  122.97299957    0.11000000    0.01000000
   16.28972244  111.07499695    0.11000000    0.01000000
   16.29305458  125.09700012    0.11000000    0.01000000
   16.29638863  121.67400360    0.11000000    0.01000000
   16.29944420  127.87699890    0.11000000    0.01000000
   16.30277634  120.20700073    0.11000000    0.01000000
   16.30888748  120.20700073    0.11000000    0.01000000
   16.32722282  119.70600128    0.11000000    0.01000000
   16.33055687  120.96099854    0.11000000    0.01000000
   16.33361244  121.54199982    0.11000000    0.01000000
   16.33694458  125.91899872    0.11000000    0.01000000
   16.34000015  124.25900269    0.11000000    0.01000000
   16.34333420  117.09899902    0.11000000    0.01000000
   16.34666824  119.57299805    0.11000000    0.01000000
   16.35194397  119.57299805    0.11000000    0.01000000
   16.35611153  116.02100372    0.11000000    0.01000000
   16.35916710  124.17500305    0.11000000    0.01000000
   16.36027908  114.24800110    0.11000000    0.01000000
   16.36277771  121.81500244    0.11000000    0.01000000
   16.36611176  114.12599945    0.11000000    0.01000000
   16.36944389  116.16899872    0.11000000    0.01000000
   16.37249947  117.63800049    0.11000000    0.01000000
   16.37583351  116.36000061    0.11000000    0.01000000
   16.37916756  118.97799683    0.11000000    0.01000000
   16.38222313  122.21299744    0.11000000    0.01000000
   16.38555527  118.37400055    0.11000000    0.01000000
   16.38861084  124.67600250    0.11000000    0.01000000
   16.39472198  124.67600250    0.11000000    0.01000000
   16.39888954  123.49900055    0.11000000    0.01000000
   16.40194321  126.02600098    0.11000000    0.01000000
   16.40527725  124.56999969    0.11000000    0.01000000
   16.40861130  126.23600006    0.11000000    0.01000000
   16.41166687  122.52500153    0.11000000    0.01000000
   16.41499901  126.87500000    0.11000000    0.01000000
   16.41833305  120.23200226    0.11000000    0.01000000
   16.42138863  120.15000153    0.11000000    0.01000000
   16.42472076  117.71800232    0.11000000    0.01000000
   16.42694473  117.17299652    0.11000000    0.01000000
   16.42805481  117.42199707    0.11000000    0.01000000
   16.43138885  121.29100037    0.11000000    0.01000000
   16.43750000  121.29100037    0.11000000    0.01000000
   16.44166565  115.45600128    0.11000000    0.01000000
   16.44499969  115.39199829    0.11000000    0.01000000
   16.44805527  117.60900116    0.11000000    0.01000000
   16.45138931  119.71199799    0.11000000    0.01000000
   16.45472336  121.73300171    0.11000000    0.01000000
   16.45777893  125.65200043    0.11000000    0.01000000
   16.46027946  125.13200378    0.11000000    0.01000000
   16.46166801  120.00700378    0.11000000    0.01000000
   16.46472359  126.75499725    0.11000000    0.01000000
   16.46805573  121.32399750    0.11000000    0.01000000
   16.47111130  122.97499847    0.11000000    0.01000000
   16.47444534  124.29399872    0.11000000    0.01000000
   16.48027802  124.29399872    0.11000000    0.01000000
   16.48444557  117.45500183    0.11000000    0.01000000
   16.48777771  120.60500336    0.11000000    0.01000000
   16.49111176  120.06199646    0.11000000    0.01000000
   16.49361229  122.03199768    0.11000000    0.01000000
   16.49444389  119.21499634    0.11000000    0.01000000
   16.49777794  119.09400177    0.11000000    0.01000000
   16.50111198  118.08100128    0.11000000    0.01000000
   16.50444412  120.88400269    0.11000000    0.01000000
   16.50749969  115.77300262    0.11000000    0.01000000
   16.51083374  117.30200195    0.11000000    0.01000000
   16.51388931  115.43900299    0.11000000    0.01000000
   16.51722145  120.71499634    0.11000000    0.01000000
   16.52333260  120.71499634    0.11000000    0.01000000
   16.52750015  124.07299805    0.11000000    0.01000000
   16.53055573  127.80699921    0.11000000    0.01000000
   16.53388786  129.41400146    0.11000000    0.01000000
   16.53694344  130.22300720    0.11000000    0.01000000
   16.54027748  121.00900269    0.11000000    0.01000000
   16.54361153  122.55400085    0.11000000    0.01000000
   16.54666710  124.68599701    0.11000000    0.01000000
   16.54999924  123.86000061    0.11000000    0.01000000
   16.55333328  127.08599854    0.11000000    0.01000000
   16.55638885  157.07200623    0.11000000    0.01000000
   16.55972099  122.59600067    0.11000000    0.01000000
   16.56027794  171.07099915    0.11000000    0.01000000
   16.56611061  171.07099915    0.11000000    0.01000000
   16.57027817  135.35699463    0.11000000    0.01000000
   16.57333374  136.47099304    0.11000000    0.01000000
   16.57666779  132.63000488    0.11000000    0.01000000
   16.58000183  123.18000031    0.11000000    0.01000000
   16.58305550  126.80000305    0.11000000    0.01000000
   16.58638954  125.40200043    0.11000000    0.01000000
   16.58972359  125.29000092    0.11000000    0.01000000
   16.59277916  130.55799866    0.11000000    0.01000000
   16.59361267  121.19000244    0.11000000    0.01000000
   16.59666824  145.29299927    0.11000000    0.01000000
   16.59972191  166.07400513    0.11000000    0.01000000
   16.60305595  211.33000183    0.11000000    0.01000000
   16.60888863  211.33000183    0.11000000    0.01000000
   16.61305618  165.75100708    0.11000000    0.01000000
   16.61638832  109.40299988    0.11000000    0.01000000
   16.61944389  200.25700378    0.11000000    0.01000000
   16.62277794  182.06300354    0.11000000    0.01000000
   16.62611198   -1.00000000    0.11000000    0.01000000
   16.62694550   85.96920013    0.11000000    0.01000000
   16.62972260   60.00000000    0.11000000    0.01000000
   16.63277817  116.49500275    0.11000000    0.01000000
   16.63611031  122.41999817    0.11000000    0.01000000
   16.63916588  232.43899536    0.11000000    0.01000000
   16.64249992  187.61700439    0.11000000    0.01000000
   16.64583397  183.12399292    0.11000000    0.01000000
   16.65166664  183.12399292    0.11000000    0.01000000
   16.65583229  218.11300659    0.11000000    0.01000000
   16.65916634   37.90240097    0.11000000    0.01000000
   16.66250038   -1.00000000    0.11000000    0.01000000
   16.66583252  268.37500000    0.11000000    0.01000000
   16.66916656  263.19699097    0.11000000    0.01000000
   16.67222214  158.80400085    0.11000000    0.01000000
   16.67555428  222.32200623    0.11000000    0.01000000
   16.67860985  130.32400513    0.11000000    0.01000000
   16.68194389  126.48699951    0.11000000    0.01000000
   16.68527603  131.79600525    0.11000000    0.01000000
   16.68833160  174.44299316    0.11000000    0.01000000
   16.69472122  174.44299316    0.11000000    0.01000000
   16.69888878  139.13800049    0.11000000    0.01000000
   16.70194435  154.18800354    0.11000000    0.01000000
   16.70527840  139.93600464    0.11000000    0.01000000
   16.70833397  138.89100647    0.11000000    0.01000000
   16.71166801  103.26399994    0.11000000    0.01000000
   16.71500015  128.72500610    0.11000000    0.01000000
