    HOUR (UT)   FLARE FACTOR    SKY TESTER    SUN TESTER
   11.28611183   -1.00000000   -1.00000000   -1.00000000
   11.32250023  241.35000610    3.55999994    1.23000002
   11.32777786  219.72200012    3.59999990    1.23000002
   11.33111095  268.47601318    3.66000009    1.25000000
   11.33444405  248.69099426    3.68000007    1.25000000
   11.33749962  274.23800659    3.72000003    1.25000000
   11.34083271  256.35101318    3.73000002    1.26999998
   11.34388828  284.79598999    3.78999996    1.26999998
   11.34722233  278.51501465    3.80999994    1.28999996
   11.35055637  289.54199219    3.84999990    1.26999998
   11.35361195  270.30300903    3.86999989    1.28999996
   11.35583401  277.62200928    3.89000010    1.28999996
   11.35722256  323.20300293    3.91000009    1.28999996
   11.36083412  325.81500244    3.93000007    1.28999996
   11.36416721  355.54998779    3.95000005    1.30999994
   11.36722279  406.28601074    3.99000001    1.30999994
   11.36944485  354.62399292    3.99000001    1.30999994
   11.37055588  409.00500488    4.00000000    1.30999994
   11.37194443  388.26400757    4.00000000    1.30999994
   11.37333393  366.27398682    4.01999998    1.30999994
   11.37472248  431.44100952    4.03999996    1.30999994
   11.37611103  387.16299438    4.03999996    1.30999994
   11.37750053  394.33099365    4.03999996    1.33000004
   11.37888908  395.58999634    4.05999994    1.33000004
   11.38027763  387.96301270    4.05999994    1.33000004
   11.38166714  425.75100708    4.05999994    1.33000004
   11.38305569  423.39300537    4.07999992    1.33000004
   11.38444424  435.98300171    4.07999992    1.33000004
   11.38583279  456.45300293    4.09999990    1.33000004
   11.38722229  381.55999756    4.09999990    1.33000004
   11.38861084  414.41500854    4.11999989    1.34000003
   11.39000034  376.35800171    4.11999989    1.34000003
   11.39138889  412.51300049    4.11999989    1.34000003
   11.39277744  393.27499390    4.13999987    1.34000003
   11.39416695  412.52099609    4.13999987    1.34000003
   11.39555550  411.55499268    4.13999987    1.34000003
   11.39694405  409.18600464    4.13999987    1.34000003
   11.39833355  411.53799438    4.15999985    1.34000003
   11.39972210  409.41101074    4.15999985    1.36000001
   11.40111065  436.60198975    4.17999983    1.36000001
   11.40249920  403.12399292    4.17999983    1.36000001
   11.40388870  418.52200317    4.17999983    1.36000001
   11.40527725  388.22900391    4.17999983    1.36000001
   11.40666676  418.50299072    4.19999981    1.36000001
   11.40805531  376.12701416    4.19999981    1.36000001
   11.40944386  370.16598511    4.19999981    1.36000001
   11.41083336  385.43099976    4.21999979    1.38000000
   11.41222191  389.02899170    4.21999979    1.38000000
   11.41361046  439.63000488    4.21999979    1.38000000
   11.41499996  383.62500000    4.21999979    1.38000000
   11.41638851  389.69198608    4.23999977    1.38000000
   11.41777802  377.29199219    4.23999977    1.39999998
   11.41916656  376.58599854    4.23999977    1.39999998
   11.42055607  437.72198486    4.23999977    1.39999998
   11.42194462  372.36099243    4.23999977    1.39999998
   11.42333412  380.64898682    4.26000023    1.38000000
   11.42472267  415.81298828    4.26000023    1.39999998
   11.42611122  415.84201050    4.26000023    1.39999998
   11.42750072  384.71600342    4.26000023    1.39999998
   11.42888927  379.01800537    4.26999998    1.39999998
   11.43027782  382.79299927    4.26999998    1.39999998
   11.43166733  384.02499390    4.26999998    1.39999998
   11.43305588  383.22900391    4.26999998    1.39999998
   11.43444443  376.86801147    4.26999998    1.39999998
   11.43583298  427.67999268    4.28999996    1.39999998
   11.43722248  380.70199585    4.26999998    1.41999996
   11.43861103  383.86099243    4.28999996    1.41999996
   11.44000053  337.16101074    4.28999996    1.41999996
   11.44027805  323.20300293    3.91000009    1.28999996
   11.44027805  325.81500244    3.93000007    1.28999996
   11.44055557  355.54998779    3.95000005    1.30999994
   11.44055557  406.28601074    3.99000001    1.30999994
   11.44055557  256.35101318    3.73000002    1.26999998
   11.44083309  284.79598999    3.78999996    1.26999998
   11.44083309  278.51501465    3.80999994    1.28999996
   11.44083309  289.54199219    3.84999990    1.26999998
   11.44111156  270.30300903    3.86999989    1.28999996
   11.44166660  377.66900635    4.30999994    1.41999996
   11.44472218  372.51901245    4.28999996    1.41999996
   11.44805527  418.25698853    4.30999994    1.41999996
   11.44999981  380.91000366    4.30999994    1.41999996
   11.45138836  361.81799316    4.30999994    1.44000006
   11.45277786  354.86099243    4.30999994    1.44000006
   11.45416641  346.41198730    4.32999992    1.44000006
   11.45416641  377.66900635    4.30999994    1.41999996
   11.45444393  372.51901245    4.28999996    1.41999996
   11.45444393  418.25698853    4.30999994    1.41999996
   11.45499992  365.44900513    4.30999994    1.44000006
   11.45833302  344.08898926    4.32999992    1.46000004
   11.46166611  337.55599976    4.32999992    1.46000004
   11.46472168  337.09600830    4.32999992    1.46000004
   11.46805477  375.19601440    4.32999992    1.46000004
   11.47111034  404.37899780    4.34999990    1.46000004
   11.47333336  328.68798828    4.32999992    1.46000004
   11.47333336  365.44900513    4.30999994    1.44000006
   11.47361088  344.08898926    4.32999992    1.46000004
   11.47361088  337.55599976    4.32999992    1.46000004
   11.47361088  337.09600830    4.32999992    1.46000004
   11.47388840  375.19601440    4.32999992    1.46000004
   11.47388840  404.37899780    4.34999990    1.46000004
   11.47555542  328.97399902    4.34999990    1.48000002
   11.47888851  353.91799927    4.34999990    1.48000002
   11.48194408  332.34500122    4.34999990    1.48000002
   11.48527813  319.82901001    4.34999990    1.48000002
   11.48861122  324.69400024    4.34999990    1.50000000
   11.49416733  324.69400024    4.34999990    1.50000000
   11.49833393  318.05099487    4.34999990    1.50000000
   11.50138855  345.30499268    4.32999992    1.50000000
   11.50472260  315.45401001    4.32999992    1.51999998
   11.50722218  289.76800537    4.34999990    1.51999998
   11.50833321  312.17401123    4.32999992    1.51999998
   11.51166630  333.90100098    4.32999992    1.51999998
   11.51500034  297.67300415    4.32999992    1.51999998
   11.51805496  339.66598511    4.32999992    1.53999996
   11.52138901  314.55300903    4.30999994    1.53999996
   11.52472210  283.38000488    4.30999994    1.53999996
   11.52777767  328.29998779    4.30999994    1.55999994
   11.53111076  278.67001343    4.30999994    1.55999994
   11.53694534  278.67001343    4.28999996    1.55999994
   11.54111195  301.05599976    4.28999996    1.55999994
   11.54444504  291.73999023    4.26999998    1.55999994
   11.54750061  282.21200562    4.26999998    1.58000004
   11.55083370  293.70001221    4.26000023    1.58000004
   11.55388927  288.53799438    4.26000023    1.58000004
   11.55722237  292.38699341    4.23999977    1.58000004
   11.56055546  282.97601318    4.21999979    1.60000002
   11.56361103  271.38598633    4.23999977    1.60000002
   11.56694412  266.25299072    4.21999979    1.60000002
   11.57027817  284.63500977    4.19999981    1.60000002
   11.57333374  259.02999878    4.17999983    1.60000002
   11.57388878  271.00500488    4.17999983    1.60000002
   11.57972240  271.00500488    4.15999985    1.60000002
   11.58388901  246.22399902    4.11999989    1.61000001
   11.58722210  269.23199463    4.11999989    1.61000001
   11.59027767  254.64100647    4.09999990    1.61000001
   11.59361076  267.66900635    4.09999990    1.61000001
   11.59694386  239.77999878    4.07999992    1.61000001
   11.60000038  259.88198853    4.05999994    1.63000000
   11.60333347  253.64999390    4.03999996    1.63000000
   11.60666752  234.43699646    4.01999998    1.63000000
   11.60722256  236.03599548    4.01999998    1.63000000
   11.61027813  219.94799805    4.00000000    1.63000000
   11.61361122  228.78900146    4.00000000    1.63000000
   11.61666679  231.10000610    3.99000001    1.63000000
   11.62277794  231.10000610    3.97000003    1.64999998
   11.62666702  246.73100281    3.95000005    1.64999998
   11.63000011  213.11900330    3.93000007    1.66999996
   11.63333321  232.10099792    3.93000007    1.66999996
   11.63638878  249.75199890    3.91000009    1.66999996
   11.63972187  214.80299377    3.89000010    1.66999996
   11.64055538  235.43299866    3.89000010    1.66999996
   11.64333344  227.02000427    3.86999989    1.66999996
   11.64666653  221.61700439    3.86999989    1.66999996
   11.64972210  253.76800537    3.84999990    1.66999996
   11.65305519  223.00000000    3.82999992    1.69000006
   11.65611076  237.29100037    3.80999994    1.69000006
   11.65944386  231.33900452    3.80999994    1.69000006
   11.66555500  231.33900452    3.76999998    1.69000006
   11.66972256  231.48699951    3.75000000    1.69000006
   11.67277813  221.13299561    3.75000000    1.71000004
   11.67388916  209.99200439    3.75000000    1.71000004
   11.67638874  234.02400208    3.73000002    1.71000004
   11.67972279  228.56300354    3.73000002    1.71000004
   11.68277836  228.74699402    3.72000003    1.71000004
   11.68611145  229.11500549    3.70000005    1.71000004
   11.68916702  228.88800049    3.70000005    1.71000004
   11.69250011  221.12800598    3.68000007    1.71000004
   11.69583321  235.57699585    3.68000007    1.73000002
   11.69888878  235.56300354    3.66000009    1.73000002
   11.70222187  236.75999451    3.64000010    1.75000000
   11.70833302  236.75999451    3.61999989    1.75000000
   11.71249962  217.32200623    3.59999990    1.75000000
   11.71611118  217.62199402    3.59999990    1.73000002
   11.71944427  228.80400085    3.57999992    1.75000000
   11.72249985  226.02699280    3.55999994    1.75000000
   11.72583294  220.76300049    3.55999994    1.75000000
   11.72916603  226.30000305    3.53999996    1.75000000
   11.73222160  222.58299255    3.51999998    1.75000000
   11.73555565  227.59399414    3.51999998    1.76999998
   11.73861122  229.38099670    3.50000000    1.76999998
   11.74055576  223.78700256    3.50000000    1.76999998
   11.74250031  222.35400391    3.50000000    1.76999998
   11.74583340  228.99699402    3.48000002    1.76999998
   11.75111103  228.99699402    3.48000002    1.76999998
   11.75527763  204.35499573    3.45000005    1.78999996
   11.75861073  217.20700073    3.45000005    1.76999998
   11.76166630  237.11599731    3.43000007    1.78999996
   11.76500034  203.50199890    3.43000007    1.78999996
   11.76833344  198.66600037    3.41000009    1.78999996
   11.77138901  201.83200073    3.41000009    1.78999996
   11.77388859  213.86500549    3.39000010    1.78999996
   11.77499962  226.72300720    3.39000010    1.78999996
   11.77833271  217.72700500    3.36999989    1.78999996
   11.78138828  217.28700256    3.36999989    1.80999994
   11.78472233  208.02600098    3.34999990    1.80999994
   11.78805637  215.15800476    3.32999992    1.80999994
   11.79388905  215.15800476    3.32999992    1.80999994
   11.79805565  220.80900574    3.30999994    1.80999994
   11.80138874  199.87800598    3.30999994    1.80999994
   11.80472279  204.04200745    3.28999996    1.80999994
   11.80722237  214.78300476    3.26999998    1.83000004
   11.80833340  211.42900085    3.26999998    1.83000004
   11.81166649  228.68600464    3.26999998    1.83000004
   11.81472206  208.15299988    3.25000000    1.83000004
   11.81805515  218.24800110    3.23000002    1.83000004
   11.82138920  220.18200684    3.23000002    1.85000002
   11.82444477  219.52799988    3.21000004    1.83000004
   11.82777786  200.79600525    3.21000004    1.85000002
   11.83083344  218.71899414    3.21000004    1.85000002
   11.83694458  218.71899414    3.18000007    1.85000002
   11.84111118  216.63400269    3.18000007    1.85000002
   11.84416676  221.15199280    3.16000009    1.85000002
   11.84749985  230.51100159    3.14000010    1.85000002
   11.85083389  205.84199524    3.14000010    1.86000001
   11.85388947  212.31799316    3.14000010    1.86000001
   11.85722256  211.16700745    3.11999989    1.85000002
   11.86027813  230.88499451    3.11999989    1.86000001
   11.86361122  237.67399597    3.09999990    1.86000001
   11.86694431  209.13699341    3.09999990    1.86000001
   11.86999989  212.18800354    3.09999990    1.86000001
   11.87333393  215.67799377    3.07999992    1.86000001
   11.87388897  219.29499817    3.07999992    1.86000001
   11.87972260  219.29499817    3.05999994    1.86000001
   11.88388920  218.87399292    3.05999994    1.88000000
   11.88694477  202.14700317    3.03999996    1.88000000
   11.89027786  210.22900391    3.03999996    1.88000000
   11.89361095  199.89999390    3.01999998    1.88000000
   11.89666653  207.64599609    3.01999998    1.88000000
   11.89999962  217.25700378    3.00000000    1.88000000
   11.90333271  207.69500732    3.00000000    1.88000000
   11.90638828  201.18699646    2.98000002    1.88000000
   11.90722179  197.06599426    2.98000002    1.88000000
   11.90999985  198.28399658    2.98000002    1.89999998
   11.91333294  198.09700012    2.98000002    1.89999998
   11.91638851  209.86599731    2.98000002    1.89999998
   11.92250061  209.86599731    2.96000004    1.89999998
   11.92666721  207.95500183    2.94000006    1.89999998
   11.93000031  201.72399902    2.93000007    1.89999998
   11.93305588  189.63400269    2.93000007    1.89999998
   11.93638897  189.86199951    2.93000007    1.89999998
   11.93972206  200.33599854    2.91000009    1.91999996
   11.94055557  192.64100647    2.91000009    1.91999996
   11.94333363  182.59300232    2.91000009    1.89999998
   11.94666672  195.65499878    2.91000009    1.91999996
   11.94972229  189.26199341    2.89000010    1.91999996
   11.95305538  202.72200012    2.89000010    1.91999996
   11.95638847  187.11999512    2.86999989    1.91999996
   11.95944405  204.16400146    2.86999989    1.91999996
   11.97416592  204.16400146    2.82999992    1.91999996
   11.97833252  196.36900330    2.82999992    1.91999996
   11.98138809  200.81799316    2.82999992    1.94000006
   11.98472214  195.49200439    2.80999994    1.94000006
   11.98777771  200.04600525    2.80999994    1.94000006
   11.99111176  205.98599243    2.80999994    1.94000006
   11.99444485  202.73800659    2.80999994    1.94000006
   11.99750042  207.18200684    2.78999996    1.94000006
   12.00083351  191.48399353    2.78999996    1.94000006
   12.00416660  204.22500610    2.76999998    1.94000006
   12.00833321  204.22500610    2.76999998    1.94000006
   12.01249981  189.01800537    2.76999998    1.94000006
   12.01555538  198.76300049    2.75000000    1.94000006
   12.01888847  196.02000427    2.75000000    1.96000004
   12.02222157  195.60299683    2.75000000    1.96000004
   12.02527714  198.48599243    2.73000002    1.96000004
   12.02861118  187.77099609    2.73000002    1.96000004
   12.03166676  178.85400391    2.73000002    1.96000004
   12.03500080  175.79400635    2.71000004    1.96000004
   12.03833389  181.73300171    2.71000004    1.96000004
   12.04138947  191.10400391    2.71000004    1.98000002
   12.04333401  197.66200256    2.71000004    1.96000004
   12.04527855  193.53700256    2.69000006    1.96000004
   12.05111122  193.53700256    2.69000006    1.98000002
   12.05527782  188.50599670    2.69000006    1.98000002
   12.05833340  197.53799438    2.67000008    1.98000002
   12.06166649  189.69200134    2.67000008    1.98000002
   12.06500053  194.16900635    2.66000009    1.98000002
   12.06805515  177.69599915    2.66000009    1.98000002
   12.07138920  187.54100037    2.66000009    1.98000002
   12.07472229  184.20500183    2.64000010    2.00000000
   12.07666683  182.79499817    2.64000010    2.00000000
   12.07833290  180.77000427    2.64000010    2.00000000
   12.08138847  185.02799988    2.64000010    1.98000002
   12.08472157  187.67999268    2.61999989    2.00000000
   12.08805561  187.53199768    2.61999989    2.00000000
   12.09388828  187.53199768    2.59999990    2.00000000
   12.09805489  176.25399780    2.59999990    2.00000000
   12.10138893  187.47099304    2.59999990    2.01999998
   12.10444450  188.90499878    2.57999992    2.00000000
   12.10777855  193.81799316    2.57999992    2.00000000
   12.11027813  175.97099304    2.57999992    2.01999998
   12.11138916  184.03100586    2.57999992    2.00000000
   12.11472225  179.76199341    2.55999994    2.00000000
   12.11805534  194.41900635    2.55999994    2.01999998
   12.12111092  181.43600464    2.55999994    2.01999998
   12.12444496  187.00700378    2.53999996    2.01999998
   12.12750053  179.07499695    2.53999996    2.01999998
   12.13083363  180.18699646    2.53999996    2.01999998
   12.13666630  180.18699646    2.51999998    2.01999998
   12.14083290  181.28300476    2.51999998    2.01999998
   12.14361095  186.42199707    2.50000000    2.01999998
   12.14444447  178.51600647    2.50000000    2.01999998
   12.14777756  198.66200256    2.50000000    2.03999996
   12.15111065  187.55999756    2.50000000    2.01999998
   12.15416622  189.60200500    2.48000002    2.01999998
   12.15749931  183.47200012    2.48000002    2.03999996
   12.16055489  181.63499451    2.48000002    2.01999998
   12.16388893  172.01600647    2.48000002    2.03999996
   12.16722298  176.87899780    2.46000004    2.03999996
   12.17027855  182.65800476    2.46000004    2.03999996
   12.17361164  184.88800049    2.46000004    2.03999996
   12.17972279  184.88800049    2.44000006    2.05999994
   12.18388939  175.38800049    2.44000006    2.03999996
   12.18694496  183.65899658    2.42000008    2.03999996
   12.19027805  178.69099426    2.42000008    2.05999994
   12.19333363  184.34599304    2.42000008    2.03999996
   12.19666672  180.09100342    2.42000008    2.05999994
   12.19999981  182.19099426    2.40000010    2.05999994
   12.20305538  188.02099609    2.40000010    2.05999994
   12.20638847  175.55900574    2.40000010    2.05999994
   12.20972157  179.92100525    2.39000010    2.05999994
   12.21055508  179.68699646    2.39000010    2.05999994
   12.21361065  172.88400269    2.39000010    2.05999994
   12.21666622  174.08000183    2.39000010    2.05999994
   12.22277737  174.08000183    2.36999989    2.05999994
   12.22666645  177.76100159    2.36999989    2.05999994
   12.22999954  159.19200134    2.36999989    2.07999992
   12.23333359  177.90100098    2.36999989    2.07999992
   12.23666668  187.59599304    2.34999990    2.07999992
   12.23972225  173.74899292    2.36999989    2.07999992
   12.24305534  194.64599609    2.34999990    2.07999992
   12.24388885  169.39300537    2.34999990    2.07999992
   12.24666691  177.83200073    2.34999990    2.07999992
   12.24972248  184.63000488    2.32999992    2.07999992
   12.25305557  184.50799561    2.32999992    2.07999992
   12.25611115  195.06399536    2.32999992    2.07999992
   12.25944424  175.11999512    2.32999992    2.07999992
   12.26527786  175.11999512    2.30999994    2.07999992
   12.26944447  180.09899902    2.30999994    2.07999992
   12.27277756  176.06199646    2.30999994    2.07999992
   12.27583313  182.61399841    2.28999996    2.09999990
   12.27750015  172.51100159    2.28999996    2.07999992
   12.27944374  173.38200378    2.28999996    2.09999990
   12.28277779  177.33900452    2.28999996    2.09999990
   12.28611183  179.73500061    2.26999998    2.07999992
   12.28916740  173.05700684    2.26999998    2.09999990
   12.29250050  183.65600586    2.26999998    2.09999990
   12.29555607  168.65499878    2.26999998    2.09999990
   12.29888916  172.61599731    2.25000000    2.09999990
   12.30222225  167.15899658    2.25000000    2.09999990
   12.30805588  167.15899658    2.25000000    2.11999989
   12.31222248  173.63400269    2.25000000    2.09999990
   12.31555557  177.89399719    2.23000002    2.09999990
   12.31888866  164.15600586    2.23000002    2.09999990
   12.32194424  167.67599487    2.23000002    2.09999990
   12.34166622  174.45300293    2.21000004    2.11999989
   12.34416676  167.61700439    2.21000004    2.11999989
   12.34555531  161.96000671    2.21000004    2.11999989
   12.35111141  161.96000671    2.19000006    2.11999989
   12.35527802  170.38000488    2.19000006    2.11999989
   12.35833359  166.44200134    2.19000006    2.11999989
   12.36166668  171.63200378    2.19000006    2.11999989
   12.36500072  170.41999817    2.17000008    2.11999989
   12.36805534  170.69400024    2.17000008    2.11999989
   12.37138939  163.96200562    2.17000008    2.11999989
   12.37472248  168.79699707    2.17000008    2.11999989
   12.37750053  170.34199524    2.17000008    2.11999989
   12.37833309  163.94999695    2.17000008    2.11999989
   12.38138866  164.58700562    2.17000008    2.13000011
   12.38472176  164.53700256    2.15000010    2.11999989
   12.38777733  157.59300232    2.15000010    2.13000011
   12.39388847  157.59300232    2.15000010    2.13000011
   12.39805508  157.38999939    2.15000010    2.13000011
   12.40138817  166.25900269    2.15000010    2.13000011
   12.40444374  160.12199402    2.13000011    2.13000011
   12.40777779  165.82200623    2.13000011    2.13000011
   12.41083336  161.57099915    2.15000010    2.13000011
   12.41166592  166.76800537    2.13000011    2.13000011
   12.41472149  160.49600220    2.13000011    2.13000011
   12.41805553  159.84500122    2.13000011    2.13000011
   12.42111111  158.66900635    2.13000011    2.13000011
   12.42444515  158.65499878    2.11999989    2.13000011
   12.42777824  162.37399292    2.13000011    2.13000011
   12.43083382  157.12699890    2.11999989    2.13000011
   12.43666649  157.12699890    2.11999989    2.13000011
   12.44083309  156.14100647    2.09999990    2.15000010
   12.44416714  158.25599670    2.09999990    2.13000011
   12.44472218  163.26199341    2.09999990    2.15000010
   12.44777775  143.42599487    2.09999990    2.15000010
   12.45111084  152.00300598    2.09999990    2.15000010
   12.45416641  149.43299866    2.09999990    2.15000010
   12.45749950  156.86900330    2.09999990    2.15000010
   12.46083355  150.28100586    2.07999992    2.15000010
   12.46388912  176.16900635    2.07999992    2.15000010
   12.46722221  148.07899475    2.07999992    2.15000010
   12.47055531  145.37800598    2.05999994    2.15000010
   12.47361088  156.61099243    2.05999994    2.15000010
   12.47972202  156.61099243    2.05999994    2.15000010
   12.48416710  167.37199402    2.05999994    2.15000010
   12.48750019  164.80099487    2.03999996    2.17000008
   12.49083328  156.21099854    2.03999996    2.17000008
   12.49388885  168.51499939    2.03999996    2.17000008
   12.49722290  167.48800659    2.03999996    2.15000010
   12.50027752  167.15100098    2.03999996    2.17000008
   12.50361156  152.15899658    2.03999996    2.17000008
   12.50694466  150.67599487    2.03999996    2.17000008
   12.51000023  161.02900696    2.01999998    2.17000008
   12.51083374  163.23800659    2.01999998    2.17000008
   12.51388931  156.82400513    2.01999998    2.17000008
   12.51694393  148.56199646    2.01999998    2.17000008
   12.52250004  148.56199646    2.01999998    2.17000008
   12.52666664  153.89999390    2.00000000    2.17000008
   12.52972221  145.36300659    2.01999998    2.17000008
   12.53305531  155.43800354    2.00000000    2.17000008
   12.53638935  152.32299805    2.00000000    2.17000008
   12.53944492  144.14900208    2.00000000    2.17000008
   12.54277802  144.16099548    1.96000004    2.11999989
   12.54416752  149.81599426    1.96000004    2.11999989
   12.54638958  144.27200317    1.96000004    2.11999989
   12.54944515  161.18099976    1.94000006    2.11999989
   12.55277824  151.66299438    1.94000006    2.11999989
   12.55611134  146.64599609    1.94000006    2.11999989
   12.55916691  156.89399719    1.94000006    2.11999989
   12.56527805  156.89399719    1.94000006    2.11999989
   12.56944466  141.17300415    1.91999996    2.11999989
   12.57277775  147.65600586    1.91999996    2.11999989
   12.57583332  148.24899292    1.91999996    2.13000011
   12.57777786  144.42399597    1.89999998    2.13000011
   12.57944393  142.68699646    1.89999998    2.13000011
   12.58277798  142.96299744    1.89999998    2.13000011
   12.58611107  143.07299805    1.89999998    2.13000011
   12.58916664  146.54400635    1.91999996    2.13000011
   12.59249973  142.80999756    1.89999998    2.13000011
   12.59583282  142.16799927    1.88000000    2.13000011
   12.59888840  133.21099854    1.89999998    2.13000011
   12.60222244  137.84100342    1.88000000    2.13000011
   12.60805607  137.84100342    1.86000001    2.13000011
   12.61222267  138.27799988    1.86000001    2.13000011
   12.61555576  138.54899597    1.86000001    2.13000011
   12.61861134  138.73599243    1.86000001    2.13000011
   12.62194443  138.24099731    1.86000001    2.13000011
   12.62527752  138.43400574    1.85000002    2.13000011
   12.62833309  140.97300720    1.85000002    2.13000011
   12.63166714  134.72000122    1.85000002    2.13000011
   12.63500023  136.47300720    1.85000002    2.15000010
   12.63805580  135.80400085    1.85000002    2.15000010
   12.64138889  132.44900513    1.85000002    2.15000010
   12.64444447  129.42900085    1.83000004    2.13000011
   12.64472198  132.12500000    1.83000004    2.15000010
   12.65111065  132.12500000    1.83000004    2.13000011
   12.65499973  135.77699280    1.83000004    2.13000011
   12.65833282  140.84599304    1.83000004    2.15000010
   12.66166592  139.90800476    1.80999994    2.15000010
   12.66499996  128.22599792    1.80999994    2.15000010
   12.66805553  133.95799255    1.80999994    2.15000010
   12.67138958  136.35600281    1.80999994    2.15000010
   12.67444515  132.25500488    1.80999994    2.15000010
   12.67777824  133.20300293    1.80999994    2.15000010
   12.67805576  135.51800537    1.80999994    2.15000010
   12.68138885  135.96200562    1.78999996    2.15000010
   12.68472195  123.34700012    1.78999996    2.15000010
   12.68777752  131.91600037    1.78999996    2.15000010
   12.69388866  131.91600037    1.78999996    2.15000010
   12.69805527  132.80700684    1.78999996    2.15000010
   12.70111084  134.39999390    1.78999996    2.15000010
   12.70444393  129.55599976    1.76999998    2.17000008
   12.70777798  131.64300537    1.76999998    2.17000008
   12.71083355  128.55700684    1.76999998    2.17000008
   12.71138859  130.14199829    1.76999998    2.17000008
   12.72388840  133.34100342    0.00000000    0.00000000
   12.72722149  131.12600708    1.75000000    2.15000010
   12.73027706  133.73699951    1.75000000    2.15000010
   12.73666668  133.73699951    1.75000000    2.15000010
   12.74083328  135.95799255    1.75000000    2.17000008
   12.74416733  127.45999908    1.75000000    2.17000008
   12.74472237  133.18299866    1.75000000    2.17000008
   12.74777794  124.57800293    1.75000000    2.17000008
   12.75083351  131.44099426    1.75000000    2.17000008
   12.75416660  134.70799255    1.73000002    2.17000008
   12.75749969  129.34300232    1.73000002    2.17000008
   12.76055527  133.29800415    1.73000002    2.17000008
   12.76388931  135.74699402    1.73000002    2.17000008
   12.76722240  130.28100586    1.73000002    2.17000008
   12.77027798  131.29699707    1.73000002    2.17000008
   12.77361107  131.01699829    1.71000004    2.17000008
   12.77944374  131.01699829    1.71000004    2.17000008
   12.78361130  135.37600708    1.71000004    2.17000008
   12.78694534  121.91699982    1.71000004    2.17000008
   12.79000092  135.59700012    1.71000004    2.17000008
   12.79333401  128.86799622    1.71000004    2.17000008
   12.79666710  138.54400635    1.71000004    2.17000008
   12.79972267  132.63299561    1.71000004    2.17000008
   12.80305576  129.44799805    1.69000006    2.17000008
   12.80638885  132.37800598    1.69000006    2.17000008
   12.80944443  136.75500488    1.69000006    2.17000008
   12.81138897  132.78399658    1.69000006    2.17000008
   12.81305599  134.35600281    1.69000006    2.17000008
   12.81611156  132.90299988    1.69000006    2.17000008
   12.82250023  132.90299988    1.69000006    2.19000006
   12.82666683  127.94799805    1.69000006    2.17000008
   12.82972240  133.14599609    1.69000006    2.17000008
   12.83305550  131.19299316    1.69000006    2.19000006
   12.83611107  137.30799866    1.66999996    2.17000008
   12.83944416  133.44900513    1.66999996    2.19000006
   12.84277725  139.97000122    1.66999996    2.19000006
   12.84472179  133.55599976    1.66999996    2.19000006
   12.84638882  139.20899963    1.66999996    2.19000006
   12.84972191  128.73399353    1.66999996    2.19000006
   12.85277843  115.17500305    1.66999996    2.19000006
   12.85611153  137.24400330    1.66999996    2.19000006
   12.85916710  116.26799774    1.66999996    2.19000006
   12.86527824  116.26799774    1.66999996    2.19000006
   12.86944485  125.87599945    1.64999998    2.19000006
   12.87250042  135.58399963    1.64999998    2.19000006
   12.87583351  140.33200073    1.64999998    2.19000006
   12.87805557  130.33500671    1.64999998    2.19000006
   12.87944412  130.48699951    1.64999998    2.19000006
   12.88277817  131.44700623    1.64999998    2.19000006
   12.88583279  127.63700104    1.63000000    2.19000006
   12.88916683  129.69099426    1.63000000    2.19000006
   12.89222240  130.39799500    1.63000000    2.19000006
   12.89555550  129.78500366    1.63000000    2.19000006
   12.89888859  126.64299774    1.63000000    2.19000006
   12.90194416  128.76400757    1.63000000    2.19000006
   12.90805531  128.76400757    1.63000000    2.19000006
   12.91222191  132.36300659    1.63000000    2.19000006
   12.91555500  128.01199341    1.63000000    2.19000006
   12.91861153  127.32099915    1.63000000    2.21000004
   12.92194462  133.03599548    1.63000000    2.21000004
   12.92527771  128.97799683    1.63000000    2.21000004
   12.92833328  126.83699799    1.63000000    2.21000004
   12.93166733  125.09600067    1.61000001    2.19000006
   12.93472195  121.82199860    1.61000001    2.19000006
   12.93805599  130.91499329    1.61000001    2.19000006
   12.94138908  129.70799255    1.61000001    2.19000006
   12.94444466  120.68000031    1.61000001    2.19000006
   12.94499969  127.55000305    1.61000001    2.19000006
   12.95083332  127.55000305    1.61000001    2.21000004
   12.95499992  124.60299683    1.61000001    2.21000004
   12.95833302  124.06500244    1.61000001    2.21000004
   12.96138859  127.92500305    1.60000002    2.21000004
   12.96472168  127.83000183    1.60000002    2.21000004
   12.96805477  124.95400238    1.61000001    2.21000004
   12.97138882  127.18000031    1.60000002    2.21000004
   12.97472191  128.41799927    1.60000002    2.21000004
   12.97777748  122.84899902    1.61000001    2.21000004
   12.97833252  129.52699280    1.60000002    2.21000004
   12.98138809  128.85299683    1.60000002    2.21000004
   12.98472214  127.36599731    1.60000002    2.21000004
   12.98777771  126.78600311    1.60000002    2.21000004
   12.99388885  126.78600311    1.60000002    2.21000004
   12.99777794  118.52700043    1.60000002    2.21000004
   13.00111103  122.94300079    1.58000004    2.21000004
   13.00444412  124.42700195    1.58000004    2.21000004
   13.00749969  126.03700256    1.58000004    2.21000004
   13.01083374  120.50499725    1.60000002    2.21000004
   13.01166630  126.65299988    1.60000002    2.21000004
   13.01444435  127.61599731    1.58000004    2.21000004
   13.01777744  119.55100250    1.60000002    2.21000004
   13.02083302  121.62999725    1.58000004    2.21000004
   13.02416611  120.76200104    1.58000004    2.21000004
   13.02722168  129.20100403    1.58000004    2.21000004
   13.03055573  129.06199646    1.58000004    2.23000002
   13.03666687  129.06199646    1.55999994    2.21000004
   13.04083347  125.21199799    1.55999994    2.23000002
   13.04388905  120.25900269    1.55999994    2.21000004
   13.04500008  129.79499817    1.55999994    2.23000002
   13.04750061  129.18699646    1.55999994    2.23000002
   13.05083370  125.58399963    1.55999994    2.23000002
   13.05388927  126.23600006    1.55999994    2.23000002
   13.05722237  126.32900238    1.55999994    2.23000002
   13.06027794  132.80099487    1.55999994    2.23000002
   13.06361103  128.95899963    1.55999994    2.23000002
   13.06694412  128.54600525    1.55999994    2.23000002
   13.06999969  133.87199402    1.55999994    2.23000002
   13.07333374  130.59599304    1.53999996    2.23000002
   13.08055592  130.59599304    3.86999989    2.46000004
   13.08472157  134.36900330    3.89000010    2.46000004
   13.08861065  137.48699951    3.91000009    2.46000004
   13.09194374  124.31700134    3.91000009    2.46000004
   13.09499931  122.10600281    3.91000009    2.46000004
   13.09833336  129.11999512    3.91000009    2.46000004
   13.10166740  128.00300598    3.91000009    2.48000002
   13.10472298  126.27300262    3.91000009    2.48000002
   13.11777782  127.88099670    0.00000000    0.00000000
   13.11833382  130.64599609    3.91000009    2.46000004
   13.12111092  120.51999664    3.89000010    2.46000004
   13.12694454  120.51999664    3.89000010    2.46000004
   13.13111115  129.29100037    3.89000010    2.48000002
   13.13444424  127.29399872    3.89000010    2.48000002
   13.13777733  128.66900635    3.89000010    2.48000002
   13.14083290  129.51600647    3.86999989    2.48000002
   13.14416695  126.77200317    3.86999989    2.48000002
   13.14750004  126.94100189    3.86999989    2.46000004
   13.15055561  115.56099701    3.86999989    2.46000004
   13.15166664  119.52100372    3.86999989    2.48000002
   13.15416622  130.41799927    3.86999989    2.48000002
   13.15749931  129.99800110    3.86999989    2.48000002
   13.16083336  124.47000122    3.84999990    2.48000002
   13.16388893  115.61499786    3.84999990    2.48000002
   13.17000008  115.61499786    3.82999992    2.48000002
   13.17416668  123.38200378    3.82999992    2.48000002
   13.17722225  125.30999756    3.82999992    2.48000002
   13.18055630  129.82000732    3.80999994    2.48000002
   13.18361092  123.60399628    3.80999994    2.48000002
   13.18500042  120.56700134    3.80999994    2.46000004
   13.18722248  129.25900269    3.80999994    2.48000002
   13.19055557  121.36299896    3.78999996    2.48000002
   13.19361115  122.97699738    3.78999996    2.48000002
   13.19694424  128.43600464    3.78999996    2.48000002
   13.20027733  123.39399719    3.78999996    2.48000002
   13.20333290  127.45999908    3.78999996    2.50000000
   13.20666695  131.93200684    3.76999998    2.50000000
   13.21277714  131.93200684    3.76999998    2.48000002
   13.21694374  119.27899933    3.76999998    2.50000000
   13.21833324  128.83000183    3.76999998    2.48000002
   13.22055531  128.36799622    3.76999998    2.48000002
   13.22388840  124.60299683    3.75000000    2.48000002
   13.22694397  122.84700012    3.75000000    2.48000002
   13.23027706  123.45600128    3.75000000    2.50000000
   13.23361111  127.09200287    3.75000000    2.48000002
   13.23666668  124.98699951    3.75000000    2.50000000
   13.24000072  126.38500214    3.75000000    2.50000000
   13.24333382  122.58799744    3.75000000    2.50000000
   13.24638939  123.05100250    3.75000000    2.50000000
   13.24972248  129.94599915    3.73000002    2.50000000
   13.25166702  113.69899750    3.75000000    2.48000002
   13.25583363  113.69899750    3.73000002    2.50000000
   13.26000023  124.65100098    3.73000002    2.51999998
   13.26305580  121.60299683    3.73000002    2.50000000
   13.26638889  119.54499817    3.73000002    2.50000000
   13.26944447  124.50900269    3.72000003    2.50000000
   13.27277756  126.94000244    3.72000003    2.50000000
   13.27611065  126.83799744    3.72000003    2.50000000
   13.27944374  124.53199768    3.72000003    2.50000000
   13.28249931  140.16000366    3.72000003    2.51999998
   13.28500080  125.39900208    3.72000003    2.50000000
   13.28611183  130.37300110    3.72000003    2.50000000
   13.28944492  133.74800110    3.70000005    2.50000000
   13.29250050  128.56300354    3.70000005    2.50000000
   13.29861164  128.56300354    3.70000005    2.50000000
   13.30277824  117.03299713    3.70000005    2.48000002
   13.30583382  117.18000031    3.70000005    2.50000000
   13.30916691  123.73200226    3.70000005    2.50000000
   13.31250000  127.55500031    3.70000005    2.50000000
   13.31555557  122.02600098    3.70000005    2.51999998
   13.31833363  124.31800079    3.68000007    2.50000000
   13.31916618  127.04399872    3.68000007    2.50000000
   13.32250023  129.20100403    3.68000007    2.50000000
   13.32555580  128.47399902    3.68000007    2.50000000
   13.32888889  122.86699677    3.68000007    2.51999998
   13.33222198  120.38700104    3.66000009    2.50000000
   13.33527756  128.86799622    3.66000009    2.50000000
   13.34138870  128.86799622    3.64000010    2.50000000
   13.36222267  125.23799896    0.00000000    0.00000000
   13.36555576  121.99099731    3.57999992    2.51999998
   13.36861134  118.22000122    3.57999992    2.51999998
   13.37194443  124.11000061    3.55999994    2.51999998
   13.37500000  130.01499939    3.55999994    2.50000000
   13.37833309  122.10600281    3.55999994    2.51999998
   13.38444424  122.10600281    3.55999994    2.51999998
   13.38861084  120.42700195    3.53999996    2.51999998
   13.39194393  121.64700317    3.53999996    2.51999998
   13.39277744  129.81799316    3.53999996    2.51999998
   13.39555550  119.94799805    3.51999998    2.51999998
   13.39888859  124.48400116    3.51999998    2.51999998
   13.40194416  131.90499878    3.51999998    2.51999998
   13.40527725  125.51699829    3.50000000    2.51999998
   13.40833282  119.83499908    3.51999998    2.51999998
   13.41166592  121.99500275    3.50000000    2.51999998
   13.41499996  129.73899841    3.50000000    2.51999998
   13.41805553  123.90200043    3.50000000    2.51999998
   13.42138958  129.04299927    3.48000002    2.51999998
   13.42750072  129.04299927    3.46000004    2.51999998
   13.43138885  120.60600281    3.46000004    2.53999996
   13.43472195  122.22899628    3.46000004    2.51999998
   13.43805599  137.27999878    3.46000004    2.51999998
   13.44111156  129.10200500    3.45000005    2.51999998
   13.44444466  120.39800262    3.45000005    2.51999998
   13.44777775  125.25000000    3.45000005    2.53999996
   13.45083332  116.86000061    3.45000005    2.53999996
   13.45416641  117.68099976    3.43000007    2.51999998
   13.56999969   -1.00000000   -1.00000000   -1.00000000
   13.66666698   -1.00000000   -1.00000000   -1.00000000
   13.76666641   -1.00000000   -1.00000000   -1.00000000
   13.80138874   73.05870056    3.18000007    2.57999992
   13.80472279  126.07399750    3.18000007    2.57999992
   13.80777836  144.22700500    3.18000007    2.57999992
   13.81111145  129.51899719    3.18000007    2.57999992
   13.81416702  124.22000122    3.18000007    2.57999992
   13.81750011  125.84600067    3.20000005    2.57999992
   13.82166672  125.84600067    3.20000005    2.57999992
   13.82583332  125.23699951    3.20000005    2.57999992
   13.82916641  138.84599304    3.20000005    2.57999992
   13.83222198  139.18600464    3.20000005    2.57999992
   13.83472157  131.49499512    3.20000005    2.57999992
   13.83611107  128.26699829    3.18000007    2.57999992
   13.83916664  128.65100098    3.20000005    2.57999992
   13.84249973  128.77000427    3.18000007    2.57999992
   13.84555531  138.15800476    3.20000005    2.57999992
   13.84888840  131.41400146    3.18000007    2.59999990
   13.85222244  122.71499634    3.18000007    2.57999992
   13.85527802  142.28599548    3.18000007    2.59999990
   13.85861111  150.53399658    3.18000007    2.57999992
   13.86444473  150.53399658    3.18000007    2.57999992
   13.86888885  139.48599243    3.16000009    2.57999992
   13.87222195  133.61000061    3.16000009    2.57999992
   13.87527752  121.19300079    3.16000009    2.57999992
   13.87861156  119.88700104    3.16000009    2.57999992
   13.88194466  120.65799713    3.16000009    2.57999992
   13.88500023  122.63999939    3.16000009    2.59999990
   13.88833332  127.83000183    3.16000009    2.59999990
   13.89138889  128.47900391    3.16000009    2.57999992
   13.89472198  130.82299805    3.16000009    2.59999990
   13.89805508  128.91700745    3.16000009    2.57999992
   13.90111065  121.75399780    3.18000007    2.57999992
   13.90166664  123.76999664    3.16000009    2.59999990
   13.90749931  123.76999664    3.18000007    2.57999992
   13.91138840  123.76699829    3.18000007    2.57999992
   13.91472149  128.62399292    3.18000007    2.59999990
   13.91805553  123.79699707    3.18000007    2.59999990
   13.92111111  121.45400238    3.16000009    2.59999990
   13.92444515  127.76100159    3.18000007    2.59999990
   13.92777824  122.81900024    3.16000009    2.59999990
   13.93083382  121.89900208    3.16000009    2.57999992
   13.93416691  135.62600708    3.18000007    2.57999992
   13.93500042  130.77400208    3.16000009    2.57999992
   13.93777752  119.51100159    3.16000009    2.59999990
   13.94111156  130.97900391    3.18000007    2.59999990
   13.94416714  117.22200012    3.18000007    2.57999992
   13.95027733  117.22200012    3.18000007    2.59999990
   13.95444393  118.01300049    3.18000007    2.59999990
   13.95749950  133.44900513    3.18000007    2.57999992
   13.96083355  122.62799835    3.18000007    2.59999990
   13.96416664  113.89499664    3.18000007    2.57999992
   13.96722221  120.93399811    3.18000007    2.59999990
   13.96833324  120.25499725    3.18000007    2.59999990
   13.97083282  119.08999634    3.18000007    2.57999992
   13.97416592  114.95300293    3.18000007    2.59999990
   13.97722149  119.76499939    3.18000007    2.59999990
   13.98055553  126.78800201    3.16000009    2.59999990
   13.98361111  128.19299316    3.18000007    2.59999990
   13.98694515  121.47200012    3.16000009    2.59999990
   13.99305534  121.47200012    3.16000009    2.59999990
   13.99722290  121.84999847    3.16000009    2.59999990
   14.00055599  121.03299713    3.16000009    2.57999992
   14.00166702  125.41699982    3.16000009    2.59999990
   14.00416660  123.67800140    3.14000010    2.59999990
   14.00749969  120.61199951    3.14000010    2.59999990
   14.01055527  115.35399628    3.16000009    2.59999990
   14.01388931  118.02600098    3.14000010    2.59999990
   14.01694393  114.59500122    3.14000010    2.59999990
   14.02027798  118.10500336    3.14000010    2.59999990
   14.02361107  122.05400085    3.14000010    2.59999990
   14.02666664  116.74400330    3.14000010    2.59999990
   14.02999973  120.58799744    3.14000010    2.59999990
   14.03583336  120.58799744    3.14000010    2.59999990
   14.04000092  116.30599976    3.14000010    2.59999990
   14.04333401  113.69999695    3.14000010    2.59999990
   14.04638958  117.28399658    3.14000010    2.59999990
   14.04972267  117.24099731    3.11999989    2.59999990
   14.05305576  125.10900116    3.11999989    2.59999990
   14.05611134  115.96199799    3.11999989    2.59999990
   14.05944443  131.84899902    3.11999989    2.59999990
   14.06277752  131.78399658    3.09999990    2.59999990
   14.06583309  110.82499695    3.09999990    2.59999990
   14.06833363  114.46399689    3.09999990    2.59999990
   14.06944466  118.11900330    3.09999990    2.61999989
   14.07277775  118.74900055    3.09999990    2.59999990
   14.07888889  118.74900055    3.09999990    2.59999990
   14.08305550  124.55699921    3.09999990    2.59999990
   14.08611107  130.37899780    3.09999990    2.59999990
   14.08944416  111.32299805    3.07999992    2.61999989
   14.09249973  116.50599670    3.07999992    2.59999990
   14.09583282  115.55899811    3.07999992    2.59999990
   14.09916592  113.97000122    3.09999990    2.59999990
   14.10166740  118.52899933    3.07999992    2.59999990
   14.10277843  116.87100220    3.07999992    2.59999990
   14.10666752  131.62399292    3.07999992    2.59999990
   14.11000061  137.63299561    3.07999992    2.59999990
   14.11305618  136.56100464    3.05999994    2.61999989
   14.11638927  116.91500092    3.05999994    2.59999990
   14.12166691  116.91500092    3.07999992    2.59999990
   14.12583351  136.38499451    3.07999992    2.59999990
   14.12888908  121.30200195    3.07999992    2.59999990
   14.13222218  115.66799927    3.07999992    2.61999989
   14.13500023  138.05900574    3.07999992    2.61999989
   14.13583279  124.98500061    3.07999992    2.61999989
   14.13916683  135.63900757    3.07999992    2.61999989
   14.14222240  119.11299896    3.07999992    2.59999990
   14.14555550  119.41300201    3.07999992    2.61999989
   14.14888859  121.90200043    3.07999992    2.59999990
   14.15194416  133.90299988    3.05999994    2.59999990
   14.15527725  113.58499908    3.05999994    2.59999990
   14.15861034  117.12300110    3.05999994    2.59999990
   14.16444397  117.12300110    3.05999994    2.61999989
   14.16861153  115.90000153    3.05999994    2.61999989
   14.17166710  115.70800018    3.05999994    2.61999989
   14.17500019  117.42199707    3.05999994    2.61999989
   14.17833328  115.23300171    3.05999994    2.61999989
   14.18138885  114.65899658    3.05999994    2.61999989
   14.18472195  117.02899933    3.05999994    2.61999989
   14.18805599  116.47100067    3.05999994    2.61999989
   14.19111156  118.95200348    3.05999994    2.61999989
   14.19444466  111.87899780    3.05999994    2.61999989
   14.19750023  110.98200226    3.05999994    2.61999989
   14.20083332  117.97599792    3.07999992    2.59999990
   14.20194435  114.48799896    3.07999992    2.61999989
   14.20722198  114.48799896    3.05999994    2.61999989
   14.21138859  116.77300262    3.05999994    2.61999989
   14.21472168  115.80100250    3.03999996    2.61999989
   14.21888828  113.63800049    3.03999996    2.61999989
   14.22222137  116.15599823    3.03999996    2.61999989
   14.22527695  115.34200287    3.03999996    2.61999989
   14.22861099  109.52700043    3.01999998    2.61999989
   14.23194408  111.60199738    3.01999998    2.61999989
   14.23527813  114.94499969    3.01999998    2.61999989
   14.23555565  116.44400024    3.01999998    2.61999989
   14.23888874  115.96600342    3.01999998    2.61999989
   14.24194431  121.98000336    3.01999998    2.61999989
   14.24527836  120.51300049    3.01999998    2.64000010
   14.25027752  120.51300049    3.01999998    2.61999989
   14.25416660  122.95800018    3.01999998    2.61999989
   14.25749969  127.09400177    3.01999998    2.61999989
   14.26083374  114.08300018    3.01999998    2.61999989
   14.26388931  113.92700195    3.01999998    2.61999989
   14.26722240  131.83000183    3.01999998    2.61999989
   14.26861095  125.82700348    3.01999998    2.61999989
   14.27083302  126.35299683    3.01999998    2.61999989
   14.27416611  127.40699768    3.01999998    2.61999989
   14.27722168  126.93599701    3.01999998    2.61999989
   14.28055573  123.89499664    3.01999998    2.61999989
   14.28388977  123.88700104    3.01999998    2.61999989
   14.28694534  118.66600037    3.05999994    2.64000010
   14.29305553  118.66600037    3.01999998    2.61999989
   14.29722309  116.52200317    3.01999998    2.61999989
   14.30027771  117.12400055    3.01999998    2.61999989
   14.30194473  120.98400116    3.01999998    2.61999989
   14.30388927  121.03399658    3.01999998    2.61999989
   14.30722237  121.74700165    3.01999998    2.61999989
   14.31027794  123.54000092    3.01999998    2.61999989
   14.31361103  123.05500031    3.01999998    2.64000010
   14.31694412  123.73500061    3.01999998    2.64000010
   14.31999969  117.13600159    3.01999998    2.61999989
   14.32333374  121.58100128    3.01999998    2.61999989
   14.32666683  116.08300018    3.01999998    2.61999989
   14.32972240  123.58899689    3.01999998    2.61999989
   14.33583260  123.58899689    3.00000000    2.61999989
   14.34000015  117.54000092    3.00000000    2.61999989
   14.34305477  120.08899689    3.00000000    2.61999989
   14.34638882  116.15200043    3.00000000    2.61999989
   14.34972191  118.38600159    3.00000000    2.64000010
   14.35277843  121.96299744    3.00000000    2.64000010
   14.35611153  113.44400024    3.00000000    2.64000010
   14.35944462  115.93900299    3.01999998    2.64000010
   14.36250019  113.97100067    3.00000000    2.64000010
   14.36583328  123.17500305    3.00000000    2.61999989
   14.36861134  119.30400085    3.00000000    2.61999989
   14.36944485  124.07299805    3.00000000    2.64000010
   14.37277794  122.40100098    3.00000000    2.64000010
   14.37861156  122.40100098    3.00000000    2.64000010
   14.38277817  119.62899780    2.98000002    2.64000010
   14.38611126  136.50300598    3.00000000    2.64000010
   14.38916683  119.67400360    2.98000002    2.64000010
   14.39249992  137.57499695    2.98000002    2.64000010
   14.39583302  133.98300171    2.98000002    2.64000010
   14.39888859  121.52500153    2.96000004    2.64000010
   14.40194416  119.02799988    2.98000002    2.64000010
   14.40249920  120.73999786    2.98000002    2.64000010
   14.40583324  123.08999634    2.98000002    2.64000010
   14.40916634  121.27300262    2.98000002    2.64000010
   14.41222191  127.72299957    2.98000002    2.64000010
   14.41555500  120.56500244    2.98000002    2.64000010
   14.42138958  120.56500244    2.96000004    2.64000010
   14.42555618  116.50499725    2.96000004    2.64000010
   14.42888927  132.99699402    2.96000004    2.64000010
   14.43222237  129.84100342    2.96000004    2.61999989
   14.43527794  116.92199707    2.96000004    2.61999989
   14.43555546  131.48500061    2.96000004    2.61999989
   14.43888855  128.94299316    2.94000006    2.64000010
   14.44222260  123.33699799    2.96000004    2.64000010
   14.44527817  122.00299835    2.96000004    2.64000010
   14.44861126  119.42600250    2.96000004    2.61999989
   14.45194435  125.18199921    2.96000004    2.61999989
   14.45499992  125.61499786    2.96000004    2.64000010
   14.45833302  117.19499969    2.96000004    2.64000010
   14.47305489  117.19499969    2.98000002    2.64000010
   14.47694397  123.67800140    2.98000002    2.64000010
   14.48027706  123.86499786    2.98000002    2.64000010
   14.48361111  123.81500244    2.96000004    2.64000010
   14.48666668  123.97399902    2.98000002    2.64000010
   14.49000072  120.16699982    2.96000004    2.64000010
   14.49333382  125.80899811    2.96000004    2.64000010
   14.49638939  122.93199921    2.96000004    2.64000010
   14.49972248  110.89700317    2.96000004    2.64000010
   14.50277805  132.67900085    2.96000004    2.64000010
   14.50722218  132.67900085    2.96000004    2.64000010
   14.51138878  126.93299866    2.96000004    2.64000010
   14.51444435  119.36399841    2.94000006    2.64000010
   14.51777744  123.27999878    2.96000004    2.64000010
   14.52111053  125.41200256    2.94000006    2.64000010
   14.52416611  117.65599823    2.94000006    2.64000010
   14.52750015  116.56099701    2.94000006    2.66000009
   14.53083324  115.27400208    2.94000006    2.64000010
   14.53388977  114.91600037    2.94000006    2.64000010
   14.53722286  113.04100037    2.94000006    2.64000010
   14.54027843  124.17199707    2.94000006    2.64000010
   14.54222298  114.87999725    2.94000006    2.64000010
   14.54416752  114.87300110    2.94000006    2.64000010
   14.55000019  114.87300110    2.94000006    2.64000010
   14.55416679  121.87400055    2.94000006    2.64000010
   14.55749989  119.93000031    2.94000006    2.64000010
   14.56055546  117.54799652    2.94000006    2.64000010
   14.56388950  120.17099762    2.93000007    2.66000009
   14.56722260  124.10900116    2.94000006    2.64000010
   14.57027817  112.86399841    2.94000006    2.64000010
   14.57361126  116.58899689    2.94000006    2.64000010
   14.57555580  119.39199829    2.94000006    2.64000010
   14.57722187  118.89600372    2.94000006    2.64000010
   14.58055592  121.64299774    2.94000006    2.64000010
   14.58361053  120.02500153    2.94000006    2.64000010
   14.58694458  120.10500336    2.94000006    2.64000010
   14.59277725  120.10500336    2.94000006    2.64000010
   14.59694386  118.36299896    2.94000006    2.66000009
   14.60027790  122.73200226    2.94000006    2.64000010
   14.60361195  128.21400452    2.94000006    2.64000010
   14.60666752  118.45099640    2.94000006    2.64000010
   14.60916710  114.31199646    2.94000006    2.64000010
   14.61055565  119.29100037    2.94000006    2.64000010
   14.61361122  113.11299896    2.94000006    2.64000010
   14.61694431  119.92500305    2.94000006    2.64000010
   14.61999989  115.87699890    2.94000006    2.64000010
   14.62333393  113.84500122    2.94000006    2.64000010
   14.62666702  113.13500214    2.94000006    2.66000009
   14.62972260  116.84500122    2.96000004    2.64000010
   14.63583279  116.84500122    2.94000006    2.66000009
   14.64000034  124.85800171    2.94000006    2.64000010
   14.64249992  136.25900269    2.94000006    2.64000010
   14.64361095  123.20300293    2.94000006    2.64000010
   14.64666653  105.39199829    2.94000006    2.64000010
   14.64999962  119.66500092    2.94000006    2.64000010
   14.65305519  117.63500214    2.94000006    2.64000010
   14.65638828  120.66699982    2.94000006    2.64000010
   14.65972137  126.97499847    2.94000006    2.66000009
   14.66277695  117.82700348    2.93000007    2.64000010
   14.66611099  119.01100159    2.93000007    2.64000010
   14.66944504  120.88700104    2.93000007    2.66000009
   14.67250061  121.61499786    2.94000006    2.64000010
   14.67861176  121.61499786    2.93000007    2.66000009
   14.68277836  115.67800140    2.93000007    2.64000010
   14.68583298  116.52700043    2.93000007    2.66000009
   14.68916702  122.16999817    2.93000007    2.64000010
   14.69250011  111.68000031    2.94000006    2.66000009
   14.69555569  112.95300293    2.93000007    2.66000009
   14.69888878  123.42600250    2.93000007    2.66000009
   14.70222187  115.38300323    2.93000007    2.66000009
   14.70527744  121.52700043    2.93000007    2.66000009
   14.70861053  116.23200226    2.93000007    2.64000010
   14.70944405  115.51799774    2.93000007    2.66000009
   14.71222210  125.59200287    2.93000007    2.64000010
   14.71555519  122.47200012    2.93000007    2.64000010
   14.72249985  122.47200012    2.91000009    2.66000009
   14.72666645  124.20400238    2.91000009    2.64000010
   14.72972202  116.47899628    2.93000007    2.66000009
   14.73305511  125.99400330    2.91000009    2.64000010
   14.73638916  124.63600159    2.93000007    2.66000009
   14.73944473  119.98600006    2.91000009    2.66000009
   14.74277782  106.87500000    2.91000009    2.66000009
   14.74333382  120.81800079    2.91000009    2.66000009
   14.74638939  110.68199921    2.91000009    2.66000009
   14.74972248  119.93199921    2.89000010    2.66000009
   14.75305557  121.36100006    2.89000010    2.66000009
   14.75611115  126.08799744    2.89000010    2.66000009
   14.75944424  118.59600067    2.86999989    2.66000009
   14.76416683  118.59600067    2.86999989    2.66000009
   14.76833344  116.86599731    2.86999989    2.66000009
   14.77166653  125.13800049    2.86999989    2.66000009
   14.77499962  115.84600067    2.86999989    2.66000009
   14.77638817  120.49800110    2.86999989    2.66000009
   14.77861118  121.55400085    2.86999989    2.66000009
   14.78166676  116.40899658    2.86999989    2.66000009
   14.78500080  120.90899658    2.86999989    2.66000009
   14.78805637  117.58799744    2.84999990    2.66000009
   14.79138947  120.01699829    2.84999990    2.66000009
   14.79472256  116.60299683    2.86999989    2.66000009
   14.79777813  116.05300140    2.84999990    2.66000009
   14.80111122  125.56400299    2.84999990    2.66000009
   14.82222176  125.56400299    2.84999990    2.66000009
   14.82638836  129.52000427    2.84999990    2.66000009
   14.82972240  115.41600037    2.84999990    2.66000009
   14.83277798  119.91600037    2.84999990    2.66000009
   14.83611107  113.97399902    2.84999990    2.66000009
   14.83944416  115.26999664    2.84999990    2.66000009
   14.84249973  122.59899902    2.84999990    2.66000009
   14.84583282  124.20500183    2.84999990    2.66000009
   14.84888840  112.33000183    2.82999992    2.67000008
   14.85222244  118.33000183    2.82999992    2.66000009
   14.85305595  119.28199768    2.82999992    2.67000008
   14.85611153  116.76899719    2.84999990    2.67000008
   14.85916710  117.99199677    2.82999992    2.66000009
   14.86500072  117.99199677    2.84999990    2.66000009
   14.86916637  115.53099823    2.84999990    2.66000009
   14.87250042  119.45800018    2.84999990    2.66000009
   14.87555599  116.19899750    2.84999990    2.66000009
   14.87888908  129.85600281    2.84999990    2.66000009
   14.88194466  116.12500000    2.84999990    2.67000008
   14.88527775  126.98100281    2.82999992    2.66000009
   14.88638878  119.28900146    2.82999992    2.67000008
   14.88916683  118.34200287    2.82999992    2.67000008
   14.89222240  118.19300079    2.82999992    2.66000009
   14.89555550  119.79900360    2.80999994    2.66000009
   14.89888859  123.11100006    2.82999992    2.66000009
   14.90194416  111.99199677    2.80999994    2.66000009
   14.90805531  111.99199677    2.80999994    2.66000009
   14.91333294  119.37899780    2.80999994    2.67000008
   14.91638851  120.06500244    2.78999996    2.66000009
   15.06888866   -1.00000000   -1.00000000   -1.00000000
   15.09166622  140.95500183    2.73000002    2.67000008
   15.09777737  119.69999695    2.73000002    2.67000008
   15.10111141  121.10199738    2.73000002    2.67000008
   15.10416698  127.60800171    2.73000002    2.67000008
   15.10750008  121.18499756    2.73000002    2.67000008
   15.11083412  116.52700043    2.71000004    2.67000008
   15.11388969  121.01100159    2.71000004    2.67000008
   15.11722279  126.39399719    2.71000004    2.67000008
   15.12055588  127.40899658    2.71000004    2.67000008
   15.12361145  111.33799744    2.71000004    2.67000008
   15.12500000  119.42099762    2.71000004    2.67000008
   15.12722206  115.62999725    2.71000004    2.67000008
   15.13055611  113.02799988    2.71000004    2.67000008
   15.13361073  131.83200073    2.71000004    2.67000008
   15.13694477  113.55400085    2.71000004    2.67000008
   15.14000034  113.34700012    2.69000006    2.67000008
   15.14333344  121.76000214    2.71000004    2.67000008
   15.14666653  120.56199646    2.71000004    2.67000008
   15.14972210  114.34300232    2.69000006    2.67000008
   15.15305519  118.93099976    2.69000006    2.67000008
   15.15638828  119.66999817    2.69000006    2.66000009
   15.15833282  116.86399841    2.71000004    2.67000008
   15.15999985  114.66799927    2.73000002    2.67000008
   15.16333294  109.02999878    2.73000002    2.67000008
   15.16638851  117.74299622    2.73000002    2.67000008
   15.16972256  117.11000061    2.73000002    2.67000008
   15.17277813  118.13099670    2.73000002    2.67000008
   15.17611122  120.45999908    2.73000002    2.67000008
   15.17944431  113.35399628    2.73000002    2.69000006
   15.18249989  111.70999908    2.73000002    2.67000008
   15.18583298  114.04199982    2.71000004    2.69000006
   15.18888855  120.42600250    2.73000002    2.67000008
   15.19166660  117.80599976    2.73000002    2.67000008
   15.19277763  119.00800323    2.73000002    2.67000008
   15.19583321  110.65699768    2.71000004    2.67000008
   15.19916630  111.86199951    2.73000002    2.66000009
   15.20249939  111.07900238    2.73000002    2.67000008
   15.20555496  113.15399933    2.71000004    2.67000008
   15.20888901  109.87400055    2.71000004    2.67000008
   15.21222210  110.67199707    2.71000004    2.67000008
   15.21555519  117.43499756    2.69000006    2.67000008
   15.21861076  118.59799957    2.71000004    2.67000008
   15.22194386  118.18399811    2.71000004    2.67000008
   15.22499943  116.68800354    2.69000006    2.69000006
   15.22555542  128.04499817    2.69000006    2.69000006
   15.22861099  116.87400055    2.71000004    2.67000008
   15.23194408  121.09700012    2.71000004    2.67000008
   15.23527813  118.79000092    2.71000004    2.67000008
   15.23833370  113.90100098    2.71000004    2.67000008
   15.24166679  117.65299988    2.71000004    2.67000008
   15.24499989  117.73799896    2.71000004    2.67000008
   15.24833393  116.62999725    2.69000006    2.67000008
   15.25166702  110.44899750    2.69000006    2.69000006
   15.25472260  114.52999878    2.69000006    2.67000008
   15.25805569  116.29799652    2.69000006    2.67000008
   15.25861073  116.00399780    2.69000006    2.67000008
   15.26194477  117.69799805    2.67000008    2.67000008
   15.26500034  112.01000214    2.67000008    2.67000008
   15.26833344  122.05699921    2.67000008    2.67000008
   15.27138901  124.23100281    2.67000008    2.67000008
   15.27472210  109.11799622    2.67000008    2.67000008
   15.27805519  115.09500122    2.67000008    2.67000008
   15.28111076  113.55799866    2.66000009    2.67000008
   15.28444481  118.92500305    2.66000009    2.67000008
   15.28777790  124.16999817    2.66000009    2.67000008
   15.29083347  121.58599854    2.66000009    2.67000008
   15.29194450  124.74299622    2.66000009    2.67000008
   15.29472256  112.00599670    2.66000009    2.67000008
   15.29777813  116.61900330    2.67000008    2.67000008
   15.30111122  111.94499969    2.66000009    2.67000008
   15.30416679  113.72599792    2.67000008    2.67000008
   15.30749989  117.92099762    2.67000008    2.67000008
   15.31083393  122.61100006    2.66000009    2.69000006
   15.31388950  110.97499847    2.66000009    2.69000006
   15.31722260  110.50099945    2.66000009    2.67000008
   15.32055569  120.94200134    2.66000009    2.67000008
   15.32361126  123.55200195    2.66000009    2.67000008
   15.32527733  116.02600098    2.64000010    2.67000008
   15.32750034  116.88200378    2.64000010    2.67000008
   15.33055592  110.58899689    2.64000010    2.67000008
   15.33388901  123.48200226    2.64000010    2.67000008
   15.33694458  114.54799652    2.64000010    2.69000006
   15.34027767  109.94100189    2.64000010    2.67000008
   15.34361076  108.51899719    2.64000010    2.69000006
   15.34666634  112.82399750    2.64000010    2.69000006
   15.35000038  112.01000214    2.64000010    2.69000006
   15.35333347  113.65899658    2.61999989    2.67000008
   15.35638905  109.21499634    2.61999989    2.67000008
   15.35861111  109.92900085    2.61999989    2.67000008
   15.36027813  116.13400269    2.61999989    2.69000006
   15.36333370  123.57700348    2.64000010    2.69000006
   15.36666679  112.51499939    2.64000010    2.67000008
   15.36972237  107.65799713    2.61999989    2.69000006
   15.37305546  119.37400055    2.61999989    2.67000008
   15.37638855  113.64099884    2.61999989    2.69000006
   15.37944412  111.90499878    2.61999989    2.67000008
   15.38277817  121.96900177    2.61999989    2.69000006
   15.38611126  111.85500336    2.61999989    2.67000008
   15.38916683  112.91999817    2.61999989    2.69000006
   15.39194393  111.50199890    2.61999989    2.69000006
   15.39305496  113.42500305    2.61999989    2.67000008
   15.39611053  113.47799683    2.61999989    2.67000008
   15.39944458  120.84200287    2.61999989    2.69000006
   15.40277767  117.60199738    2.61999989    2.69000006
   15.40583324  107.64399719    2.61999989    2.69000006
   15.40916634  119.63800049    2.61999989    2.69000006
   15.41249943  111.32599640    2.59999990    2.69000006
   15.41555500  113.10900116    2.61999989    2.67000008
   15.41888905  112.02799988    2.59999990    2.69000006
   15.42222214  116.13099670    2.59999990    2.67000008
   15.42527771  122.62400055    2.59999990    2.69000006
   15.42583370  110.50099945    2.59999990    2.69000006
   15.42888927  106.49700165    2.59999990    2.69000006
   15.43222237  111.77400208    2.59999990    2.69000006
   15.43555546  109.30500031    2.59999990    2.69000006
   15.43861103  112.91799927    2.59999990    2.69000006
   15.44194412  107.73600006    2.59999990    2.67000008
   15.44499969  118.98000336    2.59999990    2.69000006
   15.44833374  107.44200134    2.61999989    2.69000006
   15.45166683  112.10500336    2.61999989    2.69000006
   15.45472240  107.76300049    2.61999989    2.69000006
   15.45805550  103.50800323    2.61999989    2.69000006
   15.45861053  114.77600098    2.61999989    2.69000006
   15.46166611  114.98500061    2.61999989    2.69000006
   15.46472168  111.55799866    2.61999989    2.69000006
   15.46805477  114.02400208    2.59999990    2.69000006
   15.47138882  108.70200348    2.59999990    2.69000006
   15.47499943  112.77799988    2.59999990    2.67000008
   15.47805500  110.66999817    2.57999992    2.69000006
   15.48138809  110.26399994    2.57999992    2.69000006
   15.48472214  111.42600250    2.57999992    2.69000006
   15.48777771  108.11799622    2.57999992    2.69000006
   15.49111176  111.77200317    2.57999992    2.69000006
   15.49194431  107.86000061    2.57999992    2.69000006
   15.49472237  115.62599945    2.57999992    2.69000006
   15.49777794  112.46700287    2.57999992    2.69000006
   15.50111103  111.68000031    2.57999992    2.69000006
   15.50444412  113.13600159    2.57999992    2.69000006
   15.50749969  115.99600220    2.57999992    2.69000006
   15.51083374  112.29199982    2.57999992    2.67000008
   15.51416683  109.11299896    2.57999992    2.69000006
   15.51722240  110.76999664    2.55999994    2.69000006
   15.52083302  110.75900269    2.55999994    2.69000006
   15.52416611  107.19699860    2.55999994    2.69000006
   15.52527714  111.56400299    2.55999994    2.69000006
   15.52777767  108.80200195    2.55999994    2.69000006
   15.53083324  115.55599976    2.55999994    2.69000006
   15.53416729  112.36199951    2.55999994    2.69000006
   15.53750038  109.00299835    2.53999996    2.69000006
   15.54055595  107.31800079    2.53999996    2.69000006
   15.54388905  111.29799652    2.53999996    2.69000006
   15.54722309  104.78900146    2.53999996    2.69000006
   15.55027771  112.94100189    2.53999996    2.69000006
   15.55361176  111.38700104    2.53999996    2.69000006
   15.55666733  111.17800140    2.53999996    2.69000006
   15.55861092  112.98899841    2.53999996    2.69000006
   15.56055546  114.47100067    2.55999994    2.69000006
   15.56361103  107.90599823    2.55999994    2.69000006
   15.56694412  111.66200256    2.55999994    2.69000006
   15.57027817  113.13800049    2.55999994    2.69000006
   15.57333374  105.52999878    2.55999994    2.71000004
   15.57666683  112.13999939    2.55999994    2.69000006
   15.57999992  114.58100128    2.55999994    2.69000006
   15.58305550  111.86900330    2.55999994    2.69000006
   15.58638859  110.64499664    2.53999996    2.69000006
   15.58972168  108.11699677    2.53999996    2.69000006
   15.59194374  110.86199951    2.53999996    2.69000006
   15.59333324  120.07599640    2.55999994    2.69000006
   15.59638882  112.00099945    2.53999996    2.69000006
   15.59972191  107.12300110    2.53999996    2.69000006
   15.60305595  111.17900085    2.53999996    2.69000006
   15.60611153  112.09799957    2.51999998    2.69000006
   15.60944462  111.08000183    2.51999998    2.71000004
   15.61277771  109.26100159    2.50000000    2.69000006
   15.61583328  109.64199829    2.51999998    2.69000006
   15.61944485  109.61199951    2.51999998    2.69000006
   15.62250042  114.86199951    2.51999998    2.69000006
   15.62527752  113.37000275    2.51999998    2.69000006
   15.62638855  107.66600037    2.51999998    2.69000006
   15.62944412  109.09999847    2.51999998    2.69000006
   15.63277817  104.98000336    2.53999996    2.69000006
   15.63611126  105.51200104    2.53999996    2.69000006
   15.63916683  108.08100128    2.53999996    2.69000006
   15.64249992  112.25299835    2.53999996    2.69000006
   15.64583302  119.18299866    2.53999996    2.69000006
   15.64888859  105.13800049    2.53999996    2.69000006
   15.65222168  121.37500000    2.55999994    2.69000006
   15.65527725  109.43800354    2.57999992    2.69000006
   15.65861034  111.24600220    2.57999992    2.71000004
   15.65916634  113.27799988    2.57999992    2.69000006
   15.66222191  109.98300171    2.55999994    2.69000006
   15.66555500  111.33899689    2.55999994    2.69000006
   15.66888905  109.03299713    2.57999992    2.69000006
   15.67194462  118.38400269    2.55999994    2.69000006
   15.67527771  116.36900330    2.57999992    2.71000004
   15.67861176  117.18800354    2.57999992    2.69000006
   15.68166733  112.84200287    2.57999992    2.69000006
   15.68500042  111.80799866    2.57999992    2.69000006
   15.68805599  110.95999908    2.57999992    2.69000006
   15.69138908  109.56800079    2.57999992    2.69000006
   15.69194412  104.95400238    2.57999992    2.69000006
   15.69499969  114.61199951    2.57999992    2.71000004
   15.69833374  109.35199738    2.57999992    2.69000006
   15.70138836  117.49500275    2.57999992    2.69000006
   15.70472240  112.96700287    2.57999992    2.69000006
   15.70777798  104.69100189    2.59999990    2.69000006
   15.71111107  109.14399719    2.57999992    2.69000006
   15.71444416  108.49800110    2.55999994    2.71000004
   15.71749973  111.57900238    2.55999994    2.69000006
   15.72166634  111.88899994    2.55999994    2.69000006
   15.72499943  107.98699951    2.55999994    2.71000004
   15.72555542  121.78099823    2.55999994    2.69000006
   15.72888851  106.15599823    2.55999994    2.69000006
   15.73194408  107.05599976    2.55999994    2.69000006
   15.73527813  109.82599640    2.55999994    2.69000006
   15.73833370  110.38099670    2.53999996    2.69000006
   15.74194431  112.69000244    2.55999994    2.71000004
   15.74527836  112.76499939    2.55999994    2.69000006
   15.74861145  106.76999664    2.55999994    2.69000006
   15.75166702  105.20899963    2.53999996    2.69000006
   15.75500011  111.69599915    2.55999994    2.69000006
   15.75805569  106.04900360    2.53999996    2.69000006
   15.75888920  114.18800354    2.53999996    2.71000004
   15.76194477  109.23100281    2.53999996    2.69000006
   15.76500034  107.18699646    2.53999996    2.69000006
   15.76833344  108.24800110    2.53999996    2.69000006
   15.77138901  113.07299805    2.53999996    2.69000006
   15.77472210  116.97200012    2.51999998    2.69000006
   15.77805519  112.36699677    2.53999996    2.69000006
   15.78111076  103.20600128    2.51999998    2.71000004
   15.78444481  113.44599915    2.51999998    2.69000006
   15.78777790  116.23899841    2.51999998    2.69000006
   15.79083347  110.45500183    2.51999998    2.71000004
   15.79222298  112.15399933    2.51999998    2.71000004
   15.79472256  109.38400269    2.50000000    2.69000006
   15.79777813  114.49400330    2.50000000    2.69000006
   15.80111122  113.36799622    2.50000000    2.69000006
   15.80416679  110.59799957    2.50000000    2.69000006
   15.80749989  118.90699768    2.48000002    2.71000004
   15.81083393  113.33799744    2.50000000    2.69000006
   15.81388950  120.43399811    2.48000002    2.69000006
   15.81722260  109.59100342    2.48000002    2.69000006
   15.82055569  117.23799896    2.46000004    2.71000004
   15.82388878  117.47899628    2.48000002    2.69000006
   15.82555580  119.91400146    2.48000002    2.69000006
   15.82750034  117.18000031    2.48000002    2.71000004
   15.83055592  107.01399994    2.48000002    2.71000004
   15.83388901  101.89399719    2.48000002    2.71000004
   15.83722210  108.19899750    2.48000002    2.69000006
   15.84027767  113.92600250    2.48000002    2.69000006
   15.84361076  113.40899658    2.48000002    2.69000006
   15.84666634  113.50000000    2.48000002    2.69000006
   15.85000038  116.74500275    2.48000002    2.71000004
   15.85333347  112.34700012    2.48000002    2.69000006
   15.85638905  112.02100372    2.50000000    2.69000006
   15.85888958  105.70700073    2.48000002    2.71000004
   15.86027813  107.45500183    2.50000000    2.71000004
   15.86333370  117.53399658    2.48000002    2.71000004
   15.86666679  111.68599701    2.48000002    2.71000004
   15.86972237  112.15000153    2.46000004    2.69000006
   15.87305546  115.53299713    2.46000004    2.69000006
   15.87638855  112.72000122    2.48000002    2.69000006
   15.87944412  116.96199799    2.48000002    2.71000004
   15.88277817  110.28099823    2.46000004    2.71000004
   15.88611126  122.57700348    2.46000004    2.69000006
   15.88916683  109.04799652    2.48000002    2.71000004
   15.89222240  121.03900146    2.46000004    2.69000006
   15.89305496  111.40200043    2.46000004    2.71000004
   15.89611053  110.81800079    2.48000002    2.71000004
   15.89944458  110.33499908    2.46000004    2.71000004
   15.90277767  109.84500122    2.48000002    2.71000004
   15.90583324  115.12100220    2.48000002    2.69000006
   15.90916634  107.53199768    2.48000002    2.69000006
   15.91222191  117.46900177    2.48000002    2.69000006
   15.91555500  114.96700287    2.48000002    2.69000006
   15.91888905  110.33300018    2.48000002    2.69000006
   15.92194462  111.07099915    2.48000002    2.69000006
   15.92527771  105.81999969    2.48000002    2.69000006
   15.92583370  110.98500061    2.48000002    2.69000006
   15.92916679  114.48699951    2.48000002    2.71000004
   15.93222237  107.97100067    2.48000002    2.71000004
   15.93555546  101.23899841    2.48000002    2.71000004
   15.93861103  109.60199738    2.48000002    2.71000004
   15.94194412   99.60810089    2.48000002    2.71000004
   15.94527817  115.48699951    2.48000002    2.69000006
   15.94833374  113.83499908    2.48000002    2.71000004
   15.95166683  113.68900299    2.50000000    2.71000004
   15.95499992  109.84700012    2.48000002    2.69000006
   15.95805550  108.20200348    2.48000002    2.71000004
   15.95916653  108.67199707    2.48000002    2.71000004
   15.96194458  109.94000244    2.48000002    2.71000004
   15.97361088  111.46399689    0.00000000    0.00000000
   15.97666645  114.50399780    2.46000004    2.69000006
   15.97999954  109.47100067    2.46000004    2.71000004
   15.98333359  111.56600189    2.46000004    2.69000006
   15.98638916  117.84899902    2.46000004    2.71000004
   15.98972225  109.51899719    2.46000004    2.69000006
   15.99250031  110.47899628    2.46000004    2.71000004
   15.99361134  111.52500153    2.46000004    2.69000006
   15.99666691  113.60800171    2.46000004    2.69000006
   16.00000000  114.02999878    2.46000004    2.71000004
   16.00305557  114.66999817    2.46000004    2.71000004
   16.00638962  115.11199951    2.48000002    2.71000004
   16.00972176  109.19000244    2.46000004    2.71000004
   16.01277733  112.94100189    2.46000004    2.71000004
   16.01611137  111.22599792    2.46000004    2.71000004
   16.01944351  115.58100128    2.46000004    2.71000004
   16.02249908  110.61299896    2.46000004    2.71000004
   16.02583313  110.09799957    2.46000004    2.71000004
   16.02638817  113.57399750    2.46000004    2.71000004
   16.02944374  111.12799835    2.46000004    2.71000004
   16.03277779  114.36199951    2.46000004    2.71000004
   16.03583336  106.29900360    2.44000006    2.71000004
   16.03916550  110.46399689    2.44000006    2.71000004
   16.04249954  111.61399841    2.44000006    2.71000004
   16.04555511  109.66999817    2.44000006    2.71000004
   16.04888916  106.06500244    2.44000006    2.69000006
   16.05222130  106.83799744    2.44000006    2.71000004
   16.05527687  113.12200165    2.42000008    2.71000004
   16.05861092  111.59799957    2.44000006    2.71000004
   16.05916595  110.10700226    2.44000006    2.69000006
   16.06222153  101.50800323    2.44000006    2.69000006
   16.06527710  111.55000305    2.44000006    2.71000004
   16.06861115  112.47599792    2.44000006    2.71000004
   16.07194519  115.97000122    2.44000006    2.71000004
   16.07500076  106.53800201    2.44000006    2.71000004
   16.07833481  109.93699646    2.44000006    2.71000004
   16.08139038  116.04299927    2.44000006    2.71000004
   16.08472252  106.00299835    2.44000006    2.71000004
   16.08805656  108.22100067    2.44000006    2.69000006
   16.09111214  108.41500092    2.42000008    2.71000004
   16.09250069  111.26599884    2.42000008    2.69000006
   16.09500122  110.27899933    2.42000008    2.71000004
   16.09805679  120.51200104    2.44000006    2.71000004
   16.11777878  106.99500275    2.44000006    2.71000004
   16.12111092  109.36299896    2.44000006    2.71000004
   16.12416649  106.21600342    2.44000006    2.71000004
   16.12583351  111.23999786    2.46000004    2.71000004
   16.12805557  110.22000122    2.44000006    2.69000006
   16.13111115  107.19499969    2.44000006    2.71000004
   16.13444519  105.60800171    2.46000004    2.71000004
   16.13777733  111.73300171    2.46000004    2.71000004
   16.14083290  106.96900177    2.46000004    2.71000004
   16.14416695  106.40100098    2.44000006    2.71000004
   16.14749908  113.05100250    2.44000006    2.71000004
   16.15055466  110.24700165    2.42000008    2.71000004
   16.15388870  110.47899628    2.44000006    2.71000004
   16.15694427  108.28099823    2.44000006    2.71000004
   16.15916634  108.21199799    2.42000008    2.71000004
   16.16083336  105.29699707    2.42000008    2.71000004
   16.16388893  113.96399689    2.42000008    2.71000004
   16.16722107  104.93299866    2.40000010    2.71000004
   16.17055511  110.33899689    2.42000008    2.71000004
   16.17361069  111.36699677    2.42000008    2.71000004
   16.17694473  111.52100372    2.40000010    2.71000004
   16.18027687  106.56999969    2.42000008    2.71000004
   16.18333244  114.10800171    2.42000008    2.71000004
   16.18666649  103.22200012    2.42000008    2.71000004
   16.18972206  112.24199677    2.42000008    2.71000004
   16.19249916  108.60600281    2.42000008    2.71000004
   16.19361115  105.13300323    2.42000008    2.71000004
   16.19666672  114.45099640    2.42000008    2.69000006
   16.20000076  111.23899841    2.44000006    2.71000004
   16.20333481  108.48899841    2.44000006    2.71000004
   16.20639038  110.28099823    2.44000006    2.69000006
   16.20972252  105.97499847    2.44000006    2.71000004
   16.21305656  112.04399872    2.44000006    2.71000004
   16.21611214  109.69300079    2.44000006    2.71000004
   16.21944427  111.13700104    2.44000006    2.71000004
   16.22249985  108.97299957    2.42000008    2.71000004
   16.22583389  108.99900055    2.42000008    2.71000004
   16.22638893  109.65299988    2.42000008    2.71000004
   16.22944450  101.21700287    2.42000008    2.71000004
   16.23277855  107.48000336    2.42000008    2.71000004
   16.23611069  106.10500336    2.42000008    2.71000004
   16.23916626  110.80799866    2.40000010    2.71000004
   16.24250031  107.09300232    2.40000010    2.71000004
   16.24583435  110.53399658    2.39000010    2.71000004
   16.24888992  105.73100281    2.36999989    2.71000004
   16.25222206  104.95600128    2.36999989    2.71000004
   16.25527763  108.87300110    2.36999989    2.71000004
   16.25861168  100.60399628    2.36999989    2.71000004
   16.25916672  109.01699829    2.39000010    2.71000004
   16.26222229  104.77999878    2.36999989    2.71000004
   16.26555634  112.69200134    2.36999989    2.71000004
   16.26861000  107.54000092    2.39000010    2.71000004
   16.27194405  116.15599823    2.39000010    2.71000004
   16.27527809  108.97100067    2.39000010    2.71000004
   16.27833366  107.59400177    2.39000010    2.73000002
   16.28166580  106.28099823    2.39000010    2.71000004
   16.28472137  103.29499817    2.39000010    2.71000004
   16.28805542  102.25199890    2.36999989    2.71000004
   16.29138756  111.84300232    2.36999989    2.71000004
   16.29249954  110.27899933    2.39000010    2.71000004
   16.29500008  106.30000305    2.36999989    2.71000004
   16.29833221  108.02700043    2.39000010    2.71000004
   16.30138779  110.09400177    2.39000010    2.71000004
   16.30472183  107.43599701    2.40000010    2.71000004
   16.30777740  113.87999725    2.39000010    2.71000004
   16.31110954  107.90399933    2.40000010    2.71000004
   16.31444359  108.84200287    2.40000010    2.71000004
   16.31750107  109.78900146    2.40000010    2.71000004
   16.32083511  115.77799988    2.40000010    2.71000004
   16.32416725  116.95099640    2.40000010    2.71000004
   16.32583427  107.66500092    2.40000010    2.71000004
   16.32777786  109.14600372    2.40000010    2.71000004
   16.33111191  110.81099701    2.42000008    2.71000004
   16.33416748  113.48899841    2.40000010    2.71000004
   16.33750153  103.63500214    2.40000010    2.71000004
   16.34055710  107.81999969    2.40000010    2.71000004
   16.34388924  106.03099823    2.40000010    2.71000004
   16.34722328  102.57900238    2.39000010    2.71000004
   16.35055542  109.28900146    2.36999989    2.71000004
   16.35361099  104.00399780    2.36999989    2.71000004
   16.35694504  107.94300079    2.36999989    2.71000004
   16.35916710  104.03800201    2.36999989    2.73000002
   16.36055565  110.18699646    2.36999989    2.71000004
   16.36388969  114.12799835    2.36999989    2.71000004
   16.36694527  106.55000305    2.36999989    2.71000004
   16.37027740  112.27899933    2.36999989    2.71000004
   16.37333298  102.76799774    2.36999989    2.71000004
   16.37666702  103.83100128    2.36999989    2.71000004
   16.38000107  113.73799896    2.36999989    2.71000004
   16.38305473  109.70600128    2.36999989    2.71000004
   16.38638878  111.42800140    2.36999989    2.71000004
   16.38972282  111.90499878    2.36999989    2.71000004
   16.39249992  119.27200317    2.36999989    2.71000004
   16.39333344  108.05799866    2.36999989    2.73000002
   16.39666748  103.41000366    2.36999989    2.71000004
   16.39972115  105.93299866    2.39000010    2.73000002
   16.40305519   98.36859894    2.36999989    2.71000004
   16.40611076  107.33000183    2.39000010    2.71000004
   16.40944481  117.31800079    2.39000010    2.71000004
   16.41277695  111.05500031    2.40000010    2.71000004
   16.41583252  105.86199951    2.40000010    2.71000004
   16.41916656  100.87699890    2.39000010    2.73000002
   16.42249870  111.82199860    2.40000010    2.71000004
   16.42555428  106.84500122    2.40000010    2.71000004
   16.42611122  106.21199799    2.40000010    2.71000004
   16.42944336  105.30799866    2.39000010    2.71000004
   16.43249893  105.44100189    2.39000010    2.73000002
   16.43583298  101.66400146    2.39000010    2.73000002
   16.43916512  104.54000092    2.39000010    2.71000004
   16.44222069  108.29399872    2.40000010    2.73000002
   16.44555473  104.48500061    2.40000010    2.71000004
   16.44888878  103.07800293    2.39000010    2.73000002
   16.45194435  103.23200226    2.39000010    2.71000004
   16.45527840  109.05599976    2.40000010    2.71000004
   16.45861244  104.86599731    2.40000010    2.71000004
   16.45944595  107.99700165    2.40000010    2.71000004
   16.46222305  107.79100037    2.42000008    2.71000004
   16.46527863  112.24299622    2.40000010    2.71000004
   16.46861076  109.43699646    2.40000010    2.71000004
   16.47194481  113.41300201    2.40000010    2.71000004
   16.47500038  111.39299774    2.39000010    2.71000004
   16.47833443  105.63899994    2.36999989    2.71000004
   16.48166656  105.91999817    2.36999989    2.73000002
   16.48472214  106.73300171    2.34999990    2.71000004
   16.48805618  109.42299652    2.36999989    2.71000004
   16.49111176  107.48000336    2.34999990    2.71000004
   16.49277878  104.97200012    2.36999989    2.71000004
   16.49500084  112.11699677    2.34999990    2.73000002
   16.49805641  110.36900330    2.34999990    2.73000002
   16.50138855  113.46399689    2.34999990    2.71000004
   16.50472260  100.45899963    2.32999992    2.71000004
   16.50777817  102.49800110    2.32999992    2.71000004
   16.51111031  108.52200317    2.32999992    2.73000002
   16.51444435  104.17299652    2.30999994    2.71000004
   16.51749992  102.09100342    2.30999994    2.71000004
   16.52083397  106.04299927    2.30999994    2.71000004
   16.52416611  105.77200317    2.32999992    2.73000002
   16.52611160  106.16100311    2.32999992    2.73000002
   16.52777672  108.70999908    2.32999992    2.73000002
   16.53083229  105.60399628    2.32999992    2.71000004
   16.53416634  107.01699829    2.32999992    2.71000004
   16.53750038  108.36799622    2.32999992    2.71000004
   16.54055595  106.27400208    2.30999994    2.71000004
   16.54388809  106.02400208    2.32999992    2.71000004
   16.54722214  101.67099762    2.30999994    2.71000004
   16.55027771  105.13700104    2.39000010    2.71000004
   16.55360985  110.48500061    2.48000002    2.71000004
   16.55666542  101.61900330    2.51999998    2.71000004
   16.55944443  102.08699799    2.51999998    2.71000004
   16.56055450   97.32869720    2.53999996    2.71000004
   16.56388855  103.54100037    2.51999998    2.73000002
   16.56694603  110.11799622    2.50000000    2.71000004
   16.57027817  106.29000092    2.50000000    2.71000004
   16.57333374  109.24400330    2.50000000    2.71000004
   16.57666779  115.68800354    2.48000002    2.71000004
   16.58000183  105.32700348    2.46000004    2.71000004
   16.58305550  109.52899933    2.44000006    2.71000004
   16.58638954  105.72000122    2.46000004    2.73000002
   16.58972359  112.48500061    2.44000006    2.71000004
   16.59277916  111.77100372    2.44000006    2.71000004
   16.59333420  110.06600189    2.44000006    2.71000004
   16.59666824   99.65869904    2.44000006    2.73000002
   16.59972191  108.13099670    2.42000008    2.71000004
   16.60305595  105.11000061    2.42000008    2.73000002
   16.60639000  107.34100342    2.40000010    2.71000004
   16.60944557  110.80699921    2.40000010    2.71000004
   16.61277771  105.22599792    2.40000010    2.71000004
   16.61611176  104.27899933    2.40000010    2.73000002
   16.61916733  112.03600311    2.40000010    2.73000002
   16.62249947  116.54000092    2.40000010    2.73000002
   16.62555504  110.50599670    2.40000010    2.71000004
   16.62611198  107.94899750    2.40000010    2.73000002
   16.62916756  104.57599640    2.40000010    2.73000002
   16.63249969  102.09500122    2.40000010    2.71000004
   16.63555527  115.18199921    2.39000010    2.73000002
   16.63888931  105.31999969    2.36999989    2.71000004
   16.64222145  106.02999878    2.34999990    2.73000002
   16.64527702  107.66200256    2.32999992    2.73000002
   16.64861107  105.44200134    2.32999992    2.73000002
   16.65166664  104.99199677    2.32999992    2.73000002
   16.65499878  109.81199646    2.32999992    2.71000004
   16.65833282  108.66100311    2.30999994    2.73000002
   16.65944481  105.62300110    2.30999994    2.73000002
   16.66194344  112.40299988    2.30999994    2.73000002
   16.66527748  112.68000031    2.30999994    2.73000002
   16.66833305  101.49099731    2.30999994    2.73000002
   16.67166519  108.23400116    2.30999994    2.71000004
   16.67499924  111.15899658    2.30999994    2.73000002
   16.67805481  107.03500366    2.32999992    2.73000002
   16.68138885  106.32700348    2.32999992    2.73000002
   16.68444443  110.36000061    2.32999992    2.73000002
   16.68777657  107.97699738    2.30999994    2.73000002
   16.69111061  111.36299896    2.30999994    2.73000002
   16.69277763  105.90299988    2.30999994    2.73000002
   16.69472122  111.68800354    2.32999992    2.73000002
   16.69805527  110.66699982    2.30999994    2.73000002
   16.70111275  105.29699707    2.32999992    2.71000004
   16.70444489  104.87200165    2.30999994    2.71000004
   16.70777893  101.40599823    2.32999992    2.71000004
   16.71083450  102.59500122    2.32999992    2.73000002
   16.71416664  111.39099884    2.32999992    2.71000004
   16.71722221  109.69300079    2.32999992    2.73000002
   16.72055626  107.45600128    2.34999990    2.73000002
   16.72389030  110.00399780    2.34999990    2.71000004
   16.72611237  109.23300171    2.34999990    2.73000002
   16.72750092  112.74299622    2.34999990    2.73000002
   16.73083305  105.19999695    2.34999990    2.71000004
   16.73500061  107.29299927    2.36999989    2.73000002
   16.73833275  105.71199799    2.34999990    2.73000002
   16.74138832  112.39199829    2.34999990    2.71000004
   16.74472237  103.31300354    2.32999992    2.71000004
   16.74805641  107.92400360    2.34999990    2.73000002
   16.75111198  111.52500153    2.34999990    2.71000004
   16.75444412  108.86399841    2.34999990    2.73000002
   16.75749969  106.94100189    2.32999992    2.73000002
   16.75944519  107.44899750    2.32999992    2.73000002
   16.76111031  105.90200043    2.34999990    2.73000002
   16.76444435  112.53399658    2.32999992    2.73000002
   16.76749992  110.29599762    2.34999990    2.71000004
   16.77083397  107.29199982    2.34999990    2.73000002
   16.77416611  108.88700104    2.32999992    2.73000002
   16.77722168  108.62500000    2.32999992    2.73000002
   16.78055573  106.07599640    2.32999992    2.73000002
   16.78388786  109.47499847    2.32999992    2.73000002
   16.78694344  107.34200287    2.32999992    2.73000002
   16.79027748  105.62999725    2.32999992    2.73000002
   16.79277802  101.60099792    2.32999992    2.73000002
   16.79388809  105.61299896    2.32999992    2.73000002
   16.79722214  102.55699921    2.32999992    2.73000002
   16.80027771  107.24800110    2.32999992    2.73000002
   16.80360985  105.63700104    2.32999992    2.71000004
   16.80694389  106.78900146    2.32999992    2.71000004
   16.80999947  105.11199951    2.32999992    2.73000002
   16.81333351  102.61799622    2.30999994    2.71000004
   16.81666756  102.47399902    2.30999994    2.73000002
   16.81972313  102.93800354    2.28999996    2.73000002
   16.82305717  102.11299896    2.28999996    2.73000002
   16.82638931  105.86699677    2.26999998    2.73000002
   16.82666779  107.00900269    2.26999998    2.73000002
   16.83000183  102.97000122    2.26999998    2.73000002
   16.83305550  108.73500061    2.26999998    2.73000002
   16.83638954  106.25099945    2.25000000    2.73000002
   16.83972359   96.84809875    2.25000000    2.73000002
   16.84277916  112.76399994    2.25000000    2.73000002
   16.84611130  105.64199829    2.25000000    2.73000002
   16.84944534  105.56900024    2.23000002    2.73000002
   16.85250092  109.82299805    2.23000002    2.73000002
   16.85583305  108.87999725    2.23000002    2.73000002
   16.85888863  107.05100250    2.23000002    2.73000002
   16.85972214  109.17299652    2.23000002    2.73000002
   16.86250114  104.44899750    2.23000002    2.73000002
   16.86583328  107.04299927    2.21000004    2.73000002
   16.86888885  100.69999695    2.21000004    2.73000002
   16.87222290  106.70500183    2.23000002    2.71000004
   16.87555504  110.80000305    2.21000004    2.73000002
   16.87861061  103.32499695    2.21000004    2.71000004
   16.88194466  108.39900208    2.21000004    2.73000002
   16.88527679  113.08000183    2.23000002    2.73000002
   16.88833237  108.88700104    2.23000002    2.73000002
   16.89166641  110.66699982    2.23000002    2.73000002
   16.89305496  106.67400360    2.25000000    2.73000002
   16.89527702  113.68199921    2.25000000    2.73000002
   16.89861107  112.23600006    2.26999998    2.73000002
   16.90166664  107.52500153    2.25000000    2.73000002
   16.90499878  105.81800079    2.26999998    2.73000002
   16.90833282  108.66400146    2.28999996    2.73000002
   16.91138840  107.54499817    2.28999996    2.73000002
   16.91472244  108.54399872    2.30999994    2.71000004
   16.91805458  105.97599792    2.32999992    2.73000002
   16.92111015  103.82800293    2.32999992    2.73000002
   16.92444420  102.35099792    2.32999992    2.73000002
   16.92638779  105.30200195    2.30999994    2.73000002
   16.92805481  109.41899872    2.28999996    2.73000002
   16.93138885  100.22599792    2.28999996    2.73000002
   16.93444443  101.22499847    2.26999998    2.75000000
   16.93777657  104.01100159    2.26999998    2.73000002
   16.94111061  106.58100128    2.25000000    2.75000000
   16.94416618  109.40499878    2.25000000    2.73000002
   16.94749832  103.62500000    2.25000000    2.73000002
   16.95083427  112.66799927    2.25000000    2.71000004
   16.95388985  101.50199890    2.25000000    2.73000002
   16.95722389  103.12899780    2.23000002    2.73000002
   16.95972252  102.94999695    2.21000004    2.73000002
   16.96083450  107.50800323    2.21000004    2.73000002
   16.96416664  106.62300110    2.19000006    2.73000002
   16.96722221  108.72399902    2.19000006    2.73000002
   16.97055626  105.03800201    2.19000006    2.73000002
   16.97666740  109.42500305    2.17000008    2.75000000
   16.97972298  108.52300262    2.17000008    2.75000000
   16.98361206  105.13600159    2.17000008    2.71000004
   16.98694420  104.46399689    2.19000006    2.73000002
   16.98999977  107.06600189    2.19000006    2.73000002
   16.99305534  111.90799713    2.21000004    2.73000002
   16.99361229  101.76100159    2.19000006    2.73000002
   16.99694443  110.59600067    2.19000006    2.73000002
   17.00000000  105.98699951    2.19000006    2.73000002
   17.00333405  106.49299622    2.19000006    2.73000002
   17.00666618  109.27100372    2.17000008    2.73000002
   17.00972176  111.85600281    2.17000008    2.73000002
   17.01305580  109.22799683    2.17000008    2.73000002
   17.01638794  105.63600159    2.17000008    2.75000000
   17.01944351  112.77600098    2.15000010    2.73000002
   17.02277756  111.36699677    2.17000008    2.73000002
   17.02583313  110.91400146    2.17000008    2.73000002
   17.02638817  113.28399658    2.17000008    2.73000002
   17.02972221  100.54499817    2.17000008    2.73000002
   17.03305435  104.99400330    2.17000008    2.75000000
   17.03610992  109.76599884    2.17000008    2.73000002
   17.03944397  104.63800049    2.17000008    2.73000002
   17.04277802  112.21399689    2.19000006    2.73000002
   17.04583359  109.21099854    2.19000006    2.75000000
   17.04916573  107.41100311    2.19000006    2.73000002
   17.05222130  104.93199921    2.19000006    2.73000002
   17.05555534  107.23899841    2.23000002    2.73000002
   17.05888748  111.16400146    2.21000004    2.71000004
   17.05972099  109.52799988    2.21000004    2.73000002
   17.06250000  109.46800232    2.23000002    2.73000002
   17.06583214  106.36100006    2.23000002    2.73000002
   17.06888962  109.76000214    2.23000002    2.73000002
   17.07222366  110.31199646    2.25000000    2.73000002
   17.07555580  111.73100281    2.25000000    2.71000004
   17.07861137  107.64099884    2.26999998    2.73000002
   17.08194542  108.99099731    2.26999998    2.71000004
   17.08500099  100.33000183    2.26999998    2.73000002
   17.08833313   99.93299866    2.26999998    2.73000002
   17.09166718  110.14399719    2.26999998    2.73000002
   17.09305573  103.99900055    2.26999998    2.73000002
   17.09527779   98.62329865    2.26999998    2.73000002
   17.09861183  106.73899841    2.28999996    2.73000002
   17.10166740  102.84700012    2.28999996    2.73000002
   17.10499954  110.01599884    2.26999998    2.73000002
   17.10833359  103.47899628    2.25000000    2.73000002
   17.11138916  102.34400177    2.25000000    2.73000002
   17.11472321  105.41400146    2.25000000    2.73000002
   17.13333321  114.17700195    2.17000008    2.73000002
   17.13444519  109.31199646    2.19000006    2.73000002
   17.13777733  108.41100311    2.17000008    2.73000002
   17.14083290   98.54540253    2.17000008    2.71000004
   17.14416695  112.53500366    2.17000008    2.71000004
   17.14722252  112.27700043    2.15000010    2.73000002
   17.15055466  106.82199860    2.15000010    2.75000000
   17.15388870  107.52500153    2.15000010    2.75000000
   17.15694427  109.46199799    2.15000010    2.73000002
   17.16027832  107.01300049    2.15000010    2.73000002
   17.16361046  110.59400177    2.13000011    2.73000002
   17.16666603  110.64600372    2.13000011    2.73000002
   17.16722107  107.98100281    2.13000011    2.73000002
   17.17027664  112.47399902    2.13000011    2.73000002
   17.17361069  108.77300262    2.13000011    2.73000002
   17.17666626  109.87400055    2.11999989    2.73000002
   17.18000031  108.82299805    2.13000011    2.73000002
   17.18333244  109.29299927    2.13000011    2.73000002
   17.18638802  110.82199860    2.13000011    2.73000002
   17.18972206  107.82199860    2.13000011    2.73000002
   17.19305420  108.75800323    2.15000010    2.73000002
   17.19610977  105.94100189    2.15000010    2.73000002
   17.19944382  115.05100250    2.13000011    2.73000002
   17.20000076  114.00199890    2.13000011    2.75000000
   17.20305634  106.26699829    2.13000011    2.73000002
   17.20611191  107.73999786    2.13000011    2.73000002
   17.20944595  107.92400360    2.15000010    2.73000002
   17.21277809  118.84899902    2.17000008    2.73000002
   17.21583366  112.10099792    2.17000008    2.73000002
   17.21916771  108.74600220    2.19000006    2.73000002
   17.22361183  108.13700104    2.19000006    2.73000002
   17.22694588  107.17199707    2.23000002    2.73000002
   17.23027802  110.49900055    2.21000004    2.73000002
   17.23333359  105.89099884    2.23000002    2.73000002
   17.23388863  106.91200256    2.21000004    2.73000002
   17.23694420  107.52899933    2.21000004    2.73000002
   17.24027824  110.06700134    2.21000004    2.73000002
   17.24361229  112.93399811    2.23000002    2.73000002
   17.24666786  104.58300018    2.26999998    2.73000002
   17.25000000  103.58000183    2.32999992    2.73000002
   17.25333405  106.35099792    2.34999990    2.73000002
   17.25638962  104.30599976    2.36999989    2.73000002
   17.25972176  104.70600128    2.34999990    2.73000002
   17.26277733  109.76300049    2.34999990    2.73000002
   17.26611137  109.76799774    2.32999992    2.71000004
   17.26666641  108.54100037    2.32999992    2.73000002
   17.26972198  103.06800079    2.30999994    2.73000002
   17.27305603  108.18800354    2.30999994    2.73000002
   17.27611160  103.73699951    2.30999994    2.75000000
   17.27944374  107.86799622    2.28999996    2.75000000
   17.28249931  105.64900208    2.26999998    2.73000002
   17.28583336   99.36170197    2.26999998    2.73000002
   17.28916550  100.93299866    2.26999998    2.73000002
   17.29222107  106.84500122    2.25000000    2.73000002
   17.29555511  112.90499878    2.26999998    2.73000002
   17.29888916  106.65299988    2.25000000    2.73000002
   17.29999924  106.46800232    2.25000000    2.73000002
   17.30249977  103.17199707    2.25000000    2.75000000
   17.30583191  102.05000305    2.25000000    2.73000002
   17.30888748  102.80899811    2.25000000    2.73000002
   17.31222153  104.83100128    2.25000000    2.73000002
   17.31527710  107.28800201    2.25000000    2.73000002
   17.31861115  102.98600006    2.25000000    2.73000002
   17.32194519  103.05300140    2.25000000    2.71000004
   17.32500076  104.11399841    2.25000000    2.73000002
   17.32833481  108.30799866    2.25000000    2.73000002
   17.33166695  111.23000336    2.23000002    2.73000002
   17.33333397  104.01300049    2.23000002    2.75000000
   17.33527756  106.67900085    2.23000002    2.75000000
   17.33861160  110.64700317    2.23000002    2.73000002
   17.34166718  103.35800171    2.25000000    2.75000000
   17.34500122  106.63400269    2.23000002    2.73000002
   17.34805679  104.87300110    2.23000002    2.73000002
   17.35138893  104.76599884    2.21000004    2.73000002
   17.35472298  103.67099762    2.23000002    2.73000002
   17.35777855   96.89649963    2.21000004    2.73000002
   17.36111069  105.46199799    2.21000004    2.75000000
   17.36444473  106.52600098    2.19000006    2.73000002
   17.36666679  101.09400177    2.21000004    2.73000002
   17.36805534   99.31800079    2.19000006    2.73000002
   17.37138939  102.91999817    2.19000006    2.73000002
   17.37444496  105.27300262    2.19000006    2.75000000
   17.37777710  101.43199921    2.19000006    2.73000002
   17.38111115  106.72799683    2.17000008    2.73000002
   17.38416672  103.78199768    2.19000006    2.73000002
   17.38750076  110.49900055    2.21000004    2.73000002
   17.39083290  107.34400177    2.21000004    2.73000002
   17.39388847  101.15299988    2.21000004    2.73000002
   17.39722252  101.65299988    2.23000002    2.73000002
   17.39999962  101.93800354    2.23000002    2.73000002
   17.40083313  104.35600281    2.25000000    2.73000002
   17.40416718  100.42400360    2.25000000    2.73000002
   17.40722275  102.02400208    2.26999998    2.73000002
   17.41055489  106.67400360    2.25000000    2.73000002
   17.41361046  101.57800293    2.25000000    2.71000004
   17.41694450   99.67849731    2.26999998    2.73000002
   17.42027664  102.24700165    2.26999998    2.73000002
   17.42333221  100.53199768    2.26999998    2.73000002
   17.42666626   98.68990326    2.26999998    2.73000002
   17.43000031  103.91100311    2.28999996    2.73000002
   17.43305397  101.08000183    2.26999998    2.73000002
   17.43361092  103.32099915    2.30999994    2.73000002
   17.43694305  101.94400024    2.26999998    2.73000002
   17.43999863  106.74800110    2.26999998    2.73000002
   17.44333267  105.12100220    2.28999996    2.73000002
   17.44666672  106.89199829    2.26999998    2.73000002
   17.44972038  105.78199768    2.26999998    2.71000004
   17.45305634  103.08699799    2.26999998    2.73000002
   17.45639038  104.08799744    2.25000000    2.73000002
   17.45944595  110.02400208    2.25000000    2.73000002
   17.46277809  102.89099884    2.25000000    2.73000002
   17.46611214  103.21600342    2.23000002    2.73000002
   17.46694565  103.57700348    2.23000002    2.73000002
   17.46972275  104.35399628    2.23000002    2.73000002
   17.47277832  101.37999725    2.23000002    2.75000000
   17.47611237  100.72499847    2.23000002    2.71000004
   17.47944450  104.65100098    2.21000004    2.73000002
   17.48250008  103.00000000    2.19000006    2.73000002
   17.48583412   98.42729950    2.19000006    2.73000002
   17.48916626  102.76100159    2.19000006    2.73000002
   17.49222183  102.83300018    2.17000008    2.73000002
   17.49555588  100.75800323    2.17000008    2.73000002
   17.49861145  103.03399658    2.17000008    2.73000002
   17.50027847  110.20300293    2.17000008    2.73000002
   17.50250053  107.02500153    2.15000010    2.73000002
   17.50583267  108.97000122    2.15000010    2.73000002
   17.50888824  111.83100128    2.15000010    2.73000002
   17.51222229  107.08200073    2.15000010    2.73000002
   17.51527786  109.54499817    2.13000011    2.73000002
   17.51861000  106.83899689    2.13000011    2.71000004
   17.52194405  112.02600098    2.15000010    2.73000002
   17.52499962  108.14099884    2.17000008    2.73000002
   17.52833366  104.07800293    2.15000010    2.73000002
   17.53166580  103.42099762    2.17000008    2.73000002
   17.53361130  105.20200348    2.15000010    2.73000002
   17.53527641  108.88300323    2.17000008    2.73000002
   17.53833199  104.82099915    2.17000008    2.73000002
   17.54166603  108.54499817    2.19000006    2.73000002
   17.54500008  109.33799744    2.17000008    2.75000000
   17.54805565  103.81700134    2.19000006    2.73000002
   17.55138779  111.18199921    2.21000004    2.73000002
   17.55472183  107.85500336    2.19000006    2.73000002
   17.55777740  106.79299927    2.21000004    2.73000002
   17.56110954  105.19300079    2.23000002    2.73000002
   17.56416512  104.26999664    2.23000002    2.73000002
   17.56694603  108.66799927    2.25000000    2.73000002
   17.56805611  100.49400330    2.25000000    2.73000002
   17.57139015   99.49420166    2.23000002    2.73000002
   17.57444572  111.28500366    2.23000002    2.73000002
   17.57777786  104.20800018    2.23000002    2.71000004
   17.58111191   98.67949677    2.13000011    2.69000006
   17.58416748  106.52400208    0.86000001    2.01999998
   17.58750153  100.90399933    0.20999999    0.46000001
   17.59055710  105.47599792    0.11000000    0.15000001
   17.59388924  108.14900208    0.09000000    0.05000000
   17.59722328  104.41400146    0.09000000    0.05000000
   17.60027885  101.47399902    0.09000000    0.05000000
   17.60083389  105.84899902    0.09000000    0.05000000
   17.60416794  103.74900055    0.09000000    0.05000000
   17.60722351  107.31400299    0.09000000    0.05000000
   17.61055565  103.55699921    0.09000000    0.05000000
   17.61361122  106.85500336    0.09000000    0.05000000
   17.61694527  108.36499786    0.09000000    0.05000000
   17.62027740  109.70400238    0.09000000    0.05000000
   17.62333298  109.14499664    0.09000000    0.05000000
   17.62666702  108.09999847    0.09000000    0.05000000
   17.63000107  107.97599792    0.09000000    0.05000000
   17.63305473  108.37200165    0.09000000    0.05000000
   17.63361168  107.80300140    0.09000000    0.05000000
   17.63666725  105.16500092    0.09000000    0.05000000
   17.63999939  103.94799805    0.09000000    0.05000000
   17.64305496  103.58999634    0.09000000    0.05000000
   17.64638901  101.52200317    0.09000000    0.05000000
   17.64972115  106.98000336    0.09000000    0.05000000
   17.65277672  105.52500153    0.09000000    0.05000000
   17.65611076  103.76100159    0.09000000    0.05000000
   17.65916634  106.43000031    0.09000000    0.05000000
   17.66250038  102.67500305    0.09000000    0.05000000
   17.66583252  107.74800110    0.09000000    0.05000000
   17.66694450  107.92299652    0.09000000    0.05000000
   17.66944313  107.80799866    0.09000000    0.05000000
   17.67277718  101.94499969    0.09000000    0.05000000
   17.67583275  101.68499756    0.09000000    0.05000000
   17.67916679  107.95700073    0.09000000    0.05000000
   17.68249893  105.85099792    0.09000000    0.05000000
   17.68555450   97.23179626    0.09000000    0.05000000
   17.68888855  104.65799713    0.09000000    0.05000000
   17.69194412  101.49600220    0.09000000    0.05000000
   17.69527626  100.56800079    0.09000000    0.05000000
   17.69861031  108.43399811    0.09000000    0.05000000
   17.70027924  107.54199982    0.09000000    0.05000000
   17.70222282  103.24099731    0.09000000    0.05000000
   17.70555687  108.05400085    0.09000000    0.05000000
   17.70861244  105.61000061    0.09000000    0.05000000
   17.71194458  102.75900269    0.09000000    0.05000000
   17.71527863  108.99400330    0.09000000    0.05000000
   17.71861076  107.25900269    0.09000000    0.05000000
   17.72166634  102.95400238    0.09000000    0.05000000
   17.72500038  101.31900024    0.09000000    0.05000000
   17.72833443   97.88159943    0.09000000    0.05000000
   17.73139000   97.69219971    0.09000000    0.05000000
   17.73361206  100.62899780    0.09000000    0.05000000
   17.73500061   96.22370148    0.09000000    0.05000000
   17.73833275   95.30200195    0.09000000    0.05000000
   17.74138832  102.04699707    0.09000000    0.05000000
   17.74472237  104.88600159    0.09000000    0.05000000
   17.74805641  107.96700287    0.09000000    0.05000000
   17.75111198  108.77899933    0.09000000    0.05000000
   17.75444412  109.70400238    0.09000000    0.05000000
   17.75749969  106.16600037    0.09000000    0.05000000
   17.76083374  111.50000000    0.09000000    0.05000000
   17.76416588  103.16000366    0.09000000    0.05000000
   17.76694489  104.91000366    0.09000000    0.05000000
   17.76777840  105.23500061    0.09000000    0.05000000
   17.77111053  109.83999634    0.09000000    0.05000000
   17.77416611  101.03500366    0.09000000    0.05000000
   17.77750015  102.47699738    0.09000000    0.05000000
   17.78083229   99.04100037    0.09000000    0.05000000
   17.78388786  102.11499786    0.09000000    0.05000000
   17.78722191  105.06400299    0.09000000    0.05000000
   17.79055595  107.52700043    0.09000000    0.05000000
   17.79361153  102.54100037    0.09000000    0.05000000
   17.79694366  102.68199921    0.09000000    0.05000000
   17.80027771  103.03399658    0.09000000    0.05000000
   17.80083275  105.05100250    0.09000000    0.05000000
   17.80388832  103.01999664    0.09000000    0.05000000
   17.80722237  106.58799744    0.09000000    0.05000000
   17.81027794  105.16600037    0.09000000    0.05000000
   17.81361008  101.20899963    0.09000000    0.05000000
   17.81694603  108.48600006    0.09000000    0.05000000
   17.82000160  110.81800079    0.09000000    0.05000000
   17.82333374  108.51000214    0.09000000    0.05000000
   17.82666779  103.54599762    0.09000000    0.05000000
   17.82972336  103.49800110    0.09000000    0.05000000
   17.83305550  103.60399628    0.09000000    0.05000000
   17.83416748  105.44200134    0.09000000    0.05000000
   17.83666801  101.88500214    0.09000000    0.05000000
   17.84000015  105.25499725    0.09000000    0.05000000
   17.84305573  101.48699951    0.09000000    0.05000000
   17.84638977  108.55200195    0.09000000    0.05000000
   17.84972191  111.13300323    0.09000000    0.05000000
   17.85277748  111.26399994    0.09000000    0.05000000
   17.85611153  110.11199951    0.09000000    0.05000000
   17.85944557  109.23899841    0.09000000    0.05000000
   17.86250114  108.35500336    0.09000000    0.05000000
   17.86583328  103.20300293    0.09000000    0.05000000
   17.86750031  106.78199768    0.09000000    0.05000000
   17.86944389  113.04499817    0.09000000    0.05000000
   17.87277794  109.48000336    0.09000000    0.05000000
   17.87611198  106.71600342    0.09000000    0.05000000
   17.87916756  103.02600098    0.09000000    0.05000000
   17.88249969  109.29399872    0.09000000    0.05000000
   17.88555527  113.92800140    0.09000000    0.05000000
   17.88888931  106.38200378    0.09000000    0.05000000
   17.89222145  105.77799988    0.09000000    0.05000000
   17.89527702  112.98699951    0.09000000    0.05000000
   17.89861107  109.68299866    0.09000000    0.05000000
   17.90083313  103.26699829    0.09000000    0.05000000
   17.90222168  103.57099915    0.09000000    0.05000000
   17.90555573  104.56099701    0.09000000    0.05000000
   17.90861130  103.44899750    0.09000000    0.05000000
   17.91194344  110.15100098    0.09000000    0.05000000
   17.91527748  106.58300018    0.09000000    0.05000000
   17.91833305  104.52999878    0.09000000    0.05000000
   17.92166519   99.19709778    0.09000000    0.05000000
   17.92499924  108.26699829    0.09000000    0.05000000
   17.92805481  109.86199951    0.09000000    0.05000000
   17.93138885  102.50000000    0.09000000    0.05000000
   17.93416595  109.37400055    0.09000000    0.05000000
   17.93499947  107.17299652    0.09000000    0.05000000
   17.93833160  104.05999756    0.09000000    0.05000000
   17.94166565  105.90200043    0.09000000    0.05000000
   17.94472122  101.70899963    0.09000000    0.05000000
   17.94805527  100.74299622    0.09000000    0.05000000
   17.95138931  105.24700165    0.09000000    0.05000000
   17.95444489  103.96299744    0.09000000    0.05000000
   17.95777893  104.84300232    0.09000000    0.05000000
   17.96083450  104.83999634    0.09000000    0.05000000
   17.96416664  102.57299805    0.09000000    0.05000000
   17.97583389  104.11900330    0.09000000    0.05000000
   17.97638893  107.65899658    0.09000000    0.05000000
   17.97944450   98.14340210    0.09000000    0.05000000
   17.98277855  115.77999878    0.09000000    0.05000000
   17.98611069  105.95700073    0.09000000    0.05000000
   17.98916626  109.55899811    0.09000000    0.05000000
   17.99250031  107.78399658    0.09000000    0.05000000
   17.99583435  110.43099976    0.09000000    0.05000000
   17.99888992  108.97799683    0.09000000    0.05000000
   18.00083351  105.90399933    0.09000000    0.05000000
   18.00250053  103.83699799    0.09000000    0.05000000
   18.00583267  106.26599884    0.09000000    0.05000000
   18.00916672  106.80899811    0.09000000    0.05000000
   18.01222229  109.43000031    0.09000000    0.05000000
   18.01555634  105.69000244    0.09000000    0.05000000
   18.01888847  110.48999786    0.09000000    0.05000000
   18.02194405  106.55500031    0.09000000    0.05000000
   18.02527809  113.55100250    0.09000000    0.05000000
   18.02833366  112.45600128    0.09000000    0.05000000
   18.03166580  105.84500122    0.09000000    0.05000000
   18.03416634  109.22599792    0.09000000    0.05000000
   18.03527641  104.87500000    0.09000000    0.05000000
   18.03861046  117.57700348    0.09000000    0.05000000
   18.04194450  109.29100037    0.09000000    0.05000000
   18.04500008  109.31099701    0.09000000    0.05000000
   18.04833221  109.99700165    0.09000000    0.05000000
   18.05166626  105.59600067    0.09000000    0.05000000
   18.05472183  106.27300262    0.09000000    0.05000000
   18.05805397  110.38300323    0.09000000    0.05000000
   18.06110954  113.89800262    0.09000000    0.05000000
   18.06444359  106.11299896    0.09000000    0.05000000
   18.06750107  111.62999725    0.09000000    0.05000000
   18.06805611  107.52899933    0.09000000    0.05000000
   18.07139015  108.36399841    0.09000000    0.05000000
   18.07472229  105.79399872    0.09000000    0.05000000
   18.07777786  112.34899902    0.09000000    0.05000000
   18.08111191  112.36299896    0.09000000    0.05000000
   18.08444595  107.88899994    0.09000000    0.05000000
   18.08750153  106.90000153    0.09000000    0.05000000
   18.09083366  111.93199921    0.09000000    0.05000000
   18.09388924  113.87799835    0.09000000    0.05000000
   18.09722328  113.54900360    0.09000000    0.05000000
   18.10055542  102.90100098    0.09000000    0.05000000
   18.10111237  104.36499786    0.09000000    0.05000000
   18.10416794  105.16000366    0.09000000    0.05000000
   18.10750008  110.43199921    0.09000000    0.05000000
   18.11083412  105.35299683    0.09000000    0.05000000
   18.11388969  112.01899719    0.09000000    0.05000000
   18.11722183  104.93199921    0.09000000    0.05000000
   18.12027740  104.43199921    0.09000000    0.05000000
   18.12361145  105.10500336    0.09000000    0.05000000
   18.12694550  112.88600159    0.09000000    0.05000000
   18.13000107  106.90799713    0.09000000    0.05000000
   18.13333321  117.54499817    0.09000000    0.05000000
   18.13444519  108.77600098    0.09000000    0.05000000
   18.13694382  109.33899689    0.09000000    0.05000000
   18.15666580  115.44599915    0.09000000    0.05000000
   18.15972137  112.00800323    0.09000000    0.05000000
   18.16305542  112.22399902    0.09000000    0.05000000
   18.16638756  111.10900116    0.09000000    0.05000000
   18.16805458  110.02600098    0.09000000    0.05000000
   18.16972160  108.14900208    0.09000000    0.05000000
   18.17305565  111.55899811    0.09000000    0.05000000
   18.17638779  105.86399841    0.09000000    0.05000000
   18.17944336  112.80799866    0.09000000    0.05000000
   18.18277740  111.20800018    0.09000000    0.05000000
   18.18583298  102.30599976    0.09000000    0.05000000
   18.18916512  117.54199982    0.09000000    0.05000000
   18.19249916  113.53700256    0.09000000    0.05000000
   18.19555473  116.70899963    0.09000000    0.05000000
   18.19888878  116.72699738    0.09000000    0.05000000
   18.20138931  115.98200226    0.09000000    0.05000000
   18.20250130  116.78900146    0.09000000    0.05000000
   18.20583344  117.20800018    0.09000000    0.05000000
   18.20916748  118.12100220    0.09000000    0.05000000
   18.21222305  102.07900238    0.09000000    0.05000000
   18.21555710  108.15699768    0.09000000    0.05000000
   18.21861076  105.65899658    0.09000000    0.05000000
   18.22194481  100.16799927    0.09000000    0.05000000
   18.22527885  108.60800171    0.09000000    0.05000000
   18.22861099  106.75199890    0.09000000    0.05000000
   18.23166656  108.59899902    0.09000000    0.05000000
   18.23472214  115.63500214    0.09000000    0.05000000
   18.23527718  112.23200226    0.09000000    0.05000000
   18.23861122  116.94100189    0.09000000    0.05000000
   18.24194527  118.77300262    0.09000000    0.05000000
   18.24500084  112.22799683    0.09000000    0.05000000
   18.24833298  109.39299774    0.09000000    0.05000000
   18.25138855  107.78700256    0.09000000    0.05000000
   18.25472260  113.16100311    0.09000000    0.05000000
   18.25805473  106.46199799    0.09000000    0.05000000
   18.26111031  112.89199829    0.09000000    0.05000000
   18.26444435  119.49299622    0.09000000    0.05000000
   18.26777840  107.15100098    0.09000000    0.05000000
   18.26833344  109.66999817    0.09000000    0.05000000
   18.27138901  114.12599945    0.09000000    0.05000000
   18.27472115  109.10600281    0.09000000    0.05000000
   18.27777672  114.62599945    0.09000000    0.05000000
   18.28111076  111.58300018    0.09000000    0.05000000
   18.28444481  112.96700287    0.09000000    0.05000000
   18.28750038  105.81600189    0.09000000    0.05000000
   18.29083252  110.47000122    0.09000000    0.05000000
   18.29416656  113.54499817    0.09000000    0.05000000
   18.29722214  114.95700073    0.09000000    0.05000000
   18.30055428  107.80500031    0.09000000    0.05000000
   18.30166626  105.49700165    0.09000000    0.05000000
   18.30416679  113.14299774    0.09000000    0.05000000
   18.30749893  110.33399963    0.09000000    0.05000000
   18.31055450  114.23400116    0.09000000    0.05000000
   18.31388855  118.49400330    0.09000000    0.05000000
   18.31722260  113.65100098    0.09000000    0.05000000
   18.32027817  111.82499695    0.09000000    0.05000000
   18.32361221  115.87799835    0.09000000    0.05000000
   18.32694626  112.88999939    0.09000000    0.05000000
   18.33000183  117.00800323    0.09000000    0.05000000
   18.33333397  113.65799713    0.09000000    0.05000000
   18.33500099  111.44699860    0.09000000    0.05000000
   18.33694458   97.21579742    0.09000000    0.05000000
   18.34027863  110.19100189    0.09000000    0.05000000
   18.34361267  108.51899719    0.09000000    0.05000000
   18.34666824  113.17600250    0.09000000    0.05000000
   18.35000038  109.83399963    0.09000000    0.05000000
   18.35305595  104.93900299    0.09000000    0.05000000
   18.35639000  107.86499786    0.09000000    0.05000000
   18.35972214  111.23000336    0.09000000    0.05000000
   18.36277771  102.87300110    0.09000000    0.05000000
   18.36611176  108.10199738    0.09000000    0.05000000
   18.36833382  112.86199951    0.09000000    0.05000000
   18.36972237  108.40799713    0.09000000    0.05000000
   18.37305641  114.75000000    0.09000000    0.05000000
   18.37638855  113.87799835    0.09000000    0.05000000
   18.37944412  120.37899780    0.09000000    0.05000000
   18.38277817  114.34300232    0.09000000    0.05000000
   18.38583374  111.77300262    0.09000000    0.05000000
   18.38916588  112.62699890    0.09000000    0.05000000
   18.39249992  111.87300110    0.09000000    0.05000000
   18.39583397  111.75599670    0.09000000    0.05000000
   18.39888954  114.62599945    0.09000000    0.05000000
   18.40166664  111.55100250    0.09000000    0.05000000
   18.40250015  112.08899689    0.09000000    0.05000000
   18.40583229  112.01100159    0.09000000    0.05000000
   18.40916634  114.65599823    0.09000000    0.05000000
   18.41222191  111.60700226    0.09000000    0.05000000
   18.41555595  112.50900269    0.09000000    0.05000000
   18.41860962  111.48699951    0.09000000    0.05000000
   18.42194366  109.80699921    0.09000000    0.05000000
   18.42527771  106.22599792    0.09000000    0.05000000
   18.43722153  101.71800232    0.09000000    0.05000000
   18.43777657  112.32599640    0.09000000    0.05000000
   18.44083214  107.45099640    0.09000000    0.05000000
   18.44388771  115.13300323    0.09000000    0.05000000
   18.44722176  111.23000336    0.09000000    0.05000000
   18.45027924  108.96800232    0.09000000    0.05000000
   18.45361137  114.70400238    0.09000000    0.05000000
   18.45694542  112.61799622    0.09000000    0.05000000
   18.46000099  110.49400330    0.09000000    0.05000000
   18.46333504  110.48100281    0.09000000    0.05000000
   18.46666718  110.13800049    0.09000000    0.05000000
   18.46972275  115.10700226    0.09000000    0.05000000
   18.47111130  102.66699982    0.09000000    0.05000000
   18.47361183  105.78800201    0.09000000    0.05000000
   18.47666740   -1.00000000    0.09000000    0.05000000
   18.48000145   -1.00000000    0.09000000    0.05000000
   18.48333359  113.12999725    0.09000000    0.05000000
   18.48638916  112.66600037    0.09000000    0.05000000
   18.48972321  111.34700012    0.09000000    0.05000000
   18.49305534  108.55699921    0.09000000    0.05000000
   18.49611092  109.62400055    0.09000000    0.05000000
   18.49944496   94.71710205    0.09000000    0.05000000
   18.50250053  114.13700104    0.09000000    0.05000000
   18.50444412  113.32599640    0.09000000    0.05000000
   18.50638962  116.70099640    0.09000000    0.05000000
   18.50944519  106.31600189    0.09000000    0.05000000
   18.51277733  101.76899719    0.09000000    0.05000000
   18.51583290  109.18800354    0.09000000    0.05000000
   18.51916695  103.96199799    0.09000000    0.05000000
   18.52249908  101.98699951    0.09000000    0.05000000
   18.52555466  107.90000153    0.09000000    0.05000000
   18.52888870  106.21800232    0.09000000    0.05000000
   18.53222275  103.81400299    0.09000000    0.05000000
   18.53527641  107.39199829    0.09000000    0.05000000
   18.53777695  108.65899658    0.09000000    0.05000000
   18.53916550  105.52300262    0.09000000    0.05000000
   18.54222107  107.52500153    0.09000000    0.05000000
   18.54555511  104.65399933    0.09000000    0.05000000
   18.54861069  104.84300232    0.09000000    0.05000000
   18.55194283  103.46900177    0.09000000    0.05000000
   18.55527687   98.31050110    0.09000000    0.05000000
   18.55833244  105.54900360    0.09000000    0.05000000
   18.56166649  106.80799866    0.09000000    0.05000000
   18.56499863  101.45200348    0.09000000    0.05000000
   18.56805611  105.67099762    0.09000000    0.05000000
   18.57111168  103.99500275    0.09000000    0.05000000
   18.57194519  108.11100006    0.09000000    0.05000000
   18.57500076  105.74500275    0.09000000    0.05000000
   18.57833481   98.19799805    0.09000000    0.05000000
   18.58139038  101.80300140    0.09000000    0.05000000
   18.58472252   99.18090057    0.09000000    0.05000000
   18.58805656  101.04000092    0.09000000    0.05000000
   18.59111214   99.37500000    0.09000000    0.05000000
   18.59444427  106.05999756    0.09000000    0.05000000
   18.59777832  106.90100098    0.09000000    0.05000000
   18.60083389  107.36699677    0.09000000    0.05000000
   18.60416794  106.06900024    0.09000000    0.05000000
   18.60472298  106.42800140    0.09000000    0.05000000
   18.60777855  103.35299683    0.09000000    0.05000000
   18.61111069  105.88400269    0.09000000    0.05000000
   18.61444473  104.50299835    0.09000000    0.05000000
   18.61750031  102.88500214    0.09000000    0.05000000
   18.62083435  104.11799622    0.09000000    0.05000000
   18.62416649  107.18199921    0.09000000    0.05000000
   18.62722206   96.24739838    0.09000000    0.05000000
   18.63055611  102.29900360    0.09000000    0.05000000
   18.63361168  108.19699860    0.09000000    0.05000000
   18.63694382  104.61299896    0.09000000    0.05000000
   18.63805580  102.88200378    0.09000000    0.05000000
   18.64055634  106.60900116    0.09000000    0.05000000
   18.64388847  106.59999847    0.09000000    0.05000000
   18.64722252  107.88400269    0.09000000    0.05000000
   18.65027809  107.57299805    0.09000000    0.05000000
   18.65361023  102.34300232    0.09000000    0.05000000
   18.65694427  111.50499725    0.09000000    0.05000000
   18.65999985  104.38200378    0.09000000    0.05000000
   18.66333389  105.40599823    0.09000000    0.05000000
   18.66638756   99.66459656    0.09000000    0.05000000
   18.66972160  105.83799744    0.09000000    0.05000000
   18.67138863  110.14099884    0.09000000    0.05000000
   18.67333221  106.23400116    0.09000000    0.05000000
   18.67666626  111.37000275    0.09000000    0.05000000
   18.68000031  109.10500336    0.09000000    0.05000000
   18.69249916  113.88099670    0.00000000    0.00000000
   18.69555473  111.47100067    0.09000000    0.05000000
   18.69888878  112.47799683    0.09000000    0.05000000
   18.70222282  104.56999969    0.09000000    0.05000000
   18.70527840   98.16850281    0.09000000    0.05000000
   18.72666740  102.88700104    0.09000000    0.05000000
   18.72777748  105.56999969    0.09000000    0.05000000
   18.73083305  101.62300110    0.09000000    0.05000000
   18.73416710  102.20800018    0.09000000    0.05000000
   18.74305534   97.19259644    0.09000000    0.05000000
   18.74361229  109.10500336    0.09000000    0.05000000
   18.74666786  101.35500336    0.09000000    0.05000000
   18.75000000  103.03099823    0.09000000    0.05000000
   18.75333405  112.47899628    0.09000000    0.05000000
   18.75638962  104.70500183    0.09000000    0.05000000
   18.75972176  110.60500336    0.09000000    0.05000000
   18.76277733  104.46299744    0.09000000    0.05000000
   18.76611137  107.83799744    0.09000000    0.05000000
   18.76944351  115.82099915    0.09000000    0.05000000
   18.77249908  107.65200043    0.09000000    0.05000000
   18.78472137  112.89199829    0.00000000    0.00000000
   18.78527641  108.12100220    0.09000000    0.05000000
   18.78805542  102.85299683    0.09000000    0.05000000
   18.79138756  122.17400360    0.09000000    0.05000000
   18.79472160  105.40499878    0.09000000    0.05000000
   18.79805565  106.87699890    0.09000000    0.05000000
   18.80111122  106.60700226    0.09000000    0.05000000
   18.80444336  100.08399963    0.09000000    0.05000000
   18.80777740  107.19799805    0.09000000    0.05000000
   18.82027817  105.76899719    0.00000000    0.00000000
   18.82083511  114.77300262    0.09000000    0.05000000
   18.82361221  103.96900177    0.09000000    0.05000000
   18.82694626   99.10790253    0.09000000    0.05000000
   18.83027840  108.78199768    0.09000000    0.05000000
   18.83361244  103.54299927    0.09000000    0.05000000
   18.83666801  102.40699768    0.09000000    0.05000000
   18.84000015  106.66600037    0.09000000    0.05000000
   18.84333420  102.35900116    0.09000000    0.05000000
   18.84638977  101.33499908    0.09000000    0.05000000
   18.84972191  103.93099976    0.09000000    0.05000000
   18.85277748  110.34899902    0.09000000    0.05000000
   18.85416794  104.59400177    0.09000000    0.05000000
   18.85639000  106.81600189    0.09000000    0.05000000
   18.85972214  105.04699707    0.09000000    0.05000000
   18.86305618  109.59799957    0.09000000    0.05000000
   18.86611176  109.41500092    0.09000000    0.05000000
   18.86944389  110.78099823    0.09000000    0.05000000
   18.87277794  109.85900116    0.09000000    0.05000000
   18.87583351  104.34899902    0.09000000    0.05000000
   18.88805580  100.48799896    0.00000000    0.00000000
   18.88861084  105.64900208    0.09000000    0.05000000
   18.89138794  104.22100067    0.09000000    0.05000000
   18.89472198  109.57199860    0.09000000    0.05000000
   18.89805603  111.33999634    0.09000000    0.05000000
   18.90138817  112.05200195    0.09000000    0.05000000
   18.90444374  111.73500061    0.09000000    0.05000000
   18.90777779  117.57599640    0.09000000    0.05000000
   18.91110992  118.94000244    0.09000000    0.05000000
   18.92361069  112.12899780    0.00000000    0.00000000
   18.93277740  118.68399811    0.09000000    0.05000000
   18.93583298  121.20899963    0.09000000    0.05000000
   18.93916512  128.36099243    0.09000000    0.05000000
   18.94222069  119.98100281    0.09000000    0.05000000
   18.94555473  112.25399780    0.09000000    0.05000000
   18.94888878  119.18299866    0.09000000    0.05000000
   18.95222282  124.01100159    0.09000000    0.05000000
   18.95555687  126.04399872    0.09000000    0.05000000
   18.95777893  118.27999878    0.09000000    0.05000000
   18.95916748  123.85299683    0.09000000    0.05000000
   18.96250153  124.03199768    0.09000000    0.05000000
   18.96861076  123.87699890    0.09000000    0.05000000
   18.97166634  126.01799774    0.09000000    0.05000000
   18.97500038  118.68299866    0.09000000    0.05000000
   18.97805595  130.42700195    0.09000000    0.05000000
   18.99027824  138.67700195    0.00000000    0.00000000
   18.99083328  131.48199463    0.09000000    0.05000000
   18.99388885  114.47699738    0.09000000    0.05000000
   18.99694443  128.62800598    0.09000000    0.05000000
   19.00027847  115.97200012    0.09000000    0.05000000
   19.00361061  128.55200195    0.09000000    0.05000000
   19.00666618  110.75399780    0.09000000    0.05000000
   19.01000023  115.32199860    0.09000000    0.05000000
   19.01333427  114.19200134    0.09000000    0.05000000
   19.01666641  108.35900116    0.09000000    0.05000000
   19.02000046  115.42800140    0.09000000    0.05000000
   19.02305603  118.53900146    0.09000000    0.05000000
   19.02416611  119.20899963    0.09000000    0.05000000
   19.03583336  119.76399994    0.00000000    0.00000000
   19.03888893  123.66300201    0.09000000    0.05000000
   19.04222107  118.76399994    0.09000000    0.05000000
   19.04555511  121.16000366    0.09000000    0.05000000
   19.04861069  113.03399658    0.09000000    0.05000000
   19.05999947  115.65799713    0.00000000    0.00000000
   19.06916809  110.92900085    0.00000000    0.00000000
   19.07222366  128.06100464    0.09000000    0.05000000
   19.07555580  115.71800232    0.09000000    0.05000000
   19.07861137  115.94100189    0.09000000    0.05000000
   19.08194542  110.02400208    0.09000000    0.05000000
   19.09361267  115.48999786    0.00000000    0.00000000
   19.09416771  120.78500366    0.09000000    0.05000000
   19.09722328  120.98300171    0.09000000    0.05000000
   19.10055542  117.86799622    0.09000000    0.05000000
   19.10361099  112.18499756    0.09000000    0.05000000
   19.10694504  114.17800140    0.09000000    0.05000000
   19.11027908  113.70200348    0.09000000    0.05000000
   19.11361122  120.23400116    0.09000000    0.05000000
   19.11666679  106.52799988    0.09000000    0.05000000
   19.12916756  108.14900208    0.00000000    0.00000000
   19.12972260  111.40699768    0.09000000    0.05000000
   19.13249969  110.32199860    0.09000000    0.05000000
   19.13583374  119.34799957    0.09000000    0.05000000
   19.14472198  114.82299805    0.09000000    0.05000000
   19.14805603  107.58300018    0.09000000    0.05000000
   19.15138817  111.62899780    0.09000000    0.05000000
   19.15444374  114.72899628    0.09000000    0.05000000
   19.15777779  116.05000305    0.09000000    0.05000000
   19.16110992  110.93099976    0.09000000    0.05000000
   19.16305542  110.23799896    0.09000000    0.05000000
   19.16472244  116.98699951    0.09000000    0.05000000
   19.16805458  110.26100159    0.09000000    0.05000000
   19.17138863  116.48200226    0.09000000    0.05000000
   19.17444420  113.89700317    0.09000000    0.05000000
   19.17777634  107.52200317    0.09000000    0.05000000
   19.18111038  110.23799896    0.09000000    0.05000000
   19.20055580  106.51999664    0.09000000    0.05000000
   19.20111275  103.43599701    0.09000000    0.05000000
   19.20416832  112.51000214    0.09000000    0.05000000
   19.20750046  108.11499786    0.09000000    0.05000000
   19.21055603  109.48400116    0.09000000    0.05000000
   19.21389008  107.07299805    0.09000000    0.05000000
   19.21722221  106.13099670    0.09000000    0.05000000
   19.22027779  105.50499725    0.09000000    0.05000000
   19.22361183  106.37899780    0.09000000    0.05000000
   19.22694588  108.42099762    0.09000000    0.05000000
   19.23000145  105.49099731    0.09000000    0.05000000
   19.23333359  102.54000092    0.09000000    0.05000000
   19.23388863  109.62699890    0.09000000    0.05000000
   19.24583435  103.37500000    0.00000000    0.00000000
   19.24888992  103.15200043    0.09000000    0.05000000
   19.25222206  109.79599762    0.09000000    0.05000000
   19.25555611  105.61299896    0.09000000    0.05000000
   19.25861168  104.28299713    0.09000000    0.05000000
   19.26194382  103.09100342    0.09000000    0.05000000
   19.26527786  104.89499664    0.09000000    0.05000000
   19.26722145  102.27200317    0.09000000    0.05000000
   19.26888847  106.81800079    0.09000000    0.05000000
   19.27194405  101.78800201    0.09000000    0.05000000
   19.27527809  107.26000214    0.09000000    0.05000000
   19.27861023  102.55100250    0.09000000    0.05000000
   19.28194427   95.18319702    0.09000000    0.05000000
   19.29361153  106.89800262    0.00000000    0.00000000
   19.29694366  100.03500366    0.09000000    0.05000000
   19.30027771  104.33499908    0.09000000    0.05000000
   19.30083275  105.46399689    0.09000000    0.05000000
   19.30360985   99.34819794    0.09000000    0.05000000
   19.30694389  103.62100220    0.09000000    0.05000000
   19.30999947  103.26300049    0.09000000    0.05000000
   19.31333351  102.36299896    0.09000000    0.05000000
   19.31666756  105.28199768    0.09000000    0.05000000
   19.31972313  104.46499634    0.09000000    0.05000000
   19.32305717  105.97499847    0.09000000    0.05000000
   19.32638931  101.84400177    0.09000000    0.05000000
   19.32944489  106.03299713    0.09000000    0.05000000
   19.33277893  104.73100281    0.09000000    0.05000000
   19.33388901  104.89399719    0.09000000    0.05000000
   19.33638954  100.91200256    0.09000000    0.05000000
   19.33972359  105.20899963    0.09000000    0.05000000
   19.34277916  105.90899658    0.09000000    0.05000000
   19.34611130  100.61900330    0.09000000    0.05000000
   19.34944534  103.61900330    0.09000000    0.05000000
   19.35250092  105.60500336    0.09000000    0.05000000
   19.35611153  103.29399872    0.09000000    0.05000000
   19.35916710  103.58499908    0.09000000    0.05000000
   19.36250114  104.78700256    0.09000000    0.05000000
   19.36555672  105.97000122    0.09000000    0.05000000
   19.36777878   97.91880035    0.09000000    0.05000000
   19.36944389  105.13800049    0.09000000    0.05000000
   19.37277794  108.94499969    0.09000000    0.05000000
   19.37611198  105.05400085    0.09000000    0.05000000
   19.37916756  105.77899933    0.09000000    0.05000000
   19.38249969  101.95700073    0.09000000    0.05000000
   19.38555527  100.97699738    0.09000000    0.05000000
   19.38888931  101.63999939    0.09000000    0.05000000
   19.39222145  103.98200226    0.09000000    0.05000000
   19.40472221  101.72899628    0.00000000    0.00000000
   19.40527725  102.81199646    0.09000000    0.05000000
   19.40833282  100.17199707    0.09000000    0.05000000
   19.41138840  102.86399841    0.09000000    0.05000000
   19.41472244  103.92099762    0.09000000    0.05000000
   19.41805458   99.55210114    0.09000000    0.05000000
   19.42111015  104.70300293    0.09000000    0.05000000
   19.42444420  101.82299805    0.09000000    0.05000000
   19.42777634  108.86900330    0.09000000    0.05000000
   19.43111038  103.07399750    0.09000000    0.05000000
   19.43416595  102.24500275    0.09000000    0.05000000
   19.44749832  103.55000305    0.09000000    0.05000000
   19.44833183  100.75700378    0.09000000    0.05000000
   19.45111275   97.71530151    0.09000000    0.05000000
   19.45444489  101.63300323    0.09000000    0.05000000
   19.45750046  102.63899994    0.09000000    0.05000000
   19.47027779  104.82700348    0.00000000    0.00000000
   19.47333336   99.07990265    0.09000000    0.05000000
   19.47666740  100.21600342    0.09000000    0.05000000
   19.48916626  102.85099792    0.00000000    0.00000000
   19.48972321  104.33599854    0.09000000    0.05000000
   19.49250031  105.62000275    0.09000000    0.05000000
   19.49583435   98.27200317    0.09000000    0.05000000
   19.49916649  109.45800018    0.09000000    0.05000000
   19.50222206  103.94999695    0.09000000    0.05000000
   19.50555611   98.04920197    0.09000000    0.05000000
   19.50888824  104.48300171    0.09000000    0.05000000
   19.51194382  105.93000031    0.09000000    0.05000000
   19.51527786  105.17099762    0.09000000    0.05000000
   19.51861000   98.81549835    0.09000000    0.05000000
   19.52166557  102.00700378    0.09000000    0.05000000
   19.52305603  103.16400146    0.09000000    0.05000000
   19.52527809  101.63899994    0.09000000    0.05000000
   19.52861023   99.34239960    0.09000000    0.05000000
   19.53194427  101.61399841    0.09000000    0.05000000
   19.53499985  105.52899933    0.09000000    0.05000000
   19.53861046  107.97599792    0.09000000    0.05000000
   19.54194450  107.03399658    0.09000000    0.05000000
   19.54500008  102.09799957    0.09000000    0.05000000
   19.54861069  100.73400116    0.09000000    0.05000000
   19.55194283  102.53399658    0.09000000    0.05000000
   19.55499840  103.05899811    0.09000000    0.05000000
   19.55638885  101.10700226    0.09000000    0.05000000
   19.55861092   99.99819946    0.09000000    0.05000000
   19.56194305  103.69300079    0.09000000    0.05000000
   19.56527710  104.62799835    0.09000000    0.05000000
   19.56833458  100.31600189    0.09000000    0.05000000
   19.57166672  100.86799622    0.09000000    0.05000000
   19.57500076   98.97570038    0.09000000    0.05000000
   19.57833481  100.69999695    0.09000000    0.05000000
   19.58139038  108.90499878    0.09000000    0.05000000
   19.58472252  105.49800110    0.09000000    0.05000000
   19.58805656  104.05300140    0.09000000    0.05000000
   19.58972359  105.99600220    0.09000000    0.05000000
   19.59138870  103.39800262    0.09000000    0.05000000
   19.59500122  101.49299622    0.09000000    0.05000000
   19.59805679  103.15799713    0.09000000    0.05000000
   19.60138893  105.70800018    0.09000000    0.05000000
   19.60472298  107.25499725    0.09000000    0.05000000
   19.60777855  104.44000244    0.09000000    0.05000000
   19.61111069  104.83200073    0.09000000    0.05000000
   19.61444473  102.94899750    0.09000000    0.05000000
   19.61750031  109.05500031    0.09000000    0.05000000
   19.62083435  105.93900299    0.09000000    0.05000000
   19.62305641  100.81199646    0.09000000    0.05000000
   19.62444496  103.26799774    0.09000000    0.05000000
   19.62777710  103.73999786    0.09000000    0.05000000
   19.63111115  109.68599701    0.09000000    0.05000000
   19.63416672  114.31800079    0.09000000    0.05000000
   19.63750076  110.03500366    0.09000000    0.05000000
   19.64111137  107.26499939    0.09000000    0.05000000
   19.64444351   99.54000092    0.09000000    0.05000000
   19.64749908  103.58100128    0.09000000    0.05000000
   19.65083313  104.85299683    0.09000000    0.05000000
   19.65416718  102.41500092    0.09000000    0.05000000
   19.65638924  110.17500305    0.09000000    0.05000000
   19.65749931   94.94470215    0.09000000    0.05000000
   19.66083336  101.76100159    0.09000000    0.05000000
   19.66416550  112.16899872    0.09000000    0.05000000
   19.66722107  112.41200256    0.09000000    0.05000000
   19.67055511  104.02300262    0.09000000    0.05000000
   19.67388916  111.16999817    0.09000000    0.05000000
   19.67694473  100.26899719    0.09000000    0.05000000
   19.68027687  101.04900360    0.09000000    0.05000000
   19.68333244  106.46700287    0.09000000    0.05000000
   19.69583321  106.53299713    0.00000000    0.00000000
   19.69638824  100.95600128    0.09000000    0.05000000
   19.69944382  111.71800232    0.09000000    0.05000000
   19.70250130  107.64900208    0.09000000    0.05000000
   19.70583344  108.40699768    0.09000000    0.05000000
   19.70916748  114.07900238    0.09000000    0.05000000
   19.71222305   99.85500336    0.09000000    0.05000000
   19.71555710  103.61399841    0.09000000    0.05000000
   19.71861076  103.16000366    0.09000000    0.05000000
   19.72222328  104.82700348    0.09000000    0.05000000
   19.72555542  113.36900330    0.09000000    0.05000000
   19.72861099  110.45999908    0.09000000    0.05000000
   19.72972298  116.15499878    0.09000000    0.05000000
   19.73250008  100.83200073    0.09000000    0.05000000
   19.73555565  101.75299835    0.09000000    0.05000000
   19.73888969  104.90299988    0.09000000    0.05000000
   19.74194527  104.95700073    0.09000000    0.05000000
   19.74527740  102.03299713    0.09000000    0.05000000
   19.74861145  106.13800049    0.09000000    0.05000000
   19.75166702  116.82399750    0.09000000    0.05000000
   19.75499916  106.72799683    0.09000000    0.05000000
   19.75833321  112.31199646    0.09000000    0.05000000
   19.76138878  110.47399902    0.09000000    0.05000000
   19.76305580  111.51799774    0.09000000    0.05000000
   19.76527786   93.73930359    0.09000000    0.05000000
   19.76833344  101.37500000    0.09000000    0.05000000
   19.77166557  100.83899689    0.09000000    0.05000000
   19.77499962  104.14499664    0.09000000    0.05000000
   19.77805519  101.68900299    0.09000000    0.05000000
   19.78138924  115.59999847    0.09000000    0.05000000
   19.78444481  104.65200043    0.09000000    0.05000000
   19.78777695  106.54199982    0.09000000    0.05000000
   19.79111099  100.41400146    0.09000000    0.05000000
   19.79416656  105.65000153    0.09000000    0.05000000
   19.79638863  104.47000122    0.09000000    0.05000000
   19.79805565  103.56600189    0.09000000    0.05000000
   19.80166626  102.08399963    0.09000000    0.05000000
   19.80499840   98.36959839    0.09000000    0.05000000
   19.80805397  102.77700043    0.09000000    0.05000000
   19.81138802  104.76399994    0.09000000    0.05000000
   19.81472206  100.17800140    0.09000000    0.05000000
   19.81777954  104.29000092    0.09000000    0.05000000
   19.82111168  104.95999908    0.09000000    0.05000000
   19.83361244  106.58300018    0.00000000    0.00000000
   19.83416748  102.07499695    0.09000000    0.05000000
   19.83722305  107.25499725    0.09000000    0.05000000
   19.84027863  109.95500183    0.09000000    0.05000000
   19.85250092  107.51999664    0.00000000    0.00000000
   19.85583305  100.28500366    0.09000000    0.05000000
   19.85888863   98.64489746    0.09000000    0.05000000
   19.86222267  100.17800140    0.09000000    0.05000000
   19.86555672   99.02320099    0.09000000    0.05000000
   19.87722206  105.10399628    0.09000000    0.05000000
   19.87833405  109.34100342    0.09000000    0.05000000
   19.88138962  100.28500366    0.09000000    0.05000000
   19.88472176  102.64299774    0.09000000    0.05000000
   19.88777733   97.47699738    0.09000000    0.05000000
   19.89111137  103.25299835    0.09000000    0.05000000
   19.89444351  103.68299866    0.09000000    0.05000000
   19.89749908  106.73600006    0.09000000    0.05000000
   19.90083313   97.99649811    0.09000000    0.05000000
   19.90138817  101.86399841    0.09000000    0.05000000
   19.90444374  103.36199951    0.09000000    0.05000000
   19.90777779  102.54799652    0.09000000    0.05000000
   19.91083336  101.40599823    0.09000000    0.05000000
   19.91444397  103.54499817    0.09000000    0.05000000
