    HOUR (UT)   FLARE FACTOR    SKY TESTER    SUN TESTER
   11.87194443   -1.00000000   -1.00000000   -1.00000000
   11.89166641  300.14700317    1.69000006    1.64999998
   11.89833355  281.01599121    1.71000004    1.66999996
   11.90166664  273.44100952    1.71000004    1.66999996
   11.90499973  277.93301392    1.71000004    1.66999996
   11.90805531  275.54098511    1.73000002    1.66999996
   11.91138840  275.11401367    1.73000002    1.69000006
   11.91444397  285.16299438    1.71000004    1.69000006
   11.91777802  278.36401367    1.73000002    1.71000004
   11.92111111  275.05999756    1.73000002    1.69000006
   11.92416668  276.58099365    1.73000002    1.71000004
   11.92500019  266.69299316    1.73000002    1.71000004
   11.92777824  283.43399048    1.73000002    1.71000004
   11.93111134  261.60598755    1.73000002    1.71000004
   11.93416691  271.34201050    1.73000002    1.73000002
   11.93750000  274.20999146    1.73000002    1.73000002
   11.94083309  276.35400391    1.73000002    1.73000002
   11.94388866  263.63598633    1.73000002    1.73000002
   11.94722271  267.90200806    1.75000000    1.75000000
   11.95055580  257.07000732    1.75000000    1.75000000
   11.95361137  276.10000610    1.73000002    1.75000000
   11.95694447  278.97500610    1.75000000    1.75000000
   11.95833302  268.11300659    1.75000000    1.75000000
   11.96055508  267.40600586    1.75000000    1.75000000
   11.96388912  260.31500244    1.73000002    1.75000000
   11.96694374  259.89898682    1.73000002    1.75000000
   11.97027779  257.94799805    1.73000002    1.76999998
   11.97361088  259.18499756    1.75000000    1.76999998
   11.97694397  251.04100037    1.73000002    1.76999998
   11.97999954  241.71000671    1.73000002    1.76999998
   11.98333359  240.76499939    1.73000002    1.78999996
   11.98666668  260.12500000    1.73000002    1.78999996
   11.98972225  246.03900146    1.73000002    1.76999998
   11.99166679  261.68701172    1.73000002    1.76999998
   11.99333382  250.46899414    1.73000002    1.78999996
   11.99666691  253.23899841    1.73000002    1.78999996
   12.00000000  255.88800049    1.73000002    1.78999996
   12.00305557  260.42800903    1.75000000    1.78999996
   12.00638866  256.59201050    1.75000000    1.78999996
   12.00944424  236.79699707    1.75000000    1.78999996
   12.01277733  239.13299561    1.75000000    1.80999994
   12.01611137  252.85899353    1.75000000    1.80999994
   12.01916599  250.63800049    1.76999998    1.80999994
   12.02250004  247.79299927    1.75000000    1.80999994
   12.02499962  256.36898804    1.75000000    1.83000004
   12.02611065  246.80999756    1.75000000    1.83000004
   12.02944374  259.27398682    1.75000000    1.83000004
   12.03277779  259.73300171    1.75000000    1.83000004
   12.03583336  248.44200134    1.73000002    1.83000004
   12.03916740  265.80801392    1.73000002    1.85000002
   12.04222298  262.57101440    1.73000002    1.85000002
   12.04555607  258.77398682    1.75000000    1.85000002
   12.04888916  253.61900330    1.75000000    1.85000002
   12.05194473  280.18899536    1.75000000    1.85000002
   12.05527782  329.01800537    1.75000000    1.85000002
   12.05833340  321.68499756    1.73000002    1.85000002
   12.05888939  327.01300049    1.73000002    1.85000002
   12.06222248  328.89599609    1.71000004    1.85000002
   12.06527805  298.15100098    1.71000004    1.85000002
   12.06861115  320.21899414    1.69000006    1.85000002
   12.07194424  303.62799072    1.69000006    1.86000001
   12.07499981  267.19000244    1.69000006    1.86000001
   12.07833290  321.57000732    1.66999996    1.86000001
   12.08166695  325.83700562    1.66999996    1.86000001
   12.08472157  315.02899170    1.69000006    1.88000000
   12.08805561  296.84201050    1.69000006    1.88000000
   12.09111118  294.49398804    1.69000006    1.88000000
   12.09166622  307.11599731    1.69000006    1.88000000
   12.09499931  270.12799072    1.69000006    1.88000000
   12.09833336  315.07800293    1.66999996    1.88000000
   12.10138893  306.77499390    1.66999996    1.88000000
   12.10472298  285.61499023    1.64999998    1.88000000
   12.10805607  301.70001221    1.66999996    1.89999998
   12.11111164  308.21398926    1.64999998    1.89999998
   12.11444473  273.21499634    1.66999996    1.89999998
   12.11750031  273.21200562    1.66999996    1.91999996
   12.12083340  286.83401489    1.64999998    1.89999998
   12.12416649  268.79199219    1.66999996    1.91999996
   12.12500000  282.02499390    1.64999998    1.91999996
   12.12777805  273.02200317    1.66999996    1.91999996
   12.13111115  258.50201416    1.66999996    1.91999996
   12.13416672  283.85400391    1.66999996    1.91999996
   12.13749981  263.30499268    1.66999996    1.91999996
   12.14083290  255.17999268    1.64999998    1.91999996
   12.14388847  289.78601074    1.66999996    1.94000006
   12.14722252  275.22601318    1.64999998    1.94000006
   12.15027714  261.23999023    1.66999996    1.94000006
   12.15361118  272.81201172    1.64999998    1.94000006
   12.15694427  256.50000000    1.64999998    1.94000006
   12.15833282  267.97799683    1.64999998    1.94000006
   12.16055489  258.01300049    1.64999998    1.94000006
   12.16388893  257.95700073    1.64999998    1.94000006
   12.16694450  250.44299316    1.64999998    1.94000006
   12.17027855  250.86799622    1.63000000    1.94000006
   12.17361164  257.11700439    1.63000000    1.94000006
   12.17666721  251.02000427    1.63000000    1.94000006
   12.18000031  259.20800781    1.63000000    1.94000006
   12.18305588  257.04699707    1.63000000    1.94000006
   12.18638897  255.08299255    1.63000000    1.96000004
   12.18972206  241.98100281    1.63000000    1.96000004
   12.19166660  257.12701416    1.61000001    1.96000004
   12.19333363  240.61099243    1.61000001    1.96000004
   12.19666672  248.20799255    1.61000001    1.96000004
   12.19972229  248.71699524    1.61000001    1.96000004
   12.20305538  235.63499451    1.63000000    1.98000002
   12.20638847  245.93400574    1.61000001    1.96000004
   12.20944405  235.63900757    1.61000001    1.98000002
   12.21277714  254.43800354    1.61000001    1.98000002
   12.21583271  250.05200195    1.60000002    1.98000002
   12.21916580  242.93899536    1.60000002    1.98000002
   12.22249985  243.22200012    1.60000002    1.98000002
   12.22499943  235.25599670    1.60000002    2.00000000
   12.22611046  255.82299805    1.60000002    2.00000000
   12.22944355  238.21899414    1.58000004    2.00000000
   12.23249912  230.72700500    1.60000002    2.01999998
   12.23583317  231.20500183    1.58000004    2.00000000
   12.23916721  232.46800232    1.58000004    2.00000000
   12.24222279  244.95799255    1.58000004    2.00000000
   12.24555588  245.20199585    1.58000004    2.00000000
   12.24861145  258.36499023    1.58000004    2.01999998
   12.25194454  227.80000305    1.55999994    2.01999998
   12.25527763  222.02200317    1.55999994    2.00000000
   12.25833321  236.93200684    1.55999994    2.00000000
   12.25888920  227.00300598    1.55999994    2.00000000
   12.26222229  230.49400330    1.55999994    2.01999998
   12.26527786  230.72900391    1.55999994    2.01999998
   12.26861095  216.39399719    1.53999996    2.03999996
   12.27194405  229.86799622    1.51999998    2.01999998
   12.27499962  236.45100403    1.51999998    2.01999998
   12.27833271  240.97599792    1.51999998    2.03999996
   12.28138828  234.20700073    1.50000000    2.03999996
   12.28472233  232.12500000    1.50000000    2.03999996
   12.28805637  223.92900085    1.50000000    2.03999996
   12.29111195  237.07200623    1.50000000    2.03999996
   12.29166698  239.02400208    1.48000002    2.03999996
   12.29472256  228.52999878    1.48000002    2.05999994
   12.29805565  233.40299988    1.48000002    2.03999996
   12.30111122  229.69500732    1.46000004    2.03999996
   12.30444431  226.13499451    1.46000004    2.05999994
   12.30777836  234.69099426    1.46000004    2.05999994
   12.31083393  222.75199890    1.38000000    2.05999994
   12.31416702  228.13699341    1.33000004    2.05999994
   12.31750011  232.40199280    1.33000004    2.05999994
   12.32055569  228.20100403    1.33000004    2.05999994
   12.32388878  222.72399902    1.33000004    2.05999994
   12.32527733  241.90899658    1.30999994    2.03999996
   12.32750034  230.09800720    1.33000004    2.05999994
   12.33083344  232.05099487    1.30999994    2.05999994
   12.33388901  221.09899902    1.30999994    2.07999992
   12.33722210  229.10000610    1.28999996    2.05999994
   12.34055519  214.53100586    1.30999994    2.07999992
   12.34361076  218.61799622    1.28999996    2.07999992
   12.34694386  233.09199524    1.28999996    2.07999992
   12.35027790  212.85400391    1.26999998    2.07999992
   12.35333347  219.59199524    1.26999998    2.07999992
   12.35666752  211.29299927    1.26999998    2.07999992
   12.35861111  218.46000671    1.26999998    2.07999992
   12.36027813  210.39999390    1.26999998    2.07999992
   12.36361122  219.74600220    1.25000000    2.07999992
   12.36666679  212.66299438    1.21000004    2.09999990
   12.36999989  214.35299683    1.23000002    2.07999992
   12.37333393  218.09500122    1.23000002    2.07999992
   12.37666702  209.44799805    1.21000004    2.09999990
   12.38000011  222.27499390    1.19000006    2.09999990
   12.38305569  218.70300293    1.19000006    2.07999992
   12.38638878  215.40100098    1.19000006    2.09999990
   12.38944435  217.61799622    1.16999996    2.09999990
   12.39194393  207.70799255    1.19000006    2.09999990
   12.39333344  216.92599487    1.16999996    2.09999990
   12.39666653  212.24800110    1.16999996    2.09999990
   12.39972210  216.00199890    1.16999996    2.09999990
   12.40305519  218.82899475    1.16999996    2.09999990
   12.40638828  217.09899902    1.16999996    2.09999990
   12.40944386  215.86199951    1.14999998    2.09999990
   12.41277695  222.78500366    1.14999998    2.11999989
   12.41611099  208.18899536    1.14999998    2.11999989
   12.41916656  220.84399414    1.13000000    2.11999989
   12.42250061  230.37199402    1.13000000    2.11999989
   12.42527771  226.75999451    1.13000000    2.11999989
   12.42611122  239.13600159    1.13000000    2.11999989
   12.42944431  260.81201172    1.13000000    2.11999989
   12.43249989  220.26699829    1.13000000    2.11999989
   12.43583298  262.75399780    1.13000000    2.13000011
   12.43916702  252.96400452    1.13000000    2.11999989
   12.44222260  256.61199951    1.13000000    2.11999989
   12.44555569  258.02499390    1.13000000    2.11999989
   12.44888878  293.05099487    1.13000000    2.13000011
   12.45194435  241.27099609    1.13000000    2.13000011
   12.45527744  349.88400269    1.13000000    2.13000011
   12.45861053  255.86900330    1.13000000    2.13000011
   12.45888901  277.02398682    1.13000000    2.13000011
   12.46222210  260.83099365    1.13000000    2.13000011
   12.46555519  319.88900757    1.13000000    2.13000011
   12.46861076  247.02400208    1.13000000    2.13000011
   12.47194386  272.48699951    1.13000000    2.13000011
   12.47499943  266.71499634    1.13000000    2.13000011
   12.47833252  271.80398560    1.13000000    2.13000011
   12.48166656  251.79699707    1.13000000    2.13000011
   12.48472214  255.81799316    1.13000000    2.13000011
   12.48805618  264.68600464    1.13000000    2.13000011
   12.49138927  294.55999756    1.13000000    2.15000010
   12.49194431  277.23300171    1.13000000    2.15000010
   12.49472237  259.61999512    1.13000000    2.15000010
   12.49805546  278.11898804    1.13000000    2.15000010
   12.50138855  253.55299377    1.13000000    2.15000010
   12.50444412  277.21398926    1.13000000    2.15000010
   12.50777817  231.62399292    1.13000000    2.15000010
   12.51083374  267.76000977    1.13000000    2.15000010
   12.51416683  255.00500488    1.13000000    2.15000010
   12.51749992  248.26699829    1.13000000    2.17000008
   12.52055550  267.10501099    1.13000000    2.15000010
   12.52388859  250.58599854    1.13000000    2.15000010
   12.52527714  275.82400513    1.13000000    2.15000010
   12.52750015  286.04400635    1.13000000    2.15000010
   12.53083324  274.26098633    1.13000000    2.17000008
   12.53388977  335.68301392    1.13000000    2.17000008
   12.53722286  310.66799927    1.13000000    2.17000008
   12.54055595  311.82598877    1.13000000    2.17000008
   12.54361153  346.75500488    1.13000000    2.17000008
   12.54694462  298.85598755    1.11000001    2.17000008
   12.55027771  286.15399170    1.11000001    2.17000008
   12.55361176  291.69699097    1.11000001    2.17000008
   12.55694485  285.10501099    1.09000003    2.17000008
   12.55861092  290.47900391    1.09000003    2.17000008
   12.56027794  278.49301147    1.09000003    2.17000008
   12.56361103  288.94500732    1.09000003    2.17000008
   12.56666660  285.67800903    1.09000003    2.17000008
   12.56999969  272.29098511    1.09000003    2.17000008
   12.57333374  275.14199829    1.07000005    2.17000008
   12.57638836  282.10000610    1.07000005    2.17000008
   12.57972240  293.54400635    1.07000005    2.19000006
   12.58305550  295.70599365    1.07000005    2.19000006
   12.58611107  288.68701172    1.07000005    2.19000006
   12.58944416  297.55300903    1.07000005    2.19000006
   12.59194374  270.44601440    1.07000005    2.19000006
   12.59305477  291.52700806    1.07000005    2.19000006
   12.59638882  283.10501099    1.07000005    2.19000006
   12.59972191  276.07101440    1.07000005    2.21000004
   12.60277843  299.67199707    1.07000005    2.21000004
   12.60611153  303.85299683    1.07000005    2.19000006
   12.60916710  282.62500000    1.05999994    2.19000006
   12.61277771  284.52398682    1.05999994    2.21000004
   12.61611176  250.86199951    1.07000005    2.21000004
   12.61916637  280.26501465    1.05999994    2.21000004
   12.62250042  283.92800903    1.05999994    2.21000004
   12.62527752  264.44000244    1.05999994    2.21000004
   12.62611103  278.62701416    1.05999994    2.21000004
   12.62944412  252.59100342    1.05999994    2.21000004
   12.63277817  264.13101196    1.05999994    2.21000004
   12.63583279  242.94099426    1.05999994    2.21000004
   12.63916683  258.39999390    1.05999994    2.21000004
   12.64222240  264.47100830    1.05999994    2.21000004
   12.64555550  279.63699341    1.05999994    2.23000002
   12.64888859  322.32400513    1.05999994    2.23000002
   12.65194416  322.63299561    1.03999996    2.21000004
   12.65527725  339.63500977    1.03999996    2.21000004
   12.65861034  327.47799683    1.05999994    2.23000002
   12.65888882  345.58700562    1.05999994    2.23000002
   12.66222191  380.67199707    1.03999996    2.23000002
   12.66555500  400.41101074    1.03999996    2.23000002
   12.66750050  391.42401123    1.03999996    2.23000002
   12.66888905  399.95098877    1.03999996    2.23000002
   12.67027855  426.04299927    1.05999994    2.23000002
   12.67166710  407.87701416    1.05999994    2.23000002
   12.67305565  389.36700439    1.05999994    2.23000002
   12.67444515  445.48999023    1.05999994    2.23000002
   12.67583370  366.07000732    1.05999994    2.25000000
   12.67722225  364.30999756    1.05999994    2.25000000
   12.67861176  344.97100830    1.05999994    2.25000000
   12.67861176  400.41101074    1.03999996    2.23000002
   12.67861176  258.39999390    1.05999994    2.21000004
   12.67888927  264.47100830    1.05999994    2.21000004
   12.67888927  279.63699341    1.05999994    2.23000002
   12.67888927  322.32400513    1.05999994    2.23000002
   12.67916679  322.63299561    1.03999996    2.21000004
   12.67916679  339.63500977    1.03999996    2.21000004
   12.67916679  345.58700562    1.05999994    2.23000002
   12.67944431  380.67199707    1.03999996    2.23000002
   12.68000031  367.59100342    1.05999994    2.23000002
   12.68305588  351.00799561    1.05999994    2.23000002
   12.68638897  364.76000977    1.05999994    2.23000002
   12.68972206  360.86099243    1.05999994    2.25000000
   12.69277763  373.84298706    1.05999994    2.25000000
   12.69944477  373.84298706    1.05999994    2.23000002
   12.70333290  366.13900757    1.05999994    2.25000000
   12.70666695  361.84600830    1.05999994    2.23000002
   12.71000004  375.35299683    1.03999996    2.25000000
   12.71249962  360.10101318    1.03999996    2.25000000
   12.71361065  370.34298706    1.03999996    2.23000002
   12.71694374  350.74798584    1.03999996    2.25000000
   12.72027779  329.10299683    1.03999996    2.25000000
   12.72333336  382.78298950    1.03999996    2.25000000
   12.72666645  370.30999756    1.03999996    2.25000000
   12.72972202  374.75799561    1.03999996    2.25000000
   12.73305511  423.59500122    1.03999996    2.25000000
   12.73527813  389.35998535    1.01999998    2.25000000
   12.73638916  405.57800293    1.01999998    2.25000000
   12.73777771  354.45199585    1.01999998    2.25000000
   12.73916721  352.21600342    1.01999998    2.25000000
   12.74055576  341.31600952    1.01999998    2.25000000
   12.74055576  350.74798584    1.03999996    2.25000000
   12.74083328  329.10299683    1.03999996    2.25000000
   12.74083328  382.78298950    1.03999996    2.25000000
   12.74083328  370.30999756    1.03999996    2.25000000
   12.74111176  374.75799561    1.03999996    2.25000000
   12.74111176  423.59500122    1.03999996    2.25000000
   12.74138927  361.84600830    1.05999994    2.23000002
   12.74138927  375.35299683    1.03999996    2.25000000
   12.74138927  370.34298706    1.03999996    2.23000002
   12.74194431  328.67300415    1.01999998    2.25000000
   12.74527836  347.54800415    1.01999998    2.25000000
   12.74861145  321.69699097    1.01999998    2.25000000
   12.75166702  350.10198975    1.00000000    2.25000000
   12.75500011  351.93499756    1.00000000    2.25000000
   12.76138878  351.93499756    1.00000000    2.25000000
   12.76555538  326.65399170    0.98000002    2.26999998
   12.76888847  343.79901123    0.98000002    2.26999998
   12.77194405  355.00601196    0.98000002    2.26999998
   12.77444458  342.96600342    0.98000002    2.28999996
   12.77583313  332.91000366    0.98000002    2.28999996
   12.77888870  338.11700439    0.98000002    2.26999998
   12.78222179  358.25500488    0.95999998    2.28999996
   12.78555584  456.28201294    0.95999998    2.26999998
   12.78750038  394.23300171    0.95999998    2.26999998
   12.78888893  403.18399048    0.95999998    2.26999998
   12.79027843  389.95199585    0.95999998    2.26999998
   12.79166698  432.00500488    0.95999998    2.26999998
   12.79305553  409.70599365    0.95999998    2.26999998
   12.79444504  410.88299561    0.95999998    2.26999998
   12.79583359  342.77301025    0.95999998    2.26999998
   12.79583359  338.11700439    0.98000002    2.26999998
   12.79583359  358.25500488    0.95999998    2.28999996
   12.79611111  456.28201294    0.95999998    2.26999998
   12.79611111  350.10198975    1.00000000    2.25000000
   12.79638958  351.93499756    1.00000000    2.25000000
   12.79638958  326.65399170    0.98000002    2.26999998
   12.79638958  343.79901123    0.98000002    2.26999998
   12.79666710  355.00601196    0.98000002    2.26999998
   12.79666710  332.91000366    0.98000002    2.28999996
   12.79722309  401.69000244    0.95999998    2.26999998
   12.79916668  353.35101318    0.95999998    2.28999996
   12.80055618  392.11599731    0.95999998    2.28999996
   12.80194473  337.00299072    0.95999998    2.28999996
   12.80194473  401.69000244    0.95999998    2.26999998
   12.80277824  377.15399170    0.95999998    2.28999996
   12.80583382  356.44000244    0.95999998    2.28999996
   12.80916691  359.44000244    0.95999998    2.28999996
   12.81222248  393.67599487    0.95999998    2.26999998
   12.81555557  358.06298828    0.95999998    2.28999996
   12.81888866  335.97799683    0.94000000    2.28999996
   12.82305527  335.97799683    0.94000000    2.28999996
   12.82694435  356.48999023    0.94000000    2.28999996
   12.83027744  375.64999390    0.94000000    2.28999996
   12.83361053  395.47799683    0.94000000    2.28999996
   12.83583260  367.90798950    0.94000000    2.28999996
   12.83722210  368.26901245    0.95999998    2.28999996
   12.84027767  368.85598755    0.94000000    2.28999996
   12.84361076  363.21398926    0.95999998    2.28999996
   12.84694386  366.57699585    0.95999998    2.28999996
   12.85000038  356.42700195    0.95999998    2.28999996
   12.85333347  344.28298950    0.95999998    2.28999996
   12.85666752  334.69601440    0.95999998    2.30999994
   12.85972214  331.52999878    0.95999998    2.28999996
   12.86583328  331.52999878    0.95999998    2.28999996
   12.86999989  338.89898682    0.94000000    2.30999994
   12.87305546  347.53601074    0.94000000    2.30999994
   12.87638855  347.89099121    0.94000000    2.30999994
   12.87972260  315.21200562    0.94000000    2.30999994
   12.88277817  334.43399048    0.94000000    2.30999994
   12.88611126  317.79901123    0.94000000    2.30999994
   12.88944435  324.86898804    0.94000000    2.30999994
   12.90833282  316.50201416    0.94000000    2.30999994
   12.91249943  316.50201416    0.92000002    2.30999994
   12.91666698  308.03100586    0.92000002    2.32999992
   12.92000008  321.64300537    0.92000002    2.32999992
   12.92333412  306.97399902    0.92000002    2.32999992
   12.92638874  316.69799805    0.92000002    2.32999992
   12.92972279  312.19500732    0.92000002    2.32999992
   12.93277836  301.23098755    0.92000002    2.32999992
   12.93611145  291.16799927    0.89999998    2.32999992
   12.93944454  280.05398560    0.89999998    2.32999992
   12.94166660  300.83200073    0.89999998    2.32999992
   12.94305515  291.09298706    0.89999998    2.32999992
   12.94638920  295.14001465    0.89999998    2.32999992
   12.94944477  282.19900513    0.89999998    2.32999992
   12.95527744  282.19900513    0.88000000    2.32999992
   12.95944405  274.03298950    0.88000000    2.32999992
   12.96277714  271.08898926    0.88000000    2.32999992
   12.96583271  256.69500732    0.89999998    2.34999990
   12.96916580  261.63198853    0.89999998    2.34999990
   12.97222137  250.13900757    0.88000000    2.32999992
   12.97499943  267.55099487    0.88000000    2.32999992
   12.97583294  260.68899536    0.88000000    2.32999992
   12.97916603  263.47698975    0.88000000    2.34999990
   12.98277760  252.65499878    0.88000000    2.34999990
   12.98583317  264.26199341    0.88000000    2.34999990
   12.98916721  257.34500122    0.86000001    2.34999990
   12.99250031  258.53399658    0.86000001    2.34999990
   12.99805546  258.53399658    0.86000001    2.34999990
   13.00222206  248.32000732    0.86000001    2.34999990
   13.00555515  237.32899475    0.86000001    2.36999989
   13.00833321  245.00300598    0.86000001    2.34999990
   13.00888920  232.11799622    0.86000001    2.34999990
   13.01222229  231.40199280    0.86000001    2.36999989
   13.01555538  233.63800049    0.86000001    2.36999989
   13.01861095  241.46699524    0.86000001    2.34999990
   13.02194405  225.07899475    0.86000001    2.34999990
   13.02527714  224.92900085    0.86000001    2.34999990
   13.02833271  225.78500366    0.86000001    2.36999989
   13.03166676  225.80000305    0.86000001    2.36999989
   13.03500080  226.85899353    0.86000001    2.34999990
   13.04111195  226.85899353    0.86000001    2.34999990
   13.04527855  218.88000488    0.86000001    2.36999989
   13.04833412  220.06100464    0.86000001    2.36999989
   13.05166721  218.92799377    0.86000001    2.36999989
   13.05472279  222.90699768    0.86000001    2.36999989
   13.05805588  231.61799622    0.86000001    2.36999989
   13.06138897  241.20500183    0.86000001    2.36999989
   13.06444454  236.88099670    0.86000001    2.34999990
   13.06777763  226.78599548    0.88000000    2.36999989
   13.07111073  233.63999939    0.86000001    2.36999989
   13.07416630  239.32800293    0.86000001    2.36999989
   13.07611084  236.32899475    0.88000000    2.36999989
   13.07805538  234.36999512    0.88000000    2.36999989
   13.08388901  234.36999512    0.88000000    2.36999989
   13.08805561  236.31599426    0.86000001    2.36999989
   13.09111118  242.05599976    0.86000001    2.36999989
   13.09444427  229.21400452    0.86000001    2.36999989
   13.09777737  252.50900269    0.86000001    2.36999989
   13.10083389  238.28100586    0.86000001    2.36999989
   13.10416698  234.43299866    0.86000001    2.36999989
   13.10750008  223.49099731    0.86000001    2.39000010
   13.10944462  224.50300598    0.86000001    2.39000010
   13.11111164  215.20300293    0.86000001    2.36999989
   13.11416721  227.30200195    0.86000001    2.39000010
   13.11750031  231.74400330    0.86000001    2.39000010
   13.12055588  232.35299683    0.83999997    2.39000010
   13.12666702  232.35299683    0.83999997    2.39000010
   13.13083363  228.47099304    0.83999997    2.39000010
   13.13416672  223.59700012    0.83999997    2.39000010
   13.13722229  226.77799988    0.83999997    2.39000010
   13.14055538  229.47900391    0.83999997    2.39000010
   13.14305496  230.26199341    0.83999997    2.39000010
   13.14444447  222.06300354    0.83999997    2.39000010
   13.14750004  228.00300598    0.81999999    2.39000010
   13.15083313  229.94099426    0.81999999    2.39000010
   13.15388870  224.55400085    0.81999999    2.39000010
   13.15722179  217.42100525    0.83999997    2.39000010
   13.16055489  222.61900330    0.81999999    2.39000010
   13.16361046  230.46400452    0.81999999    2.39000010
   13.16944504  230.46400452    0.80000001    2.40000010
   13.17361164  218.28700256    0.80000001    2.39000010
   13.17638874  214.90199280    0.80000001    2.40000010
   13.17722225  220.05299377    0.80000001    2.40000010
   13.18055630  234.41400146    0.80000001    2.39000010
   13.18388939  214.02200317    0.79000002    2.40000010
   13.18694496  208.06799316    0.79000002    2.40000010
   13.19027805  221.15699768    0.80000001    2.40000010
   13.19333363  209.22999573    0.80000001    2.39000010
   13.19666672  220.91600037    0.80000001    2.39000010
   13.19999981  207.11700439    0.80000001    2.39000010
   13.20333290  222.93200684    0.80000001    2.40000010
   13.20638847  201.12500000    0.80000001    2.40000010
   13.21249962  201.12500000    0.80000001    2.39000010
   13.21638870  202.14100647    0.80000001    2.40000010
   13.21972179  212.85000610    0.80000001    2.40000010
   13.22305489  209.01100159    0.80000001    2.40000010
   13.22611046  210.05900574    0.80000001    2.40000010
   13.22944355  203.77999878    0.80000001    2.40000010
   13.23277760  205.59199524    0.80000001    2.40000010
   13.23583317  206.00199890    0.80000001    2.40000010
   13.23916721  203.27999878    0.80000001    2.40000010
   13.24222279  205.83200073    0.80000001    2.40000010
   13.24333382  215.80200195    0.80000001    2.40000010
   13.24583340  198.58599854    0.80000001    2.40000010
   13.24916649  212.27499390    0.80000001    2.40000010
   13.25527763  212.27499390    0.80000001    2.40000010
   13.25944424  212.08999634    0.80000001    2.40000010
   13.26249981  211.30499268    0.80000001    2.40000010
   13.26583290  212.33799744    0.79000002    2.40000010
   13.26916599  212.13800049    0.80000001    2.40000010
   13.27222157  217.92300415    0.80000001    2.40000010
   13.27555561  225.38999939    0.80000001    2.42000008
   13.27666664  238.78900146    0.79000002    2.42000008
   13.27944374  199.53399658    0.79000002    2.40000010
   13.28249931  210.95599365    0.79000002    2.40000010
   13.28583336  211.54600525    0.79000002    2.42000008
   13.28888893  225.34700012    0.80000001    2.42000008
   13.29222298  224.70399475    0.80000001    2.42000008
   13.29805565  224.70399475    0.80000001    2.42000008
   13.30222225  224.20599365    0.80000001    2.42000008
   13.30555534  231.16700745    0.80000001    2.42000008
   13.30861092  213.13699341    0.80000001    2.42000008
   13.31027794  212.76499939    0.80000001    2.42000008
   13.31250000  207.88099670    0.80000001    2.42000008
   13.31583309  212.91900635    0.80000001    2.42000008
   13.31888866  215.08700562    0.81999999    2.42000008
   13.32222176  216.51800537    0.81999999    2.42000008
   13.32555580  204.96899414    0.81999999    2.42000008
   13.32861137  214.19000244    0.81999999    2.42000008
   13.33194447  197.25599670    0.83999997    2.42000008
   13.33527756  207.47799683    0.83999997    2.42000008
   13.34083271  207.47799683    0.86000001    2.42000008
   13.34499931  202.10200500    0.81999999    2.42000008
   13.34833336  193.55700684    0.81999999    2.42000008
   13.35138893  200.49299622    0.83999997    2.42000008
   13.35472298  207.68499756    0.83999997    2.42000008
   13.35805607  194.51100159    0.81999999    2.44000006
   13.36111164  276.47799683    0.81999999    2.44000006
   13.36444473  295.62799072    0.81999999    2.42000008
   13.36777782  389.76199341    0.81999999    2.42000008
   13.48555565   -1.00000000   -1.00000000   -1.00000000
   13.59055519   -1.00000000   -1.00000000   -1.00000000
   13.69000053   -1.00000000   -1.00000000   -1.00000000
   13.71694374  181.84899902    0.75000000    2.48000002
   13.71999931  288.00000000    0.75000000    2.48000002
   13.72333336  287.29901123    0.75000000    2.50000000
   13.72666645  296.40399170    0.73000002    2.50000000
   13.72972202  275.10400391    0.70999998    2.50000000
   13.73305511  294.63900757    0.70999998    2.50000000
   13.73722267  294.63900757    0.70999998    2.50000000
   13.74138927  287.26599121    0.70999998    2.48000002
   13.74472237  278.59100342    0.70999998    2.48000002
   13.74805546  279.85501099    0.70999998    2.48000002
   13.75000000  280.93899536    0.70999998    2.50000000
   13.75166702  249.89799500    0.70999998    2.50000000
   13.75500011  287.51599121    0.70999998    2.50000000
   13.75805569  275.61999512    0.70999998    2.50000000
   13.76138878  267.15701294    0.70999998    2.48000002
   13.76472187  274.92999268    0.70999998    2.48000002
   13.76777744  262.36999512    0.73000002    2.50000000
   13.77111053  275.22299194    0.73000002    2.50000000
   13.77444458  272.56698608    0.75000000    2.50000000
   13.77999973  272.56698608    0.73000002    2.50000000
   13.78416729  278.51599121    0.73000002    2.50000000
   13.78750038  264.13800049    0.73000002    2.50000000
   13.79055595  263.16101074    0.73000002    2.50000000
   13.79388905  250.62500000    0.70999998    2.50000000
   13.79722309  249.24099731    0.70999998    2.50000000
   13.80027771  262.39099121    0.70999998    2.50000000
   13.80361176  258.61499023    0.70999998    2.50000000
   13.80666733  246.23500061    0.70999998    2.50000000
   13.81000042  262.95901489    0.70999998    2.50000000
   13.81333351  253.32400513    0.70999998    2.50000000
   13.81638908  253.60200500    0.70999998    2.50000000
   13.81694412  259.60198975    0.70999998    2.50000000
   13.82277775  259.60198975    0.70999998    2.50000000
   13.82694435  253.31799316    0.70999998    2.51999998
   13.83027744  249.01899719    0.70999998    2.50000000
   13.83333302  252.71299744    0.73000002    2.50000000
   13.83666611  248.61000061    0.73000002    2.50000000
   13.84000015  263.25900269    0.73000002    2.50000000
   13.84305477  249.19900513    0.75000000    2.50000000
   13.84638882  269.09100342    0.75000000    2.50000000
   13.84972191  244.61599731    0.75000000    2.50000000
   13.85027790  257.28601074    0.75000000    2.50000000
   13.85333347  241.08999634    0.75000000    2.50000000
   13.85666752  243.21499634    0.75000000    2.51999998
   13.85972214  248.56100464    0.75000000    2.51999998
   13.86583328  248.56100464    0.76999998    2.50000000
   13.86972237  248.39300537    0.75000000    2.50000000
   13.87305546  244.40899658    0.75000000    2.51999998
   13.87638855  234.81100464    0.76999998    2.51999998
   13.87944412  232.70399475    0.76999998    2.50000000
   13.88277817  240.40100098    0.76999998    2.50000000
   13.88361073  225.75000000    0.76999998    2.50000000
   13.88638878  239.89799500    0.76999998    2.50000000
   13.88972187  227.66200256    0.75000000    2.50000000
   13.89277744  241.10200500    0.75000000    2.50000000
   13.89611053  246.26300049    0.75000000    2.51999998
   13.89944458  238.65899658    0.75000000    2.51999998
   13.90249920  215.55599976    0.75000000    2.51999998
   13.90861034  215.55599976    0.75000000    2.50000000
   13.91277695  222.58799744    0.75000000    2.50000000
   13.91583252  228.57099915    0.75000000    2.51999998
   13.91777802  233.43600464    0.75000000    2.51999998
   13.92027855  213.42500305    0.75000000    2.51999998
   13.92361164  214.77200317    0.75000000    2.51999998
   13.92694473  232.32899475    0.75000000    2.51999998
   13.93000031  206.04499817    0.75000000    2.50000000
   13.93333340  223.02400208    0.75000000    2.50000000
   13.93638897  224.52200317    0.75000000    2.50000000
   13.93972206  231.62199402    0.75000000    2.50000000
   13.94305515  220.10000610    0.75000000    2.50000000
   13.94611073  217.60200500    0.73000002    2.51999998
   13.95138836  217.60200500    0.73000002    2.51999998
   13.95555496  216.79200745    0.73000002    2.51999998
   13.95888901  212.54800415    0.70999998    2.51999998
   13.96194458  216.98399353    0.70999998    2.51999998
   13.96527767  220.06100464    0.70999998    2.51999998
   13.96833324  214.90400696    0.70999998    2.51999998
   13.97166634  217.64799500    0.69000000    2.51999998
   13.97499943  211.59399414    0.69000000    2.51999998
   13.97805500  220.37300110    0.69000000    2.51999998
   13.98138809  214.70100403    0.69000000    2.51999998
   13.98361111  213.10099792    0.69000000    2.51999998
   13.98500061  210.76300049    0.69000000    2.53999996
   13.98833370  212.63000488    0.69000000    2.53999996
   13.99416733  212.63000488    0.67000002    2.51999998
   13.99833393  213.39300537    0.67000002    2.51999998
   14.00166702  207.23599243    0.67000002    2.53999996
   14.00472260  203.19999695    0.69000000    2.51999998
   14.00805569  198.68400574    0.67000002    2.50000000
   14.01138878  206.53399658    0.69000000    2.53999996
   14.01444435  225.90199280    0.67000002    2.51999998
   14.01694393  262.23098755    0.67000002    2.51999998
   14.01805496  253.93400574    0.67000002    2.51999998
   14.02138901  254.42999268    0.67000002    2.53999996
   14.02444458  266.71200562    0.67000002    2.53999996
   14.02777767  228.91200256    0.67000002    2.53999996
   14.03083324  263.47500610    0.67000002    2.51999998
   14.03722286  263.47500610    0.67000002    2.53999996
   14.04138947  246.14900208    0.67000002    2.51999998
   14.04444504  249.34100342    0.67000002    2.51999998
   14.04777813  247.23699951    0.69000000    2.51999998
   14.05027771  224.68600464    0.67000002    2.53999996
   14.05138874  239.95300293    0.67000002    2.53999996
   14.05472279  210.11300659    0.69000000    2.51999998
   14.05777836  221.48699951    0.69000000    2.53999996
   14.06111145  233.79499817    0.69000000    2.53999996
   14.06444454  235.76499939    0.69000000    2.51999998
   14.06750011  216.92599487    0.70999998    2.53999996
   14.07083321  264.54998779    0.70999998    2.53999996
   14.07416630  254.68400574    0.70999998    2.53999996
   14.07999992  254.68400574    0.70999998    2.53999996
   14.08416653  222.73399353    0.70999998    2.51999998
   14.08722210  259.74700928    0.70999998    2.51999998
   14.09055519  233.48199463    0.70999998    2.51999998
   14.09388828  285.64498901    0.67000002    2.53999996
   14.09694386  267.31900024    0.67000002    2.53999996
   14.10027790  233.46800232    0.67000002    2.53999996
   14.10361195  286.35598755    0.67000002    2.53999996
   14.10666752  244.81199646    0.67000002    2.53999996
   14.11000061  217.47200012    0.64999998    2.53999996
   14.11305618  247.33200073    0.64999998    2.53999996
   14.11638927  290.98699951    0.63000000    2.53999996
   14.11694431  264.00000000    0.63000000    2.55999994
   14.12277794  264.00000000    0.63000000    2.53999996
   14.12694454  276.82400513    0.63000000    2.53999996
   14.13027763  265.31799316    0.63000000    2.53999996
   14.13333321  240.65600586    0.63000000    2.53999996
   14.13666630  261.45199585    0.63000000    2.53999996
   14.13972187  286.93499756    0.63000000    2.53999996
   14.14305496  283.23199463    0.63000000    2.53999996
   14.14638901  235.66600037    0.64999998    2.53999996
   14.14944458  298.25399780    0.63000000    2.53999996
   14.15027714  312.44799805    0.63000000    2.53999996
   14.15305519  269.67098999    0.64999998    2.53999996
   14.15638828  266.11801147    0.67000002    2.53999996
   14.15944386  261.05700684    0.67000002    2.53999996
   14.16555500  261.05700684    0.67000002    2.53999996
   14.16972256  271.39801025    0.67000002    2.53999996
   14.17305565  245.97099304    0.69000000    2.53999996
   14.17638874  249.85499573    0.69000000    2.53999996
   14.17944431  284.30899048    0.70999998    2.53999996
   14.18277836  224.97000122    0.70999998    2.53999996
   14.18361092  252.58399963    0.70999998    2.53999996
   14.18638897  262.80801392    0.73000002    2.53999996
   14.18972206  248.06599426    0.73000002    2.53999996
   14.19277763  248.83000183    0.75000000    2.55999994
   14.19611073  241.72300720    0.76999998    2.53999996
   14.19944477  273.90399170    0.79000002    2.53999996
   14.20249939  263.72601318    0.81999999    2.55999994
   14.20861053  263.72601318    0.83999997    2.53999996
   14.21249962  250.87699890    0.86000001    2.55999994
   14.21583271  249.35600281    0.88000000    2.53999996
   14.21694374  218.53500366    0.89999998    2.55999994
   14.21944427  225.05000305    0.89999998    2.55999994
   14.22277737  255.96099854    0.92000002    2.53999996
   14.22583294  229.53199768    0.94000000    2.55999994
   14.22916603  225.51100159    1.00000000    2.53999996
   14.23249912  200.99499512    1.03999996    2.53999996
   14.23555565  213.53300476    1.07000005    2.55999994
   14.23888874  215.99499512    1.07000005    2.55999994
   14.24194431  214.77600098    1.11000001    2.55999994
   14.24527836  212.25300598    1.16999996    2.53999996
   14.25138855  212.25300598    1.25000000    2.53999996
   14.25555515  208.10499573    1.30999994    2.55999994
   14.25861073  228.67300415    1.33000004    2.55999994
   14.26194477  202.92700195    1.34000003    2.55999994
   14.26527786  201.98500061    1.39999998    2.55999994
   14.26833344  200.72900391    1.48000002    2.53999996
   14.27166653  197.17799377    1.55999994    2.55999994
   14.27472210  204.89799500    1.55999994    2.55999994
   14.27805519  200.61599731    1.63000000    2.55999994
   14.28138828  191.97500610    1.64999998    2.55999994
   14.28388977  210.02200317    1.66999996    2.53999996
   14.28500080  197.16900635    1.66999996    2.53999996
   14.28833389  184.25700378    1.69000006    2.53999996
   14.29416752  184.25700378    1.73000002    2.55999994
   14.29833412  193.00700378    1.73000002    2.55999994
   14.30166721  196.09399414    1.66999996    2.55999994
   14.30472279  188.77799988    1.66999996    2.55999994
   14.30805588  184.53399658    1.60000002    2.55999994
   14.31111145  197.83299255    1.39999998    2.53999996
   14.31444454  195.92900085    1.33000004    2.55999994
   14.31722260  184.77000427    1.26999998    2.55999994
   14.31805515  187.54800415    1.26999998    2.55999994
   14.32138920  191.38299561    1.23000002    2.53999996
   14.32444477  187.33099365    1.19000006    2.55999994
   14.32777786  191.60499573    1.19000006    2.55999994
   14.33111095  191.87199402    1.13000000    2.55999994
   14.33694458  191.87199402    0.86000001    2.55999994
   14.34111118  179.25599670    0.86000001    2.55999994
   14.34444427  191.33900452    0.81999999    2.55999994
   14.34749985  182.20300293    0.76999998    2.55999994
   14.35027790  191.25500488    0.70999998    2.55999994
   14.35111141  180.88099670    0.70999998    2.55999994
   14.35444450  186.46800232    0.70999998    2.55999994
   14.35750008  189.47700500    0.70999998    2.55999994
   14.36083412  192.38099670    0.70999998    2.55999994
   14.36416721  203.98100281    0.70999998    2.55999994
   14.36722279  188.71000671    0.70999998    2.55999994
   14.37055588  194.75199890    0.70999998    2.55999994
   14.37388897  205.96899414    0.75000000    2.55999994
   14.38000011  205.96899414    0.80000001    2.55999994
   14.38416672  209.79100037    0.83999997    2.55999994
   14.38722229  220.70199585    0.86000001    2.55999994
   14.39055538  199.98800659    0.86000001    2.55999994
   14.39361095  203.93600464    0.86000001    2.55999994
   14.39694405  213.72300720    0.86000001    2.57999992
   14.40027714  208.31599426    0.86000001    2.57999992
   14.40333271  203.45599365    0.86000001    2.57999992
   14.40666676  208.51300049    0.83999997    2.55999994
   14.40999985  212.24200439    0.83999997    2.57999992
   14.41305542  189.30900574    0.81999999    2.57999992
   14.41638851  222.87699890    0.81999999    2.55999994
   14.41722298  226.43899536    0.81999999    2.55999994
   14.42277813  226.43899536    0.80000001    2.55999994
   14.42694473  201.53300476    0.76999998    2.55999994
   14.43000031  220.50599670    0.76999998    2.55999994
   14.43333340  211.93699646    0.73000002    2.57999992
   14.43666649  240.25100708    0.73000002    2.57999992
   14.43972206  205.09700012    0.73000002    2.57999992
   14.44305515  187.43200684    0.73000002    2.57999992
   14.44611073  207.79200745    0.73000002    2.57999992
   14.44944477  220.53599548    0.73000002    2.55999994
   14.45055580  203.86099243    0.73000002    2.55999994
   14.45305538  198.50000000    0.73000002    2.57999992
   14.45638847  212.38499451    0.75000000    2.55999994
   14.45944405  209.30900574    0.76999998    2.57999992
   14.46555519  209.30900574    0.76999998    2.55999994
   14.46972179  202.27499390    0.80000001    2.59999990
   14.47305489  228.08900452    0.80000001    2.57999992
   14.47611046  206.78999329    0.79000002    2.57999992
   14.47944355  200.15600586    0.79000002    2.57999992
   14.48277760  203.79100037    0.79000002    2.57999992
   14.48388958  215.13699341    0.79000002    2.57999992
   14.48611164  212.13000488    0.80000001    2.57999992
   14.48944473  214.52499390    0.80000001    2.57999992
   14.49277782  240.60600281    0.79000002    2.57999992
   14.49583340  205.50399780    0.79000002    2.57999992
   14.49916649  234.83799744    0.80000001    2.57999992
   14.50249958  226.08799744    0.80000001    2.55999994
   14.50833321  226.08799744    0.80000001    2.57999992
   14.51249981  236.77000427    0.80000001    2.57999992
   14.51583290  225.71400452    0.80000001    2.57999992
   14.51722240  232.92300415    0.80000001    2.57999992
   14.51944447  234.45500183    0.80000001    2.57999992
   14.52277756  229.62100220    0.81999999    2.57999992
   14.52611065  232.89300537    0.80000001    2.57999992
   14.52916622  229.10499573    0.79000002    2.57999992
   14.53249931  223.40100098    0.75000000    2.57999992
   14.53555584  216.22200012    0.75000000    2.57999992
   14.53888893  217.42300415    0.75000000    2.57999992
   14.54222298  219.52400208    0.73000002    2.59999990
   14.54527855  230.01899719    0.73000002    2.57999992
   14.55138874  230.01899719    0.75000000    2.59999990
   14.55555534  210.57499695    0.73000002    2.57999992
   14.55861092  238.13099670    0.75000000    2.57999992
   14.56194496  238.51100159    0.75000000    2.57999992
   14.56500053  238.48800659    0.75000000    2.57999992
   14.56833363  220.60699463    0.76999998    2.57999992
   14.57166672  222.36700439    0.79000002    2.57999992
   14.57472229  212.71499634    0.76999998    2.57999992
   14.57805538  248.73800659    0.75000000    2.57999992
   14.58138847  256.79998779    0.75000000    2.57999992
   14.58388901  259.65399170    0.75000000    2.57999992
   14.58472157  261.10198975    0.75000000    2.57999992
   14.58805561  253.97799683    0.75000000    2.57999992
   14.59416676  253.97799683    0.73000002    2.57999992
   14.59833336  249.25199890    0.73000002    2.57999992
   14.60138893  242.57600403    0.73000002    2.59999990
   14.60472298  263.67599487    0.73000002    2.59999990
   14.60805607  233.32200623    0.70999998    2.57999992
   14.61111164  249.45300293    0.69000000    2.59999990
   14.61444473  255.06799316    0.67000002    2.57999992
   14.61722279  241.89700317    0.67000002    2.57999992
   14.61805534  235.62800598    0.67000002    2.57999992
   14.62138939  242.66700745    0.64999998    2.57999992
   14.62472248  237.76300049    0.63000000    2.57999992
   14.62777805  236.54299927    0.63000000    2.57999992
   14.63111115  270.53298950    0.63000000    2.57999992
   14.63694477  270.53298950    0.63000000    2.57999992
   14.64111137  257.59899902    0.63000000    2.57999992
   14.64444447  253.96699524    0.63000000    2.59999990
   14.64750004  266.49200439    0.63000000    2.59999990
   14.65055561  255.22099304    0.63000000    2.59999990
   14.65111065  251.91200256    0.63000000    2.59999990
   14.65444374  278.10400391    0.63000000    2.57999992
   14.65777779  243.96600342    0.63000000    2.57999992
   14.66083336  259.30899048    0.63000000    2.57999992
   14.66416645  235.87500000    0.63000000    2.57999992
   14.66722298  249.18899536    0.63000000    2.59999990
   14.67055607  247.06900024    0.61000001    2.59999990
   14.67388916  248.85600281    0.58999997    2.59999990
   14.67972279  248.85600281    0.58999997    2.59999990
   14.68388939  227.77699280    0.58999997    2.59999990
   14.68722248  238.98399353    0.58999997    2.59999990
   14.69027805  245.49000549    0.58999997    2.59999990
   14.69361115  205.79200745    0.58999997    2.59999990
   14.69694424  231.37100220    0.58999997    2.59999990
   14.69999981  230.22399902    0.58999997    2.57999992
   14.70333290  224.57899475    0.58999997    2.57999992
   14.70666695  231.19400024    0.58999997    2.59999990
   14.70972157  230.14300537    0.58999997    2.59999990
   14.71305561  211.95399475    0.58999997    2.59999990
   14.71638870  230.69900513    0.58999997    2.59999990
   14.71722221  225.27999878    0.58999997    2.59999990
   14.73777771  225.27999878    0.56999999    2.59999990
   14.74194431  205.91299438    0.56999999    2.59999990
   14.74527836  224.25999451    0.56999999    2.57999992
   14.74833393  226.66099548    0.56999999    2.59999990
   14.75055599  238.86999512    0.56999999    2.59999990
   14.75222206  223.32400513    0.56999999    2.59999990
   14.75555515  222.49600220    0.56999999    2.59999990
   14.75861073  222.36799622    0.56999999    2.57999992
   14.76194477  215.79100037    0.56999999    2.59999990
   14.76527786  234.85299683    0.56999999    2.57999992
   14.76833344  254.43099976    0.56999999    2.59999990
   14.77166653  217.25900269    0.56999999    2.59999990
   14.77499962  225.67300415    0.56999999    2.59999990
   14.78055573  225.67300415    0.56999999    2.59999990
   14.78472233  262.55599976    0.56999999    2.59999990
   14.78777790  234.08000183    0.56999999    2.59999990
   14.79111195  214.85699463    0.58999997    2.59999990
   14.79444504  212.44900513    0.58999997    2.59999990
   14.79777813  212.45399475    0.58999997    2.59999990
   14.80083370  211.31300354    0.58999997    2.59999990
   14.80416679  212.13000488    0.58999997    2.59999990
   14.80749989  229.47799683    0.58999997    2.59999990
   14.81055546  212.80999756    0.56999999    2.59999990
   14.81388950  205.13299561    0.58999997    2.59999990
   14.81722260  229.92100525    0.58999997    2.59999990
   14.81750011  212.16900635    0.58999997    2.59999990
   14.82333374  212.16900635    0.58999997    2.59999990
   14.82750034  211.59100342    0.58999997    2.59999990
   14.83083344  209.45399475    0.58999997    2.59999990
   14.83388901  191.53999329    0.58999997    2.59999990
   14.83722210  212.86500549    0.58999997    2.59999990
   14.84055519  205.28500366    0.58999997    2.59999990
   14.84361076  192.66999817    0.58999997    2.59999990
   14.84694386  229.75300598    0.56999999    2.59999990
   14.85027790  202.95599365    0.56999999    2.59999990
   14.85083389  222.48300171    0.56999999    2.59999990
   14.85416698  198.07800293    0.58999997    2.61999989
   14.85750008  218.86000061    0.58999997    2.59999990
   14.86083412  199.56399536    0.58999997    2.59999990
   14.86611176  199.56399536    0.58999997    2.59999990
   14.87027836  183.81799316    0.56999999    2.59999990
   14.87361145  204.59399414    0.56999999    2.59999990
   14.87694454  201.55200195    0.56999999    2.59999990
   14.88000011  200.05000305    0.56999999    2.61999989
   14.88333321  196.51199341    0.56999999    2.59999990
   14.88388920  189.72300720    0.56999999    2.59999990
   14.88694477  193.67100525    0.58999997    2.59999990
   14.89027786  209.28100586    0.58999997    2.61999989
   14.89333344  200.23899841    0.58999997    2.59999990
   14.89666653  196.51199341    0.61000001    2.61999989
   14.89999962  196.53900146    0.61000001    2.61999989
   14.90305519  200.61099243    0.61000001    2.61999989
   14.90916634  200.61099243    0.61000001    2.59999990
   14.91333294  194.69200134    0.61000001    2.59999990
   14.91638851  200.75300598    0.61000001    2.61999989
   14.91722298  187.38499451    0.61000001    2.61999989
   14.92027855  198.05900574    0.61000001    2.59999990
   14.92333412  185.45100403    0.61000001    2.61999989
   14.92666721  189.70599365    0.61000001    2.61999989
   14.93000031  187.43099976    0.61000001    2.59999990
   14.93305588  189.12500000    0.61000001    2.59999990
   14.93638897  177.48899841    0.58999997    2.59999990
   14.93972206  184.53900146    0.58999997    2.59999990
   14.94305515  190.57299805    0.58999997    2.59999990
   14.94611073  178.67100525    0.58999997    2.59999990
   14.95194435  178.67100525    0.61000001    2.61999989
   14.95611095  170.58999634    0.67000002    2.61999989
   14.95916653  173.96000671    0.79000002    2.61999989
   14.96249962  181.42799377    0.79000002    2.61999989
   14.96583271  193.76100159    0.92000002    2.59999990
   14.96888828  165.08799744    1.13000000    2.59999990
   14.97222137  176.67100525    1.13000000    2.59999990
   14.97555542  179.15600586    1.13000000    2.59999990
   14.97861099  180.81799316    1.09000003    2.59999990
   14.98194408  170.83099365    1.01999998    2.61999989
   14.98388958  173.41799927    0.98000002    2.61999989
   14.98555565  168.60600281    0.81999999    2.61999989
   14.98888874  174.35299683    0.79000002    2.61999989
   14.99472237  174.35299683    0.73000002    2.61999989
   14.99888897  167.65400696    0.73000002    2.61999989
   15.00222206  179.50999451    0.73000002    2.61999989
   15.00527763  180.50900269    0.69000000    2.61999989
   15.00861073  164.89900208    0.67000002    2.61999989
   15.01194477  185.05700684    0.64999998    2.61999989
   15.01500034  181.77400208    0.63000000    2.61999989
   15.01749992  166.76499939    0.63000000    2.61999989
   15.01861095  173.71400452    0.63000000    2.61999989
   15.02194405  162.25799561    0.63000000    2.61999989
   15.02499962  173.57200623    0.67000002    2.61999989
   15.02833271  171.23599243    0.69000000    2.59999990
   15.03166676  180.92199707    0.69000000    2.59999990
   15.03750038  180.92199707    0.69000000    2.61999989
   15.04166698  174.46000671    0.89999998    2.61999989
   15.04500008  160.46200562    0.92000002    2.61999989
   15.04833412  161.06399536    0.92000002    2.61999989
   15.05083370  165.13499451    0.92000002    2.61999989
   15.05166721  166.33200073    0.92000002    2.61999989
   15.05500031  169.69299316    0.98000002    2.61999989
   15.05805588  166.12800598    1.25000000    2.61999989
   15.06138897  168.66600037    1.28999996    2.61999989
   15.06472206  181.87699890    1.28999996    2.59999990
   15.06777763  195.94599915    1.28999996    2.61999989
   15.07111073  218.09800720    1.34000003    2.59999990
   15.07444477  222.63999939    1.34000003    2.59999990
   15.08055592  222.63999939    1.48000002    2.61999989
   15.08472157  182.87100220    1.63000000    2.61999989
   15.08777714  251.33500671    2.34999990    2.61999989
   15.09111118  228.93099976    2.73000002    2.61999989
   15.09416676  218.29299927    3.14000010    2.61999989
   15.09749985  261.68798828    3.51999998    2.59999990
   15.10083389  241.98699951    3.93000007    2.61999989
   15.10388947  231.97000122    4.00000000    2.59999990
   15.10722256  245.36500549    3.89000010    2.59999990
   15.11055565  259.00500488    3.68000007    2.59999990
   15.11361122  237.45300293    3.55999994    2.59999990
   15.11694431  258.50601196    3.55999994    2.59999990
   15.11750031  251.72300720    3.64000010    2.59999990
   15.12333393  251.72300720    4.00000000    2.61999989
   15.12750053  225.82200623    4.00000000    2.59999990
   15.13055611  215.72300720    3.91000009    2.59999990
   15.13388920  243.69400024    3.76999998    2.57999992
   15.13722229  226.93499756    3.66000009    2.57999992
   15.14027786  247.84700012    3.41000009    2.61999989
   15.14361095  238.66200256    3.18000007    2.59999990
   15.14694405  222.04100037    2.94000006    2.59999990
   15.14999962  246.17599487    2.80999994    2.59999990
   15.15083313  219.23800659    2.76999998    2.59999990
   15.15361118  204.35400391    2.67000008    2.59999990
   15.15694427  225.07499695    2.55999994    2.59999990
   15.16027737  225.83200073    2.34999990    2.61999989
   15.16611099  225.83200073    2.13000011    2.61999989
   15.17027855  236.67599487    2.05999994    2.61999989
   15.17361164  207.87699890    2.11999989    2.59999990
   15.17666721  229.07099915    4.90999985    2.61999989
   15.18000031  227.83700562    4.90999985    2.61999989
   15.18333340  233.11000061    4.90999985    2.61999989
   15.18416691  216.88900757    4.90999985    2.61999989
   15.18666649  208.98599243    4.90999985    2.61999989
   15.19000053  217.73199463    4.90999985    2.61999989
   15.19333363  226.17300415    4.90999985    2.64000010
   15.19638920  215.50399780    4.90999985    2.64000010
   15.19972229  211.80799866    4.90999985    2.61999989
   15.20305538  195.64700317    4.90999985    2.61999989
   15.20888901  195.64700317    4.90999985    2.59999990
   15.21305561  219.85899353    4.90999985    2.59999990
   15.21638870  214.79200745    4.90999985    2.57999992
   15.21749973  208.63400269    4.90999985    2.59999990
   15.21999931  211.22399902    4.90999985    2.57999992
   15.22333336  214.85200500    4.90999985    2.55999994
   15.22666645  212.67599487    4.90999985    2.55999994
   15.22972202  201.11199951    4.90999985    2.59999990
   15.23305511  195.57800293    4.90999985    2.59999990
   15.23638916  186.02400208    4.90999985    2.55999994
   15.23944473  180.66099548    4.90999985    2.51999998
   15.24277782  207.30799866    4.90999985    2.46000004
   15.24583340  186.53599548    4.90999985    2.44000006
   15.25194454  186.53599548    4.90999985    2.46000004
   15.25583363  194.79600525    4.90999985    2.44000006
   15.25916672  191.80999756    4.90999985    2.48000002
   15.26249981  210.82499695    4.90999985    2.51999998
   15.26555538  185.02400208    4.90999985    2.51999998
   15.26888847  192.20100403    4.90999985    2.51999998
   15.27222157  200.73500061    4.90999985    2.53999996
   15.27527714  183.62800598    4.90999985    2.59999990
   15.27861118  184.89799500    4.90999985    2.64000010
   15.28166676  185.10000610    4.90999985    2.61999989
   15.28416729  168.91700745    4.90999985    2.61999989
   15.28527832  197.99600220    4.90999985    2.61999989
   15.28861141  196.71099854    4.90999985    2.61999989
   15.29472256  196.71099854    4.90999985    2.57999992
   15.29888916  194.82000732    4.90999985    2.59999990
   15.30194473  182.39700317    4.90999985    2.57999992
   15.30527782  186.58500671    4.90999985    2.59999990
   15.30861092  171.87500000    4.90999985    2.61999989
   15.31166649  177.59599304    4.90999985    2.57999992
   15.31500053  178.46899414    4.90999985    2.57999992
   15.31750011  179.31300354    4.90999985    2.55999994
   15.31833363  175.38400269    4.90999985    2.55999994
   15.32166672  188.89700317    4.90999985    2.59999990
   15.32499981  173.77099609    4.90999985    2.57999992
   15.32805538  162.19700623    4.90999985    2.57999992
   15.33138847  176.94299316    4.90999985    2.57999992
   15.33749962  176.94299316    4.90999985    2.59999990
   15.34166622  172.24600220    4.90999985    2.57999992
   15.34499931  182.46600342    4.90999985    2.53999996
   15.34805489  164.26499939    4.90999985    2.50000000
   15.35083389  183.48199463    4.90999985    2.50000000
   15.35166740  181.50100708    4.90999985    2.50000000
   15.35500050  183.99200439    4.90999985    2.51999998
   15.35833359  171.17700195    4.90999985    2.50000000
   15.36138916  172.59500122    4.90999985    2.53999996
   15.36472225  172.76100159    4.90999985    2.55999994
   15.36805534  177.80900574    4.90999985    2.53999996
   15.37111092  168.24400330    4.90999985    2.55999994
   15.37444496  188.61199951    4.90999985    2.53999996
   15.38027763  188.61199951    4.90999985    2.53999996
   15.38444424  169.74000549    4.90999985    2.51999998
   15.38777733  177.02699280    4.90999985    2.53999996
   15.39083290  180.34899902    4.90999985    2.50000000
   15.39416695  174.66499329    4.90999985    2.50000000
   15.39750004  161.93400574    4.90999985    2.51999998
   15.40055561  169.71600342    4.90999985    2.51999998
   15.40388870  164.55599976    4.90999985    2.51999998
   15.40722179  180.79299927    4.90999985    2.51999998
   15.41027737  172.15899658    4.90999985    2.51999998
   15.41361046  180.08799744    4.90999985    2.51999998
   15.41666698  161.68600464    4.90999985    2.53999996
   15.41750050  169.53100586    4.90999985    2.53999996
   15.42333412  169.53100586    4.90999985    2.55999994
   15.42722225  167.27900696    4.90999985    2.53999996
   15.43055630  172.68299866    4.90999985    2.55999994
   15.43388939  162.15199280    4.90999985    2.55999994
   15.43694496  167.64100647    4.90999985    2.57999992
   15.44027805  163.68899536    4.90999985    2.59999990
   15.44361115  174.87100220    4.90999985    2.57999992
   15.44666672  174.46400452    4.90999985    2.57999992
   15.44999981  187.92599487    4.90999985    2.57999992
   15.45083332  184.26100159    4.90999985    2.57999992
   15.45388889  212.03799438    4.90999985    2.53999996
   15.45694447  196.27000427    4.90999985    2.53999996
   15.46027756  216.00199890    4.90999985    2.53999996
   15.46611118  216.00199890    4.90999985    2.53999996
   15.47027779  237.99000549    4.90999985    2.55999994
   15.47333336  245.43200684    4.90999985    2.55999994
   15.47666645  242.17799377    4.90999985    2.57999992
   15.47999954  257.84899902    4.90999985    2.55999994
   15.48305511  230.76300049    4.90999985    2.55999994
   15.48416710  261.97100830    4.90999985    2.55999994
   15.48694515  253.95700073    4.90999985    2.53999996
   15.49000072  249.50399780    4.90999985    2.51999998
   15.49333382  253.32400513    4.90999985    2.50000000
   15.49638939  259.57699585    4.90999985    2.50000000
   15.49972248  232.54499817    4.90999985    2.51999998
   15.50305557  226.42300415    4.90999985    2.51999998
   15.50888920  226.42300415    4.90999985    2.50000000
   15.51305580  214.80200195    4.90999985    2.48000002
   15.51638889  244.99200439    4.90999985    2.51999998
   15.51749992  231.51800537    4.90999985    2.51999998
   15.51999950  241.23699951    4.90999985    2.53999996
   15.52305508  233.68200684    4.90999985    2.53999996
   15.52638817  231.29100037    4.90999985    2.51999998
   15.52944374  213.64799500    4.90999985    2.50000000
   15.53277779  216.46800232    4.90999985    2.51999998
   15.53611183  195.18600464    4.90999985    2.50000000
   15.53916740  206.41799927    4.90999985    2.48000002
   15.54250050  193.33999634    4.90999985    2.50000000
   15.54583359  207.02499390    4.90999985    2.48000002
   15.55166721  207.02499390    4.90999985    2.42000008
   15.55583382  187.27200317    4.90999985    2.36999989
   15.55916691  206.03100586    4.90999985    2.36999989
   15.56222248  204.83099365    4.90999985    2.40000010
   15.56555557  189.18699646    4.90999985    2.39000010
   15.56888866  199.51100159    4.90999985    2.39000010
   15.57194424  177.97799683    4.90999985    2.39000010
   15.57527733  192.33599854    4.90999985    2.34999990
   15.57861137  203.14500427    4.90999985    2.34999990
   15.58166695  197.78799438    4.90999985    2.32999992
   15.58416653  198.85099792    4.90999985    2.30999994
   15.58555508  197.73899841    4.90999985    2.28999996
   15.58861065  211.28700256    4.90999985    2.25000000
   15.59472179  211.28700256    4.90999985    2.23000002
   15.59861088  200.00799561    4.90999985    2.19000006
   15.60194492  204.88499451    4.90999985    2.21000004
   15.60527802  187.83799744    4.90999985    2.25000000
   15.60833359  228.36599731    4.90999985    2.19000006
   15.61166668  203.82600403    4.90999985    2.15000010
   15.61500072  195.61799622    4.90999985    2.17000008
   15.61750031  244.38000488    4.90999985    2.23000002
   15.61861134  235.95599365    4.90999985    2.21000004
   15.62166691  229.17399597    4.90999985    2.21000004
   15.62500000  219.20899963    4.90999985    2.17000008
   15.62833309  193.76600647    4.90999985    2.19000006
   15.63138866  206.30599976    4.90999985    2.26999998
   15.63749981  206.30599976    4.90999985    2.40000010
   15.64166641  187.92900085    4.90999985    2.36999989
   15.64472198  183.76899719    4.90999985    2.44000006
   15.64805508  173.77400208    4.90999985    2.42000008
   15.65083313  179.09399414    4.90999985    2.51999998
   15.65166664  192.90100098    4.90999985    2.51999998
   15.65472221  175.65899658    4.90999985    2.39000010
   15.65805531  162.13900757    4.90999985    2.46000004
   15.66111088  171.63200378    4.90999985    2.46000004
   15.66444397  168.68699646    4.90999985    2.55999994
   15.66777802  156.19900513    4.90999985    2.57999992
   15.67083359  149.39500427    4.90999985    2.57999992
   15.67416668  161.58099365    4.90999985    2.61999989
   15.68027782  161.58099365    4.90999985    2.64000010
   15.68444443  160.82299805    4.90999985    2.64000010
   15.68777752  148.28100586    4.90999985    2.64000010
   15.69083309  164.27000427    4.90999985    2.64000010
   15.69416714  160.32600403    4.90999985    2.61999989
   15.69750023  162.94799805    4.90999985    2.61999989
   15.70055580  160.86099243    4.90999985    2.64000010
   15.70388889  154.78700256    4.90999985    2.64000010
   15.70694447  158.83399963    4.90999985    2.64000010
   15.71027756  159.01300049    4.90999985    2.64000010
   15.71361065  156.78900146    4.90999985    2.64000010
   15.71666622  156.43499756    4.90999985    2.64000010
   15.71749973  147.55200195    4.90999985    2.64000010
   15.72305489  147.55200195    4.90999985    2.64000010
   15.72722149  157.34100342    4.90999985    2.66000009
   15.73055553  160.85000610    4.90999985    2.64000010
   15.73388958  153.72599792    4.90999985    2.64000010
   15.75138855  161.01600647    4.90999985    2.64000010
   15.75361156  166.69500732    4.90999985    2.64000010
   15.75694466  158.61799622    4.90999985    2.64000010
   15.76027775  165.17500305    4.90999985    2.64000010
   15.76611137  165.17500305    4.90999985    2.64000010
   15.77027798  163.85099792    4.90999985    2.64000010
   15.77361107  164.78399658    4.90999985    2.64000010
   15.77666664  179.08900452    4.90999985    2.64000010
   15.77999973  151.16200256    4.90999985    2.64000010
   15.78333378  159.93800354    4.90999985    2.66000009
   15.78444481  170.03700256    4.90999985    2.66000009
   15.78694534  148.99299622    4.90999985    2.64000010
   15.79027843  164.32899475    4.90999985    2.64000010
   15.79333401  162.31599426    4.90999985    2.64000010
   15.79666710  152.63000488    4.90999985    2.66000009
   15.80000019  164.55000305    4.90999985    2.66000009
   15.80305576  161.86700439    4.90999985    2.64000010
   15.80916691  161.86700439    4.90999985    2.61999989
   15.81305599  160.33200073    4.90999985    2.64000010
   15.81638908  160.02000427    4.90999985    2.64000010
   15.81777763  180.31799316    4.90999985    2.64000010
   15.81999969  167.22900391    4.90999985    2.64000010
   15.82333374  159.46499634    4.90999985    2.64000010
   15.82638836  163.30900574    4.90999985    2.66000009
   15.82972240  165.57400513    4.90999985    2.64000010
   15.83305550  154.69799805    4.90999985    2.66000009
   15.83611107  172.39999390    4.90999985    2.66000009
   15.83944416  153.81300354    4.90999985    2.66000009
   15.84249973  166.48100281    4.90999985    2.61999989
   15.84583282  162.95300293    4.90999985    2.61999989
   15.85194492  162.95300293    4.90999985    2.64000010
   15.85611153  160.38999939    4.90999985    2.66000009
   15.85916710  167.04100037    4.90999985    2.66000009
   15.86250019  151.34100342    4.90999985    2.66000009
   15.86583328  149.78799438    4.90999985    2.66000009
   15.86888885  162.76800537    4.90999985    2.66000009
   15.87222195  152.31599426    4.90999985    2.66000009
   15.87555599  151.82400513    4.90999985    2.66000009
   15.87861156  156.61099243    4.90999985    2.66000009
   15.88194466  169.06799316    4.90999985    2.66000009
   15.88444424  155.98399353    4.90999985    2.66000009
   15.88555527  154.19000244    4.90999985    2.66000009
   15.88888836  154.80599976    4.90999985    2.64000010
   15.89472198  154.80599976    4.90999985    2.66000009
   15.89888859  166.93200684    4.90999985    2.66000009
   15.90222168  152.95899963    4.90999985    2.66000009
   15.90527725  155.75300598    4.90999985    2.66000009
   15.90861034  143.15100098    4.90999985    2.66000009
   15.91166592  157.02099609    4.90999985    2.66000009
   15.91499996  150.04699707    4.90999985    2.64000010
   15.91777802  151.86000061    4.90999985    2.66000009
   15.91861153  154.87699890    4.90999985    2.66000009
   15.92194462  152.60499573    4.90999985    2.67000008
   15.92500019  153.19799805    4.90999985    2.66000009
   15.92833328  152.64199829    4.90999985    2.67000008
   15.93166733  163.84599304    4.90999985    2.66000009
   15.93750000  163.84599304    4.90999985    2.67000008
   15.94166660  160.98599243    4.90999985    2.67000008
   15.94499969  153.13800049    4.90999985    2.67000008
   15.94805527  156.29499817    4.90999985    2.66000009
   15.95111084  159.50399780    4.90999985    2.66000009
   15.95194435  157.22000122    4.90999985    2.66000009
   15.95527744  148.25000000    4.90999985    2.66000009
   15.95833302  163.54699707    4.90999985    2.67000008
   15.96166611  172.59399414    4.90999985    2.67000008
   15.96500015  159.42799377    4.90999985    2.67000008
   15.96805477  175.30900574    4.90999985    2.66000009
   15.97138882  165.39199829    4.90999985    2.66000009
   15.97444439  169.12800598    4.90999985    2.66000009
   15.98055553  169.12800598    4.90999985    2.66000009
   15.98444462  145.04899597    4.90999985    2.66000009
   15.98777771  175.00100708    4.90999985    2.66000009
   15.99111176  140.47099304    4.90999985    2.66000009
   15.99416733  152.36500549    4.90999985    2.66000009
   15.99750042  179.81399536    4.90999985    2.67000008
   16.00083351  170.22000122    4.90999985    2.67000008
   16.00388908  166.41000366    4.90999985    2.66000009
   16.00722313  166.55499268    4.90999985    2.66000009
   16.01027870  169.91999817    4.90999985    2.66000009
   16.01361084  147.34700012    4.90999985    2.66000009
   16.01694489  164.98800659    4.90999985    2.67000008
   16.01777840  151.32699585    4.90999985    2.67000008
   16.02333260  151.32699585    4.90999985    2.66000009
   16.02750015  163.87399292    4.90999985    2.66000009
   16.03055573  155.68200684    4.90999985    2.66000009
   16.03388786  156.10499573    4.90999985    2.66000009
   16.03694344  154.28500366    4.90999985    2.66000009
   16.04027748  161.58299255    4.90999985    2.66000009
   16.04361153  149.30400085    4.90999985    2.66000009
   16.04666710  159.32099915    4.90999985    2.67000008
   16.04999924  154.04800415    4.90999985    2.66000009
   16.05111122  152.20700073    4.90999985    2.66000009
   16.05360985  150.28300476    4.90999985    2.66000009
   16.05694389  156.17599487    4.90999985    2.66000009
   16.05999947  159.41700745    4.90999985    2.66000009
   16.06611061  159.41700745    4.90999985    2.66000009
   16.07027817  150.05499268    4.90999985    2.67000008
   16.07333374  168.52699280    4.90999985    2.66000009
   16.07666779  156.36900330    4.90999985    2.64000010
   16.08000183  148.36000061    4.90999985    2.66000009
   16.08305550  158.32699585    4.90999985    2.66000009
   16.08444595  156.71600342    4.90999985    2.66000009
   16.08666801  157.64999390    4.90999985    2.67000008
   16.09000015  158.45300293    4.90999985    2.59999990
   16.09305573  165.36000061    4.90999985    2.59999990
   16.09638977  163.14500427    4.90999985    2.64000010
   16.09972191  151.95199585    4.90999985    2.66000009
   16.10277748  157.46899414    4.90999985    2.66000009
   16.10888863  157.46899414    4.90999985    2.64000010
   16.11305618  155.96000671    4.90999985    2.50000000
   16.11638832  155.08000183    4.90999985    2.53999996
   16.11777878  162.48500061    4.90999985    2.61999989
   16.12000084  162.14799500    4.90999985    2.64000010
   16.12333298  154.77400208    4.90999985    2.64000010
   16.12666702  157.49499512    4.90999985    2.66000009
   16.12972260  155.48500061    4.90999985    2.67000008
   16.13305473  158.64399719    4.90999985    2.66000009
   16.13611031  158.08999634    4.90999985    2.67000008
   16.13944435  168.90400696    4.90999985    2.66000009
   16.14277840  187.94200134    4.90999985    2.67000008
   16.14583397  220.78300476    4.90999985    2.67000008
   16.15166664  220.78300476    4.90999985    2.66000009
   16.15583229  218.88600159    4.90999985    2.66000009
   16.15916634  217.38400269    4.90999985    2.64000010
   16.16250038  224.32899475    4.90999985    2.66000009
   16.16555595  221.49400330    4.90999985    2.66000009
   16.16888809  246.79499817    4.90999985    2.59999990
   16.17194366  242.82400513    4.90999985    2.64000010
   16.17527771  235.39599609    4.90999985    2.64000010
   16.17860985  203.86999512    4.90999985    2.64000010
   16.18166542  197.93400574    4.90999985    2.66000009
   16.18444443  234.62199402    4.90999985    2.66000009
   16.18527603  218.72599792    4.90999985    2.66000009
   16.18861008  177.57400513    4.90999985    2.66000009
   16.19472122  177.57400513    4.90999985    2.66000009
   16.19861031  185.81900024    4.90999985    2.66000009
   16.20194435  145.50999451    4.90999985    2.66000009
   16.20527840  188.38400269    4.90999985    2.67000008
   16.20833397  170.96299744    4.90999985    2.67000008
   16.21166801  162.06900024    4.90999985    2.66000009
   16.21500015  170.39599609    4.90999985    2.66000009
   16.21777916  166.22399902    4.90999985    2.67000008
   16.21861076  171.01199341    4.90999985    2.67000008
   16.22194481  152.39199829    4.90999985    2.66000009
   16.22500038  145.36099243    4.90999985    2.66000009
   16.22833443  167.47999573    4.90999985    2.66000009
   16.23166656  152.95399475    4.90999985    2.66000009
   16.23750114  152.95399475    4.90999985    2.67000008
   16.24166679  167.15299988    4.90999985    2.59999990
   16.24472237  156.11099243    4.90999985    2.61999989
   16.24805641  152.83500671    4.90999985    2.64000010
   16.25111198  162.41000366    4.90999985    2.64000010
   16.25166702  153.56900024    4.90999985    2.67000008
   16.25499916  144.66600037    4.90999985    2.66000009
   16.25805473  152.69299316    4.90999985    2.67000008
   16.26138878  164.32699585    4.90999985    2.57999992
   16.26472282  159.75900269    4.90999985    2.55999994
   16.26777840  153.47300720    4.90999985    2.46000004
   16.27111053  175.57899475    4.90999985    2.21000004
   16.27444458  157.38299561    4.90999985    2.51999998
   16.28027725  157.38299561    4.90999985    2.66000009
   16.28444481  143.05299377    4.90999985    2.67000008
   16.28499985  136.82499695    4.90999985    2.67000008
   16.28833199  156.90899658    4.90999985    2.66000009
   16.29138756  151.40100098    4.90999985    2.66000009
   16.29472160  150.87600708    4.90999985    2.66000009
   16.29805565  150.23300171    4.90999985    2.67000008
   16.30111122  142.79499817    4.90999985    2.67000008
   16.30444336  146.87500000    4.90999985    2.67000008
   16.30777740  150.79899597    4.90999985    2.67000008
   16.31083298  152.65199280    4.90999985    2.67000008
   16.31416512  159.10200500    4.90999985    2.67000008
   16.31722260  146.33799744    4.90999985    2.67000008
   16.31833458  149.32600403    4.90999985    2.67000008
   16.32305717  149.32600403    4.90999985    2.66000009
   16.32722282  160.16200256    4.90999985    2.67000008
   16.33055687  153.09199524    4.90999985    2.66000009
   16.33388901  159.73100281    4.90999985    2.67000008
   16.33694458  156.57000732    4.90999985    2.67000008
   16.34027863  153.75999451    4.90999985    2.67000008
   16.34333420  151.02200317    4.90999985    2.67000008
   16.34666824  145.82899475    4.90999985    2.67000008
   16.35000038  156.56300354    4.90999985    2.67000008
   16.35166740  146.46200562    4.90999985    2.67000008
   16.35361099  163.07600403    4.90999985    2.67000008
   16.35666656  164.20100403    4.90999985    2.67000008
   16.36000061  151.77000427    4.90999985    2.67000008
   16.36611176  151.77000427    4.90999985    2.66000009
   16.37000084  166.30700684    4.90999985    2.67000008
   16.37333298  154.34599304    4.90999985    2.67000008
   16.37666702  163.58599854    4.90999985    2.67000008
   16.37972260  142.06199646    4.90999985    2.69000006
   16.38305473  151.82499695    4.90999985    2.67000008
   16.38500023  155.27600098    4.90999985    2.67000008
   16.38666725  162.00199890    4.90999985    2.67000008
   16.38972282  154.36300659    4.90999985    2.67000008
   16.39305496  154.94999695    4.90999985    2.67000008
   16.39611053  154.04400635    4.90999985    2.66000009
   16.39944458  153.26499939    4.90999985    2.67000008
   16.40277672  150.04699707    4.90999985    2.66000009
   16.40888786  150.04699707    4.90999985    2.67000008
   16.41305542  146.82499695    4.90999985    2.66000009
   16.41611099  156.78199768    4.90999985    2.66000009
   16.41833305  153.76800537    4.90999985    2.67000008
   16.42000008  154.39500427    4.90999985    2.66000009
   16.42305565  149.75000000    4.90999985    2.66000009
   16.42638779  153.63299561    4.90999985    2.66000009
   16.42944336  141.85400391    4.90999985    2.67000008
   16.43277740  151.73500061    4.90999985    2.66000009
   16.43610954  148.19200134    4.90999985    2.67000008
   16.43916512  146.30200195    4.90999985    2.66000009
   16.44249916  141.58799744    4.90999985    2.66000009
   16.44583321  146.71400452    4.90999985    2.67000008
   16.45166779  146.71400452    4.90999985    2.66000009
   16.45583344  142.78900146    4.90999985    2.67000008
   16.45916748  142.17300415    4.90999985    2.66000009
   16.46222305  146.17500305    4.90999985    2.66000009
   16.46555710  146.38299561    4.90999985    2.67000008
   16.46861076  141.46099854    4.90999985    2.66000009
   16.47194481  143.30299377    4.90999985    2.66000009
   16.47527885  150.39399719    4.90999985    2.67000008
   16.47833443  139.77299500    4.90999985    2.66000009
   16.48166656  149.97099304    4.90999985    2.67000008
   16.48500061  148.68400574    4.90999985    2.67000008
   16.48555565  149.43800354    4.90999985    2.67000008
   16.48861122  149.73100281    4.90999985    2.66000009
   16.49444389  149.73100281    4.90999985    2.66000009
   16.49861145  147.11599731    4.90999985    2.67000008
   16.50194359  144.87199402    4.90999985    2.67000008
   16.50499916  145.16799927    4.90999985    2.67000008
   16.50833321  144.79100037    4.90999985    2.66000009
   16.51166725  146.92100525    4.90999985    2.66000009
   16.51472282  141.73199463    4.90999985    2.67000008
   16.51805496  135.73599243    4.90999985    2.67000008
   16.51888847  135.41200256    4.90999985    2.67000008
   16.52166557  139.91400146    4.90999985    2.69000006
   16.52499962  143.45199585    4.90999985    2.67000008
   16.52805519  143.10000610    4.90999985    2.67000008
   16.53138924  146.88000488    4.90999985    2.67000008
   16.53750038  146.88000488    4.90999985    2.66000009
   16.54138756  143.61199951    4.90999985    2.67000008
   16.54472160  144.00500488    4.90999985    2.67000008
   16.54805565  143.46299744    4.90999985    2.66000009
   16.55111122  146.34300232    4.90999985    2.67000008
   16.55222130  141.20199585    4.90999985    2.67000008
   16.55472183  142.47900391    4.90999985    2.67000008
   16.55805397  143.79699707    4.90999985    2.67000008
   16.56110954  147.18699646    4.90999985    2.67000008
   16.56444359  140.74400330    4.90999985    2.67000008
   16.56777954  142.35899353    4.90999985    2.66000009
   16.57083511  147.48399353    4.90999985    2.67000008
   16.57416725  140.56199646    4.90999985    2.66000009
   16.58027840  140.56199646    4.90999985    2.66000009
   16.58444595  146.87100220    4.90999985    2.66000009
   16.58555603  142.28999329    4.90999985    2.67000008
   16.58805656  144.51699829    4.90999985    2.66000009
   16.59138870  145.10400391    4.90999985    2.67000008
   16.59444427  140.14599609    4.90999985    2.67000008
   16.59777832  142.64599609    4.90999985    2.67000008
   16.60111237  150.08700562    4.90999985    2.66000009
   16.60416794  146.81900024    4.90999985    2.67000008
   16.60750008  140.97900391    4.90999985    2.69000006
   16.61083412  146.05700684    4.90999985    2.66000009
   16.61388969  157.30200195    4.90999985    2.67000008
   16.61722183  143.00100708    4.90999985    2.66000009
   16.61888885  141.41499329    4.90999985    2.67000008
   16.62305641  141.41499329    4.90999985    2.67000008
   16.62722206  127.21399689    4.90999985    2.66000009
   16.63055611  145.13499451    4.90999985    2.67000008
   16.63361168  142.53199768    4.90999985    2.66000009
   16.63694382  143.13200378    4.90999985    2.67000008
   16.64027786  145.34599304    4.90999985    2.66000009
   16.64333344  156.82200623    4.90999985    2.67000008
   16.64666748  149.67199707    4.90999985    2.67000008
   16.64999962  145.58599854    4.90999985    2.66000009
   16.65222168  148.65499878    4.90999985    2.66000009
   16.65333366  150.85400391    4.90999985    2.67000008
   16.65666580  152.14799500    4.90999985    2.69000006
   16.65972137  149.81500244    4.90999985    2.66000009
   16.66583252  149.81500244    4.90999985    2.66000009
   16.67000008  146.16099548    4.90999985    2.64000010
   16.67333221  147.08500671    4.90999985    2.67000008
   16.67638779  141.42399597    4.90999985    2.66000009
   16.67972183  151.01800537    4.90999985    2.67000008
   16.68305397  143.08799744    4.90999985    2.67000008
   16.68555450  143.05499268    4.90999985    2.67000008
   16.68666649  146.28399658    4.90999985    2.69000006
   16.68999863  135.04299927    4.90999985    2.69000006
   16.69333267  151.65499878    4.90999985    2.59999990
   16.69638824  179.04899597    4.90999985    2.32999992
   16.69972038  275.29501343    4.90999985    2.01999998
   16.70277786  152.13000488    4.90999985    2.07999992
   16.70888901  152.13000488    4.90999985    2.59999990
   16.71277809  149.46499634    4.90999985    2.61999989
   16.71611214  155.73100281    4.90999985    2.36999989
   16.71888924  170.94099426    4.90999985    2.32999992
   16.71972275  224.86399841    4.90999985    2.26999998
   16.72305679  226.20100403    4.90999985    2.21000004
   16.72611237  188.40400696    4.90999985    1.94000006
   16.72944450  184.52600098    4.90999985    2.40000010
   16.73277855  180.88000488    4.90999985    2.32999992
   16.73583412  169.04800415    4.90999985    2.39000010
   16.73916626  187.48699951    4.90999985    2.34999990
   16.74250031  167.47799683    4.90999985    2.34999990
   16.74555588  157.96800232    4.90999985    2.39000010
   16.75166702  157.96800232    4.90999985    2.40000010
   16.77000046  219.36199951    4.90999985    2.21000004
   16.77333260  227.62600708    4.90999985    2.25000000
   16.77638817  203.52400208    4.90999985    2.17000008
   16.77972221  236.01699829    4.90999985    2.23000002
   16.78305435  270.06399536    4.90999985    2.17000008
   16.78610992  224.22099304    4.90999985    1.94000006
   16.78944397  122.66699982    4.90999985    1.83000004
   16.79888916   -1.00000000    4.90999985    1.05999994
   16.80194283   -1.00000000    4.90999985    0.94000000
   16.80555534   -1.00000000    4.90999985    0.92000002
   16.80888748   69.28620148    4.90999985    1.13000000
   16.81222153  107.17099762    4.90999985    1.69000006
   16.81527710   -1.00000000    4.90999985    1.66999996
   16.81861115   -1.00000000    4.90999985    1.58000004
   16.82194519  136.20199585    4.90999985    1.69000006
   16.82500076  156.21800232    4.90999985    1.96000004
   16.82833481  164.91299438    4.90999985    1.75000000
   16.83139038  159.22500610    4.90999985    1.86000001
   16.83750153  159.22500610    4.90999985    1.60000002
   16.84166718  116.13500214    4.90999985    1.41999996
   16.84500122   -1.00000000    4.90999985    1.64999998
   16.84805679   -1.00000000    4.90999985    1.60000002
   16.85138893   -1.00000000    4.90999985    1.39999998
   16.85472298  113.36399841    4.90999985    1.60000002
   16.85777855  247.19200134    4.90999985    1.96000004
   16.86111069  351.27099609    4.90999985    2.23000002
   16.86444473  278.00500488    4.90999985    2.05999994
   16.86750031  281.47399902    4.90999985    2.40000010
   16.86972237  219.16900635    4.90999985    2.23000002
   16.87138939  244.61199951    4.90999985    2.25000000
   16.87444496  298.06900024    4.90999985    1.96000004
   16.88055611  298.06900024    4.90999985    2.23000002
   16.88444519  186.11799622    4.90999985    2.46000004
   16.88777733  148.85499573    4.90999985    2.55999994
   16.89111137  175.47200012    4.90999985    2.53999996
   16.89416695  168.35800171    4.90999985    2.50000000
   16.89749908  197.00300598    4.90999985    2.50000000
   16.90055466  229.89100647    4.90999985    2.26999998
   16.90305519  156.10699463    4.90999985    2.39000010
   16.90444374  216.72300720    4.90999985    2.36999989
   16.90777779  216.53799438    4.90999985    2.28999996
   16.91083336  174.57800293    4.90999985    2.67000008
   16.91416550  235.14500427    4.90999985    2.15000010
   16.91722107  269.34600830    4.90999985    2.25000000
   16.92333221  269.34600830    4.90999985    1.96000004
   16.92749977  192.16000366    4.90999985    1.94000006
   16.93055534  124.05799866    4.90999985    1.91999996
   16.93388748  253.14199829    4.90999985    1.80999994
   16.93638802  216.86399841    4.90999985    1.89999998
   16.93750000  206.93600464    4.90999985    2.01999998
   16.94055557  172.62399292    4.90999985    2.34999990
   16.94388771  145.71899414    4.90999985    2.50000000
   16.94722176  152.89700317    4.90999985    2.39000010
   16.95027924  163.22799683    4.90999985    2.42000008
   16.95361137  156.95799255    4.90999985    2.66000009
   16.95666695  152.72900391    4.90999985    2.61999989
   16.96000099  161.52699280    4.90999985    2.50000000
   16.96611214  161.52699280    4.90999985    2.59999990
   16.97027779  157.17799377    4.90999985    2.59999990
   16.97333336  162.87500000    4.90999985    2.51999998
   16.97666740  142.78300476    4.90999985    2.59999990
   16.98000145  162.86799622    4.90999985    2.59999990
   16.98305511  136.02900696    4.90999985    2.61999989
   16.98638916  139.48500061    4.90999985    2.64000010
   16.98972321  147.91000366    4.90999985    2.59999990
   16.99277878  144.42500305    4.90999985    2.66000009
   16.99611092  136.95399475    4.90999985    2.66000009
   16.99916649  146.53399658    4.90999985    2.66000009
   17.00250053  140.66700745    4.90999985    2.66000009
   17.00305557  143.86199951    4.90999985    2.66000009
   17.00888824  143.86199951    4.90999985    2.67000008
   17.01305580  141.90899658    4.90999985    2.66000009
   17.01638794  145.41499329    4.90999985    2.66000009
   17.01944351  138.78700256    4.90999985    2.64000010
   17.02277756  137.17799377    4.90999985    2.66000009
   17.02611160  133.80599976    4.90999985    2.66000009
   17.02916718  135.80299377    4.90999985    2.66000009
   17.03249931  134.65499878    4.90999985    2.64000010
   17.03555489  136.32899475    4.90999985    2.66000009
   17.03638840  145.43299866    4.90999985    2.66000009
   17.03944397  142.11999512    4.90999985    2.66000009
   17.04249954  144.89300537    4.90999985    2.69000006
   17.04583359  145.13699341    4.90999985    2.59999990
   17.05166626  145.13699341    4.90999985    2.57999992
   17.05583191  148.35099792    4.90999985    2.59999990
   17.05916595  161.49299622    4.90999985    2.50000000
   17.06250000  160.65299988    4.90999985    2.32999992
   17.06555557  188.05299377    4.90999985    2.30999994
   17.06888962  163.17900085    4.90999985    2.46000004
   17.06972313  202.93099976    4.90999985    2.32999992
   17.07250023  227.51800537    4.90999985    2.30999994
   17.07555580  172.41999817    4.90999985    2.40000010
   17.07888985  162.68200684    4.90999985    2.48000002
   17.08222389  165.13000488    4.90999985    2.57999992
   17.08527756  160.04600525    4.90999985    2.55999994
   17.08861160  155.40299988    4.90999985    2.59999990
   17.09472275  155.40299988    4.90999985    2.50000000
   17.09889030  149.02400208    4.90999985    2.50000000
   17.10194397  165.95199585    4.90999985    2.50000000
   17.10305595  163.26300049    4.90999985    2.51999998
   17.10555649  157.34500122    4.90999985    2.53999996
   17.10861206  152.37600708    4.90999985    2.51999998
   17.11194420  191.33399963    4.90999985    2.44000006
   17.11527824  157.26199341    4.90999985    2.36999989
   17.11833382  162.50500488    4.90999985    2.42000008
   17.12166595  156.69599915    4.90999985    2.55999994
   17.12500000  152.82699585    4.90999985    2.64000010
   17.12805557  166.56799316    4.90999985    2.59999990
   17.13138962  160.95700073    4.90999985    2.67000008
   17.13750076  160.95700073    4.90999985    2.64000010
   17.14166641  154.39999390    4.90999985    2.64000010
   17.14500046  158.94799805    4.90999985    2.64000010
   17.14805603  153.78799438    4.90999985    2.61999989
   17.15138817  174.44900513    4.90999985    2.66000009
   17.15444374  176.02799988    4.90999985    2.66000009
   17.15777779  194.55900574    4.90999985    2.61999989
   17.16110992  167.57099915    4.90999985    2.64000010
   17.16416550  172.78700256    4.90999985    2.66000009
   17.16749954  181.96400452    4.90999985    2.61999989
   17.16972160  176.34300232    4.90999985    2.61999989
   17.17111015  185.72399902    4.90999985    2.64000010
   17.17416573  157.38499451    4.90999985    2.67000008
   17.18027687  157.38499451    4.90999985    2.57999992
   17.18444443  182.60699463    4.90999985    2.30999994
   17.18777657  213.95199585    4.90999985    2.39000010
   17.19083214  188.72300720    4.90999985    2.39000010
   17.19416618  157.54400635    4.90999985    2.59999990
   17.19749832  170.16499329    4.90999985    2.66000009
   17.20055580  182.55499268    4.90999985    2.59999990
   17.20305634  183.94400024    4.90999985    2.61999989
   17.20444489  161.84100342    4.90999985    2.61999989
   17.20777893  226.04600525    4.90999985    2.67000008
   17.21083450  212.52699280    4.90999985    2.67000008
   17.21416664  189.54800415    4.90999985    2.67000008
   17.21722221  164.98199463    4.90999985    2.55999994
   17.22333336  164.98199463    4.90999985    2.66000009
   17.22722244  180.26600647    4.90999985    2.53999996
   17.23055649  174.95599365    4.90999985    2.55999994
   17.23388863  168.64999390    4.90999985    2.61999989
   17.23638916  169.93400574    4.90999985    2.67000008
   17.23750114  176.31799316    4.90999985    2.67000008
   17.24083328  160.44799805    4.90999985    2.59999990
   17.24388885  190.45899963    4.90999985    2.53999996
   17.24722290  236.19799805    4.90999985    2.59999990
   17.25027847  170.38000488    4.90999985    2.34999990
   17.25361061  176.64599609    4.90999985    2.48000002
   17.25694466  274.52700806    4.90999985    2.19000006
   17.26000023  222.62300110    4.90999985    2.17000008
   17.26611137  222.62300110    4.90999985    2.21000004
   17.27027702  163.36099243    4.90999985    2.40000010
   17.27333260  149.46200562    4.90999985    2.57999992
   17.27666664  154.30000305    4.90999985    2.64000010
   17.28000069  165.14199829    4.90999985    2.61999989
   17.28305435  183.07499695    4.90999985    2.44000006
   17.28638840  221.73699951    4.90999985    2.32999992
   17.28944397  191.44900513    4.90999985    2.21000004
   17.29277802  156.39599609    4.90999985    2.50000000
   17.29611015  165.08299255    4.90999985    2.53999996
   17.29916573  176.87699890    4.90999985    2.51999998
   17.30249977  152.54200745    4.90999985    2.55999994
   17.30305481  145.47200012    4.90999985    2.61999989
   17.30888748  145.47200012    4.90999985    2.64000010
   17.31305504  156.14300537    4.90999985    2.55999994
   17.31611061  169.93899536    4.90999985    2.55999994
   17.31944466  171.19500732    4.90999985    2.46000004
   17.32277870  195.88400269    4.90999985    2.42000008
   17.32611275  188.55200195    4.90999985    2.40000010
   17.32916832  197.38400269    4.90999985    2.40000010
   17.33250046  192.77400208    4.90999985    2.39000010
   17.33555603  146.91700745    4.90999985    2.30999994
   17.33638954  243.59899902    4.90999985    2.30999994
   17.33944511  364.86700439    4.90999985    2.15000010
   17.34277916  301.77801514    4.90999985    2.00000000
   17.34583473   94.88710022    4.90999985    1.78999996
   17.35166740   94.88710022    4.90999985    1.36000001
   17.35583305  313.45401001    4.90999985    1.88000000
   17.35916710  285.38699341    4.90999985    2.07999992
   17.36222267  251.04699707    4.90999985    1.86000001
   17.36555672   -1.00000000    4.90999985    1.66999996
   17.36888885   -1.00000000    4.90999985    1.36000001
   17.37249947   -1.00000000    4.90999985    1.38000000
   17.37555504  163.19900513    4.90999985    1.51999998
   17.37888908  393.18701172    4.90999985    1.88000000
   17.38194466  311.44799805    4.90999985    2.21000004
   17.38527679  252.68400574    4.90999985    2.09999990
   17.38861084  274.30899048    4.90999985    2.15000010
   17.39444351  274.30899048    4.90999985    2.21000004
   17.39861107  217.97000122    4.90999985    2.34999990
   17.40194321  224.15199280    4.90999985    2.05999994
   17.40305519  243.78300476    4.90999985    2.13000011
   17.40555573  279.21200562    4.90999985    2.21000004
   17.40888786  331.01098633    4.90999985    2.13000011
   17.41194344  352.62399292    4.90999985    2.03999996
   17.41527748  278.78698730    4.90999985    2.17000008
   17.41860962  300.73901367    4.90999985    2.05999994
   17.42166519  400.42700195    4.90999985    1.94000006
   17.42388916  567.70001221    4.90999985    1.98000002
   17.42499924  401.89300537    4.90999985    2.00000000
   17.42638779  340.23599243    4.90999985    2.01999998
   17.42666626  278.78698730    4.90999985    2.17000008
   17.42666626  300.73901367    4.90999985    2.05999994
   17.42666626  400.42700195    4.90999985    1.94000006
   17.42694473  274.30899048    4.90999985    2.15000010
   17.42694473  217.97000122    4.90999985    2.34999990
   17.42694473  224.15199280    4.90999985    2.05999994
   17.42722130  279.21200562    4.90999985    2.21000004
   17.42722130  331.01098633    4.90999985    2.13000011
   17.42749977  352.62399292    4.90999985    2.03999996
   17.42805481  287.42898560    4.90999985    2.03999996
   17.43111038  282.65399170    4.90999985    2.30999994
   17.43444443  259.02801514    4.90999985    2.42000008
   17.43750000  261.95599365    4.90999985    2.44000006
   17.44083214  248.18200684    4.90999985    2.44000006
   17.44722176  248.18200684    4.90999985    2.53999996
   17.45138931  231.17799377    4.90999985    2.57999992
   17.45472336  214.09300232    4.90999985    2.57999992
   17.45777893  185.52499390    4.90999985    2.59999990
   17.46027946  179.47599792    4.90999985    2.51999998
   17.46166801  222.34500122    4.90999985    2.48000002
   17.46500015  246.08299255    4.90999985    2.34999990
   17.46805573  220.77600098    4.90999985    2.25000000
   17.47138977  193.58299255    4.90999985    2.53999996
   17.47444534  166.74000549    4.90999985    2.57999992
   17.47777748  226.88200378    4.90999985    2.34999990
   17.48111153  222.60800171    4.90999985    2.42000008
   17.48416710  175.29400635    4.90999985    2.34999990
   17.48999977  175.29400635    4.90999985    2.69000006
   17.49416733  171.87199402    4.90999985    2.61999989
   17.49749947  161.58900452    4.90999985    2.61999989
   17.50083351  176.38999939    4.90999985    2.61999989
   17.50388908  171.43299866    4.90999985    2.59999990
   17.50722313  191.68800354    4.90999985    2.30999994
   17.51055527  186.45599365    4.90999985    2.55999994
   17.51361084  187.18200684    4.90999985    2.46000004
   17.51694489  147.70899963    4.90999985    2.39000010
   17.52027702  174.39100647    4.90999985    2.53999996
   17.52333260  181.16000366    4.90999985    2.42000008
   17.52666664  169.17799377    4.90999985    2.42000008
   17.52722168  187.98399353    4.90999985    2.42000008
   17.53305435  187.98399353    4.90999985    2.53999996
   17.53722191  219.73899841    4.90999985    2.26999998
   17.54027748  171.04600525    4.90999985    2.23000002
   17.54361153  162.73699951    4.90999985    2.32999992
   17.54666710  174.00799561    4.90999985    2.28999996
   17.54999924  166.64300537    4.90999985    2.39000010
   17.55333328  226.94999695    4.90999985    2.40000010
   17.55638885  159.21699524    4.90999985    2.39000010
   17.55972099  168.44099426    4.90999985    2.50000000
   17.56055450  182.55499268    4.90999985    2.53999996
   17.56333351  161.04600525    4.90999985    2.61999989
   17.56666756  223.53700256    4.90999985    2.53999996
   17.57000160  308.60501099    4.90999985    2.40000010
   17.57583427  308.60501099    4.90999985    1.86000001
   17.58000183  254.62800598    4.90999985    2.01999998
   17.58305550   -1.00000000    4.90999985    2.11999989
   17.58638954  141.44400024    4.90999985    1.46000004
   17.58972359  260.18499756    4.90999985    1.85000002
   17.59277916  173.80200195    4.90999985    2.34999990
   17.59388924  271.92199707    4.90999985    2.39000010
   17.59638977  245.24600220    4.90999985    2.09999990
   17.59972191  184.75300598    4.90999985    2.09999990
   17.60305595  126.04299927    4.90999985    1.69000006
   17.60611153  181.12100220    4.90999985    2.09999990
   17.60944557   -1.00000000    4.90999985    2.39000010
   17.61277771   -1.00000000    4.90999985    1.46000004
   17.62277794   -1.00000000    4.90999985    0.88000000
   17.62583351   -1.00000000    4.90999985    0.76999998
   17.62944412   -1.00000000    4.90999985    0.79000002
   17.63277817   -1.00000000    4.90999985    0.79000002
   17.63583374   -1.00000000    4.90999985    0.79000002
   17.63916588   -1.00000000    4.90999985    0.75000000
   17.64249992   -1.00000000    4.90999985    0.79000002
   17.64555550   -1.00000000    4.90999985    0.89999998
   17.64888954   -1.00000000   -1.00000000   -1.00000000
   17.65194321  231.75900269    4.90999985    1.50000000
   17.65527725  258.55999756    4.90999985    2.09999990
   17.66138840  258.55999756    4.90999985    2.00000000
   17.66555595  191.06199646    4.90999985    2.30999994
   17.66888809  276.92999268    4.90999985    2.66000009
   17.67222214  200.52799988    4.90999985    2.17000008
   17.67527771  553.09899902    4.90999985    1.94000006
   17.67722130  425.39999390    4.90999985    2.09999990
   17.67860985   -1.00000000   -1.00000000   -1.00000000
   17.67888832  553.09899902    4.90999985    1.94000006
   17.67888832   -1.00000000    4.90999985    0.79000002
   17.67888832   -1.00000000    4.90999985    0.89999998
   17.67916679   -1.00000000   -1.00000000   -1.00000000
   17.67916679  231.75900269    4.90999985    1.50000000
   17.67916679  258.55999756    4.90999985    2.09999990
   17.67944336  191.06199646    4.90999985    2.30999994
   17.67944336  276.92999268    4.90999985    2.66000009
   17.67944336  200.52799988    4.90999985    2.17000008
   17.68055534   -1.00000000    4.90999985    1.50000000
   17.68388748  209.03399658    4.90999985    1.48000002
   17.68722153  130.55799866    4.90999985    1.61000001
   17.69027710  327.15798950    4.90999985    1.83000004
   17.69361115   55.63199997    4.90999985    1.51999998
   17.69944382   55.63199997    4.90999985    1.89999998
   17.70361137  229.84300232    4.90999985    1.88000000
   17.70694542   -1.00000000    4.90999985    1.41999996
   17.71000099   -1.00000000    4.90999985    0.98000002
   17.71361160   -1.00000000    4.90999985    0.76999998
   17.71694565   -1.00000000    4.90999985    0.76999998
   17.72027779   -1.00000000    4.90999985    0.89999998
   17.72333336   -1.00000000    4.90999985    1.16999996
   17.72666740   69.16770172    4.90999985    1.38000000
   17.73000145  201.10499573    4.90999985    1.63000000
   17.73305511  255.14999390    4.90999985    1.75000000
   17.73638916  122.51300049    4.90999985    1.75000000
   17.74222183  122.51300049    4.90999985    1.60000002
   17.74638939  358.74798584    4.90999985    1.75000000
   17.74972153  452.94400024    4.90999985    1.91999996
   17.75166702  386.56100464    4.90999985    2.00000000
   17.75305557  326.23001099    4.90999985    2.05999994
   17.75305557   -1.00000000    4.90999985    0.76999998
   17.75333405   -1.00000000    4.90999985    0.89999998
   17.75333405   -1.00000000    4.90999985    1.16999996
   17.75333405   69.16770172    4.90999985    1.38000000
   17.75361061  201.10499573    4.90999985    1.63000000
   17.75361061  255.14999390    4.90999985    1.75000000
   17.75361061  122.51300049    4.90999985    1.75000000
   17.75388908  358.74798584    4.90999985    1.75000000
   17.75388908  452.94400024    4.90999985    1.91999996
   17.75499916  263.59899902    4.90999985    2.26999998
   17.75833321  246.99699402    4.90999985    2.48000002
   17.76138878  198.11500549    4.90999985    2.51999998
   17.76472282  204.68499756    4.90999985    2.61999989
   17.76777840  205.54899597    4.90999985    2.59999990
   17.78805542  108.73899841    4.90999985    2.59999990
   17.78861046  113.09600067    4.90999985    2.50000000
   17.79194450  233.30099487    4.90999985    2.21000004
   17.79527664  362.09500122    4.90999985    2.36999989
   17.79833221  409.08999634    4.90999985    1.78999996
   17.80194283   38.47449875    4.90999985    1.80999994
   17.80194283  263.59899902    4.90999985    2.26999998
   17.80222130  246.99699402    4.90999985    2.48000002
   17.80222130  198.11500549    4.90999985    2.51999998
   17.80222130  204.68499756    4.90999985    2.61999989
   17.80249977  205.54899597    4.90999985    2.59999990
   17.80249977  113.09600067    4.90999985    2.50000000
   17.80249977  233.30099487    4.90999985    2.21000004
   17.80277634  362.09500122    4.90999985    2.36999989
   17.80277634  409.08999634    4.90999985    1.78999996
   17.80444336   76.10209656    4.90999985    1.58000004
   17.80777740   -1.00000000    4.90999985    1.58000004
   17.81083298  114.10500336    4.90999985    1.50000000
   17.81416512  188.13200378    4.90999985    1.75000000
   17.81750107  186.75199890    4.90999985    1.71000004
   17.82277870  186.75199890    4.90999985    1.83000004
   17.82694626  255.07000732    4.90999985    1.98000002
   17.83000183  188.74299622    4.90999985    2.23000002
   17.83333397  202.42199707    4.90999985    2.34999990
   17.83583450  235.07699585    4.90999985    2.39000010
   17.83722305  221.19200134    4.90999985    2.32999992
   17.84027863  218.01499939    4.90999985    2.34999990
   17.84361267  132.07699585    4.90999985    2.34999990
   17.84666824  213.71000671    4.90999985    1.94000006
   17.85000038  275.27200317    4.90999985    1.98000002
   17.85333443  251.61799622    4.90999985    2.07999992
   17.85639000  146.55000305    4.90999985    1.83000004
   17.85972214  253.32600403    4.90999985    1.73000002
   17.86555672  253.32600403    4.90999985    2.50000000
   17.86972237  308.16598511    4.90999985    2.53999996
   17.87305641  207.90800476    4.90999985    2.13000011
   17.87638855  229.22399902    4.90999985    2.01999998
   17.87944412  298.66500854    4.90999985    2.07999992
   17.88277817  256.26199341    4.90999985    2.09999990
   17.88583374  332.70599365    4.90999985    2.30999994
   17.88916588  275.58898926    4.90999985    1.86000001
   17.89249992  229.88999939    4.90999985    2.15000010
   17.89555550  190.71000671    4.90999985    2.05999994
   17.89888954  155.53199768    4.90999985    2.39000010
   17.90222168  178.43299866    4.90999985    2.48000002
   17.90250015  170.50799561    4.90999985    2.53999996
   17.90833282  170.50799561    4.90999985    2.66000009
   17.91250038  163.26300049    4.90999985    2.64000010
   17.91583252  181.37199402    4.90999985    2.66000009
   17.91916656  147.06900024    4.90999985    2.66000009
   17.92222214  168.90499878    4.90999985    2.66000009
   17.92555428  178.49499512    4.90999985    2.66000009
   17.92860985  179.33999634    4.90999985    2.66000009
   17.93194389  148.47900391    4.90999985    2.66000009
   17.93527603  151.92100525    4.90999985    2.66000009
   17.93610954  143.21299744    4.90999985    2.66000009
   17.93888855  157.26699829    4.90999985    2.64000010
   17.94222069  143.78999329    4.90999985    2.64000010
   17.94527626  159.36999512    4.90999985    2.64000010
   17.95138931  159.36999512    4.90999985    2.64000010
   17.95555687  149.73800659    4.90999985    2.55999994
   17.95861244  153.65299988    4.90999985    2.64000010
   17.96194458  142.82699585    4.90999985    2.64000010
   17.96500015  148.72000122    4.90999985    2.66000009
   17.96833420  140.26100159    4.90999985    2.64000010
   17.96944427  138.04499817    4.90999985    2.64000010
   17.97194481  145.92300415    4.90999985    2.64000010
   17.97527885  144.57000732    4.90999985    2.64000010
   17.97833443  140.93899536    4.90999985    2.66000009
   17.98166656  138.84399414    4.90999985    2.57999992
   17.98500061  134.05299377    4.90999985    2.61999989
   17.98805618  161.01499939    4.90999985    2.57999992
   17.99416733  161.01499939    4.90999985    2.57999992
   17.99833298  130.68499756    4.90999985    2.44000006
   18.00138855  168.65199280    4.90999985    2.46000004
   18.00277710  136.85600281    4.90999985    2.39000010
   18.00499916  178.22300720    4.90999985    2.36999989
   18.00833321  169.69299316    4.90999985    2.26999998
   18.01138878  173.39700317    4.90999985    2.28999996
   18.01472282  159.88000488    4.90999985    2.32999992
   18.01805496  150.45199585    4.90999985    2.46000004
   18.02111053  153.27000427    4.90999985    2.53999996
   18.02444458  138.61700439    4.90999985    2.59999990
   18.02777672  132.68800354    4.90999985    2.64000010
   18.03083229  138.81799316    4.90999985    2.66000009
   18.03694344  138.81799316    4.90999985    2.66000009
   18.04111099  139.16400146    4.90999985    2.64000010
   18.04444313  143.38800049    4.90999985    2.64000010
   18.04749870  145.60600281    4.90999985    2.66000009
   18.05083275  152.19099426    4.90999985    2.67000008
   18.05416679  147.94000244    4.90999985    2.66000009
   18.05722237  164.37300110    4.90999985    2.67000008
   18.06055450  164.97500610    4.90999985    2.66000009
   18.06361008  164.62300110    4.90999985    2.66000009
   18.06694603  173.88200378    4.90999985    2.67000008
   18.06944466  157.13600159    4.90999985    2.67000008
   18.07055664  165.22799683    4.90999985    2.66000009
   18.07389069  142.71400452    4.90999985    2.67000008
   18.07972336  142.71400452    4.90999985    2.67000008
   18.08388901  139.50599670    4.90999985    2.71000004
   18.08722305  132.09500122    4.90999985    2.32999992
   18.09055710  195.74699402    4.90999985    2.13000011
   18.09361267  128.45500183    4.90999985    2.26999998
   18.09694481  176.06700134    4.90999985    2.25000000
   18.10000038  205.01100159    4.90999985    2.48000002
   18.10277748  281.34100342    4.90999985    1.89999998
   18.10361099  249.65199280    4.90999985    1.88000000
   18.10694504  180.95300293    4.90999985    2.30999994
   18.11000061  152.56199646    4.90999985    2.34999990
   18.11333466  145.47900391    4.90999985    2.64000010
   18.11666679  141.70799255    4.90999985    2.66000009
   18.12277794  141.70799255    4.90999985    2.57999992
   18.12694550  134.48500061    4.90999985    2.64000010
   18.13000107  139.37100220    4.90999985    2.66000009
   18.13333321  139.78799438    4.90999985    2.64000010
   18.13611031  133.49200439    4.90999985    2.64000010
   18.13694382  136.52699280    4.90999985    2.64000010
   18.14027786  139.56100464    4.90999985    2.64000010
   18.14333344  137.14500427    4.90999985    2.64000010
   18.14666748  141.92199707    4.90999985    2.64000010
   18.14999962  143.22300720    4.90999985    2.64000010
   18.15305519  136.14900208    4.90999985    2.64000010
   18.15638924  137.78700256    4.90999985    2.64000010
   18.15972137  136.16400146    4.90999985    2.61999989
   18.16555595  136.16400146    4.90999985    2.64000010
   18.16972160  146.58299255    4.90999985    2.64000010
   18.17277718  140.04299927    4.90999985    2.64000010
   18.17611122  141.01699829    4.90999985    2.64000010
   18.17944336  135.17700195    4.90999985    2.64000010
   18.18249893  138.20700073    4.90999985    2.64000010
   18.18583298  148.02299500    4.90999985    2.61999989
   18.18916512  141.02900696    4.90999985    2.64000010
   18.19222069  139.32400513    4.90999985    2.64000010
   18.19555473  141.34100342    4.90999985    2.66000009
   18.19861031  135.97599792    4.90999985    2.64000010
   18.20194435  139.56100464    4.90999985    2.64000010
   18.20277786  139.40199280    4.90999985    2.64000010
   18.20833397  139.40199280    4.90999985    2.64000010
   18.21250153  145.11799622    4.90999985    2.64000010
   18.21583366  141.38200378    4.90999985    2.64000010
   18.21888924  134.36799622    4.90999985    2.64000010
   18.22222328  143.00599670    4.90999985    2.64000010
   18.22555542  132.50100708    4.90999985    2.64000010
   18.22861099  140.66299438    4.90999985    2.61999989
   18.23194504  137.94099426    4.90999985    2.64000010
   18.23583412  148.10699463    4.90999985    2.66000009
   18.23638916  135.43499756    4.90999985    2.66000009
   18.23944473  142.59500122    4.90999985    2.64000010
   18.24250031  137.87100220    4.90999985    2.59999990
   18.24583435  152.97000122    4.90999985    2.51999998
   18.25111198  152.97000122    4.90999985    2.57999992
   18.25527763  136.16600037    4.90999985    2.59999990
   18.25861168  137.29200745    4.90999985    2.64000010
   18.26166725  139.55999756    4.90999985    2.66000009
   18.26499939  147.46400452    4.90999985    2.61999989
   18.26833344  139.57200623    4.90999985    2.53999996
   18.26972198  143.39100647    4.90999985    2.57999992
   18.27194405  145.74200439    4.90999985    2.61999989
   18.27499962  143.32600403    4.90999985    2.64000010
   18.27833366  136.49200439    4.90999985    2.64000010
   18.28166580  145.56300354    4.90999985    2.57999992
   18.28472137  146.36999512    4.90999985    2.55999994
   18.28805542  152.80900574    4.90999985    2.53999996
   18.29416656  152.80900574    4.90999985    2.55999994
   18.29805565  138.75399780    4.90999985    2.57999992
   18.30138779  138.32299805    4.90999985    2.59999990
   18.30305481  153.77799988    4.90999985    2.59999990
   18.30527687  152.18099976    4.90999985    2.61999989
   18.30833244  142.02999878    4.90999985    2.64000010
   18.31166649  144.43099976    4.90999985    2.59999990
   18.31499863  141.81500244    4.90999985    2.59999990
   18.31805611  141.11700439    4.90999985    2.61999989
   18.32139015  134.46600342    4.90999985    2.64000010
   18.32472229  147.00999451    4.90999985    2.61999989
   18.32777786  139.04600525    4.90999985    2.61999989
   18.33111191  141.82600403    4.90999985    2.61999989
   18.33694458  141.82600403    4.90999985    2.61999989
   18.34111214  143.30299377    4.90999985    2.64000010
   18.34416771  137.11199951    4.90999985    2.64000010
   18.34749985  142.45100403    4.90999985    2.61999989
   18.35083389  141.32299805    4.90999985    2.61999989
   18.35388947  142.44700623    4.90999985    2.61999989
   18.35722351  145.33299255    4.90999985    2.61999989
   18.36027908  140.59700012    4.90999985    2.64000010
   18.36361122  141.38600159    4.90999985    2.61999989
   18.36694527  140.42199707    4.90999985    2.64000010
   18.36972237  143.47700500    4.90999985    2.61999989
   18.37055588  145.06199646    4.90999985    2.64000010
   18.37361145  141.88699341    4.90999985    2.61999989
   18.37972260  141.88699341    4.90999985    2.61999989
   18.38388824  135.36599731    4.90999985    2.53999996
   18.38722229  150.35699463    4.90999985    2.46000004
   18.39027786  144.08000183    4.90999985    2.55999994
   18.39361191  143.47599792    4.90999985    2.55999994
   18.39666748  154.09300232    4.90999985    2.53999996
   18.39999962  157.68299866    4.90999985    2.57999992
   18.40305519  150.78199768    4.90999985    2.55999994
   18.40388870  155.37199402    4.90999985    2.55999994
   18.40694427  168.56599426    4.90999985    2.48000002
   18.41027832  141.48500061    4.90999985    2.59999990
   18.41361046  160.27999878    4.90999985    2.59999990
   18.41666603  153.57600403    4.90999985    2.55999994
   18.42249870  153.57600403    4.90999985    2.50000000
   18.42666626  146.53100586    4.90999985    2.59999990
   18.43000031  151.79600525    4.90999985    2.61999989
   18.43305397  150.56399536    4.90999985    2.61999989
   18.43638802  155.96699524    4.90999985    2.53999996
   18.43694305  161.84300232    4.90999985    2.55999994
   18.43999863  156.61399841    4.90999985    2.59999990
   18.44333267  153.57600403    4.90999985    2.64000010
   18.44666672  158.90499878    4.90999985    2.61999989
   18.44972038  155.19799805    4.90999985    2.59999990
   18.45305634  149.41099548    4.90999985    2.59999990
   18.45611191  159.52799988    4.90999985    2.61999989
   18.45944595  142.20599365    4.90999985    2.61999989
   18.46555710  142.20599365    4.90999985    2.61999989
   18.46944427  151.89700317    4.90999985    2.61999989
   18.47000122  159.61599731    4.90999985    2.61999989
   18.47333336  154.56399536    4.90999985    2.61999989
   18.47666740  158.14900208    4.90999985    2.61999989
   18.47972298  154.73100281    0.95999998    2.57999992
   18.48305511  155.93200684    0.51999998    2.75000000
   18.48638916  144.45700073    0.11000000    0.47999999
   18.48944473  157.20399475    0.07000000    0.25000000
   18.49277878  154.11700439    0.05000000    0.03000000
   18.49583435  143.08700562    0.05000000    0.03000000
   18.49916649  151.30499268    0.05000000    0.03000000
   18.50250053  147.20500183    0.05000000    0.03000000
   18.50333405  143.32499695    0.05000000    0.03000000
   18.50833321  143.32499695    0.05000000    0.03000000
   18.51250076  147.91999817    0.05000000    0.03000000
   18.51555634  143.23800659    0.05000000    0.03000000
   18.51888847  157.53500366    0.05000000    0.03000000
   18.52222252  156.00199890    0.05000000    0.03000000
   18.52527809  146.18699646    0.05000000    0.03000000
   18.52861023  149.29499817    0.05000000    0.03000000
   18.53194427  154.85899353    0.05000000    0.03000000
   18.53499985  146.85699463    0.05000000    0.03000000
   18.53694344  151.71600342    0.05000000    0.03000000
   18.53861046  147.62399292    0.05000000    0.03000000
   18.54194450  163.88600159    0.05000000    0.03000000
   18.54527664  148.72000122    0.05000000    0.03000000
   18.55111122  148.72000122    0.05000000    0.03000000
   18.55527687  149.02499390    0.05000000    0.03000000
   18.55861092  149.37399292    0.05000000    0.03000000
   18.56166649  147.88800049    0.05000000    0.03000000
   18.56499863  148.46499634    0.05000000    0.03000000
   18.56833458  154.74499512    0.05000000    0.03000000
   18.57027817  148.19099426    0.05000000    0.03000000
   18.57194519  142.78799438    0.05000000    0.03000000
   18.57527924  147.44500732    0.05000000    0.03000000
   18.57861137  146.07699585    0.05000000    0.03000000
   18.58166695  152.55700684    0.05000000    0.03000000
   18.58500099  145.88299561    0.05000000    0.03000000
   18.58805656  147.49000549    0.05000000    0.03000000
   18.59388924  147.49000549    0.05000000    0.03000000
   18.59805679  155.33099365    0.05000000    0.03000000
   18.60138893  152.51899719    0.05000000    0.03000000
   18.60361099  166.38099670    0.05000000    0.03000000
   18.60499954  138.67399597    0.05000000    0.03000000
   18.60833359  151.53100586    0.05000000    0.03000000
   18.61166763  155.84300232    0.05000000    0.03000000
   18.61472321  154.24200439    0.05000000    0.03000000
   18.61805534  154.62699890    0.05000000    0.03000000
   18.62111092  148.71600342    0.05000000    0.03000000
   18.62444496  150.47099304    0.05000000    0.03000000
   18.62777710  154.21600342    0.05000000    0.03000000
   18.63083267  152.19999695    0.05000000    0.03000000
   18.63694382  152.19999695    0.05000000    0.03000000
   18.64111137  149.80000305    0.05000000    0.03000000
   18.64416695  158.85699463    0.05000000    0.03000000
   18.64749908  160.01499939    0.05000000    0.03000000
   18.65055466  150.28199768    0.05000000    0.03000000
   18.65388870  150.22799683    0.05000000    0.03000000
   18.65722275  151.46800232    0.05000000    0.03000000
   18.66027832  149.53900146    0.05000000    0.03000000
   18.66361046  154.58599854    0.05000000    0.03000000
   18.66694450  157.46299744    0.05000000    0.03000000
   18.67000008  149.46800232    0.05000000    0.03000000
   18.67055511  146.99499512    0.05000000    0.03000000
   18.67388916  147.70700073    0.05000000    0.03000000
   18.67972183  147.70700073    0.05000000    0.03000000
   18.68388748  152.78599548    0.05000000    0.03000000
   18.68694305  147.57899475    0.05000000    0.03000000
   18.69027710  146.72099304    0.05000000    0.03000000
   18.69361115  148.31799316    0.05000000    0.03000000
   18.69666672  161.20799255    0.05000000    0.03000000
   18.70000076  146.71600342    0.05000000    0.03000000
   18.70305634  152.87899780    0.05000000    0.03000000
   18.70388985  144.57699585    0.05000000    0.03000000
   18.70694542  147.15699768    0.05000000    0.03000000
   18.71000099  148.61999512    0.05000000    0.03000000
   18.71333504  151.97599792    0.05000000    0.03000000
   18.71666718  150.28999329    0.05000000    0.03000000
   18.72249985  150.28999329    0.05000000    0.03000000
   18.72666740  151.96800232    0.05000000    0.03000000
   18.73000145  142.35299683    0.05000000    0.03000000
   18.73305511  146.88299561    0.05000000    0.03000000
   18.73638916  144.29600525    0.05000000    0.03000000
