    HOUR (UT)   FLARE FACTOR    SKY TESTER    SUN TESTER
   13.45305538   -1.00000000   -1.00000000   -1.00000000
   13.47638798  196.34100342    0.00000000    0.00000000
   13.47972202  181.78199768    0.00000000    0.00000000
   13.48305511  178.49299622    0.00000000    0.00000000
   13.48611164  195.18899536    0.00000000    0.00000000
   13.48944473  119.12400055    0.00000000    0.00000000
   13.49250031  190.98399353    0.00000000    0.00000000
   13.49666691  190.98399353    0.00000000    0.00000000
   13.50083351  134.78100586    0.00000000    0.00000000
   13.50416660  195.71000671    0.00000000    0.00000000
   13.50749969  194.04100037    0.00000000    0.00000000
   13.50944424  193.67900085    0.00000000    0.00000000
   13.51111126  157.10800171    0.00000000    0.00000000
   13.51416683  255.57000732    0.00000000    0.00000000
   13.51749992  184.50000000    0.00000000    0.00000000
   13.52083302  171.42500305    0.00000000    0.00000000
   13.52388859  179.22500610    0.00000000    0.00000000
   13.52722168  169.30599976    0.00000000    0.00000000
   13.53055573  172.87699890    0.00000000    0.00000000
   13.53361130  170.00799561    0.00000000    0.00000000
   13.53972244  170.00799561    0.00000000    0.00000000
   13.54388905  174.79200745    0.00000000    0.00000000
   13.54694462  174.74499512    0.00000000    0.00000000
   13.55027771  165.04600525    0.00000000    0.00000000
   13.55333328  171.34599304    0.00000000    0.00000000
   13.55666733  171.77799988    0.00000000    0.00000000
   13.56000042  164.58200073    0.00000000    0.00000000
   13.56333351  174.03300476    0.00000000    0.00000000
   13.56638908  170.81399536    0.00000000    0.00000000
   13.56972218  183.81900024    0.00000000    0.00000000
   13.57305527  175.01400757    0.00000000    0.00000000
   13.57611084  171.19000244    0.00000000    0.00000000
   13.57666683  179.34800720    0.00000000    0.00000000
   13.58249950  179.34800720    0.00000000    0.00000000
   13.58666611  164.26300049    0.00000000    0.00000000
   13.58972168  168.71400452    0.00000000    0.00000000
   13.59305477  172.66600037    0.00000000    0.00000000
   13.59638882  164.48399353    0.00000000    0.00000000
   13.59944439  179.05299377    0.00000000    0.00000000
   13.60277843  166.90800476    0.00000000    0.00000000
   13.60611153  165.03100586    0.00000000    0.00000000
   13.60916710  172.31700134    0.00000000    0.00000000
   13.60972214  165.51499939    0.00000000    0.00000000
   13.61305618  155.09100342    0.00000000    0.00000000
   13.61611176  242.83399963    0.00000000    0.00000000
   13.61944485  156.36099243    0.00000000    0.00000000
   13.62527752  156.36099243    0.00000000    0.00000000
   13.62944412  155.16200256    0.00000000    0.00000000
   13.63277817  129.00199890    0.00000000    0.00000000
   13.63583279  250.64500427    0.00000000    0.00000000
   13.63916683  155.67700195    0.00000000    0.00000000
   13.64222240  195.99400330    0.00000000    0.00000000
   13.64305496  429.01501465    0.00000000    0.00000000
   13.64611053  151.91999817    0.00000000    0.00000000
   13.64916611  146.33500671    0.00000000    0.00000000
   13.65249920  157.78500366    0.00000000    0.00000000
   13.65583324  184.58999634    0.00000000    0.00000000
   13.65888882   -1.00000000    0.00000000    0.00000000
   13.66222191  209.88999939    0.00000000    0.00000000
   13.66805553  209.88999939    0.00000000    0.00000000
   13.67222214  150.62899780    0.00000000    0.00000000
   13.67555618  146.89199829    0.00000000    0.00000000
   13.67638874  150.71800232    0.00000000    0.00000000
   13.67916679  167.52299500    0.00000000    0.00000000
   13.68222237  111.96199799    0.00000000    0.00000000
   13.68555546  161.90100098    0.00000000    0.00000000
   13.68888855  175.16000366    0.00000000    0.00000000
   13.69194412  158.13299561    0.00000000    0.00000000
   13.69527817  163.80400085    0.00000000    0.00000000
   13.69861126  167.72300720    0.00000000    0.00000000
   13.70166683  162.23500061    0.00000000    0.00000000
   13.70499992  157.21699524    0.00000000    0.00000000
   13.71111107  157.21699524    0.00000000    0.00000000
   13.71500015  155.21400452    0.00000000    0.00000000
   13.71833324  160.59300232    0.00000000    0.00000000
   13.72166634  163.86700439    0.00000000    0.00000000
   13.72499943  155.38499451    0.00000000    0.00000000
   13.72805500   -1.00000000    0.00000000    0.00000000
   13.73138809  215.32899475    0.00000000    0.00000000
   13.73444462  158.38499451    0.00000000    0.00000000
   13.73777771  150.35899353    0.00000000    0.00000000
   13.74111176  154.27000427    0.00000000    0.00000000
   13.74305534  152.77000427    0.00000000    0.00000000
   13.74472237   -1.00000000    0.00000000    0.00000000
   13.74777794  146.14100647    0.00000000    0.00000000
   13.75388908  146.14100647    0.00000000    0.00000000
   13.75805569  148.00799561    0.00000000    0.00000000
   13.76111126  144.07899475    0.00000000    0.00000000
   13.76444435  145.11000061    0.00000000    0.00000000
   13.76777744  150.19000244    0.00000000    0.00000000
   13.77083302  152.59700012    0.00000000    0.00000000
   13.77416611  150.84100342    0.00000000    0.00000000
   13.77638817  152.47999573    0.00000000    0.00000000
   13.77777767  156.72099304    0.00000000    0.00000000
   13.78083324  146.64199829    0.00000000    0.00000000
   13.78416729  143.43899536    0.00000000    0.00000000
   13.78750038  147.28900146    0.00000000    0.00000000
   13.79055595  145.03300476    0.00000000    0.00000000
   13.79666710  145.03300476    0.00000000    0.00000000
   13.80083370  154.52900696    0.00000000    0.00000000
   13.80416679  145.72599792    0.00000000    0.00000000
   13.80722237  151.23199463    0.00000000    0.00000000
   13.80972195  142.85299683    0.00000000    0.00000000
   13.81083393  144.10699463    0.00000000    0.00000000
   13.81388950  145.00100708    0.00000000    0.00000000
   13.81722260  145.47799683    0.00000000    0.00000000
   13.82055569  155.44700623    0.00000000    0.00000000
   13.82361126  154.01600647    0.00000000    0.00000000
   13.82694435  152.50300598    0.00000000    0.00000000
   13.83027744  151.70700073    0.00000000    0.00000000
   13.83333302  149.94099426    0.00000000    0.00000000
   13.83944416  149.94099426    0.00000000    0.00000000
   13.84361076  164.72300720    0.00000000    0.00000000
   13.84694386  168.09899902    0.00000000    0.00000000
   13.85000038  169.21899414    0.00000000    0.00000000
   13.85333347  152.32400513    0.00000000    0.00000000
   13.85666752  162.92100525    0.00000000    0.00000000
   13.85972214  166.05299377    0.00000000    0.00000000
   13.86305618  154.65100098    0.00000000    0.00000000
   13.86638927  160.80499268    0.00000000    0.00000000
   13.86944485  162.69700623    0.00000000    0.00000000
   13.87277794  159.25500488    0.00000000    0.00000000
   13.87583351  171.28199768    0.00000000    0.00000000
   13.87638855  130.67300415    0.00000000    0.00000000
   13.88249969  130.67300415    0.00000000    0.00000000
   13.88638878  159.92199707    0.00000000    0.00000000
   13.88972187  142.18600464    0.00000000    0.00000000
   13.89305496  152.66700745    0.00000000    0.00000000
   13.89611053  197.08399963    0.00000000    0.00000000
   13.89944458  309.62899780    0.00000000    0.00000000
   13.90277767  153.66000366    0.00000000    0.00000000
   13.90583324  162.75799561    0.00000000    0.00000000
   13.90916634  157.73399353    0.00000000    0.00000000
   13.90972137  152.68899536    0.00000000    0.00000000
   13.91277695  161.88099670    0.00000000    0.00000000
   13.91611099  149.63200378    0.00000000    0.00000000
   13.91916656  204.86399841    0.00000000    0.00000000
   13.92527771  204.86399841    0.00000000    0.00000000
   13.92944431  159.08099365    0.00000000    0.00000000
   13.93249989  177.00799561    0.00000000    0.00000000
   13.93583298  162.91299438    0.00000000    0.00000000
   13.93916702  183.76699829    0.00000000    0.00000000
   13.94222260  159.86599731    0.00000000    0.00000000
   13.94305515  169.10400391    0.00000000    0.00000000
   13.94583321  166.70300293    0.00000000    0.00000000
   13.94916630  172.16200256    0.00000000    0.00000000
   13.95222187  168.20300293    0.00000000    0.00000000
   13.95555496  183.61099243    0.00000000    0.00000000
   13.95888901  169.70100403    0.00000000    0.00000000
   13.96194458  164.95700073    0.00000000    0.00000000
   13.96805477  164.95700073    0.00000000    0.00000000
   13.97222137  166.02400208    0.00000000    0.00000000
   13.97555542  173.64999390    0.00000000    0.00000000
   13.97638798  183.47500610    0.00000000    0.00000000
   13.97916603  175.50599670    0.00000000    0.00000000
   13.98249912  188.84800720    0.00000000    0.00000000
   13.98555565  175.43699646    0.00000000    0.00000000
   13.98888874  166.96200562    0.00000000    0.00000000
   13.99222279  166.24600220    0.00000000    0.00000000
   13.99527836  171.49800110    0.00000000    0.00000000
   13.99861145  181.59199524    0.00000000    0.00000000
   14.00166702  148.83099365    0.00000000    0.00000000
   14.00500011  179.89999390    0.00000000    0.00000000
   14.01083374  179.89999390    0.00000000    0.00000000
   14.01500034  159.20700073    0.00000000    0.00000000
   14.01833344  155.73199463    0.00000000    0.00000000
   14.02138901  155.46000671    0.00000000    0.00000000
   14.02472210  144.72200012    0.00000000    0.00000000
   14.02805519  159.75000000    0.00000000    0.00000000
   14.03111076  139.07299805    0.00000000    0.00000000
   14.03444481  143.46099854    0.00000000    0.00000000
   14.03777790  161.07699585    0.00000000    0.00000000
   14.04083347  144.41099548    0.00000000    0.00000000
   14.04305553  154.35699463    0.00000000    0.00000000
   14.04444504  150.00000000    0.00000000    0.00000000
   14.04777813  156.19200134    0.00000000    0.00000000
   14.05388927  156.19200134    0.00000000    0.00000000
   14.05777836  149.56900024    0.00000000    0.00000000
   14.06111145  147.16299438    0.00000000    0.00000000
   14.06444454  158.27699280    0.00000000    0.00000000
   14.06750011  147.24600220    0.00000000    0.00000000
   14.07083321  158.18200684    0.00000000    0.00000000
   14.07416630  156.00300598    0.00000000    0.00000000
   14.07638836  159.44999695    0.00000000    0.00000000
   14.07777786  152.68800354    0.00000000    0.00000000
   14.08111095  149.10000610    0.00000000    0.00000000
   14.08416653  152.33099365    0.00000000    0.00000000
   14.08749962  157.89599609    0.00000000    0.00000000
   14.09083271  153.23699951    0.00000000    0.00000000
   14.09666634  153.23699951    0.00000000    0.00000000
   14.10083389  151.34899902    0.00000000    0.00000000
   14.10388947  145.98800659    0.00000000    0.00000000
   14.10722256  144.12199402    0.00000000    0.00000000
   14.10972214  152.57299805    0.00000000    0.00000000
   14.11083412  143.14799500    0.00000000    0.00000000
   14.11416721  161.12199402    0.00000000    0.00000000
   14.11722279  150.80000305    0.00000000    0.00000000
   14.12055588  137.93800354    0.00000000    0.00000000
   14.12388897  154.71200562    0.00000000    0.00000000
   14.12694454  148.39100647    0.00000000    0.00000000
   14.13027763  144.74299622    0.00000000    0.00000000
   14.13333321  151.73399353    0.00000000    0.00000000
   14.13944435  151.73399353    0.00000000    0.00000000
   14.14361095  156.03199768    0.00000000    0.00000000
   14.14694405  152.25599670    1.13000000    2.42000008
   14.14999962  151.79699707    1.13000000    2.42000008
   14.15333271  155.50300598    1.13000000    2.42000008
   14.15666676  150.82299805    1.13000000    2.42000008
   14.15972137  149.31799316    1.13000000    2.42000008
   14.16305542  148.35800171    1.13000000    2.42000008
   14.16611099  153.09599304    1.13000000    2.42000008
   14.16944504  146.31700134    1.13000000    2.42000008
   14.17277813  145.41799927    1.13000000    2.42000008
   14.17583370  148.30599976    1.13000000    2.42000008
   14.17666721  144.37800598    1.13000000    2.42000008
   14.18222237  144.37800598    1.13000000    2.42000008
   14.18638897  155.68099976    1.13000000    2.42000008
   14.18972206  149.23800659    1.13000000    2.42000008
   14.19305515  162.07499695    1.13000000    2.42000008
   14.19611073  167.19299316    1.13000000    2.42000008
   14.19944477  158.31599426    1.13000000    2.42000008
   14.20249939  165.44099426    1.13000000    2.42000008
   14.20583344  158.23300171    1.13000000    2.42000008
   14.20916653  166.19599915    1.13000000    2.42000008
   14.21000004  164.22099304    1.13000000    2.42000008
   14.21277714  159.01800537    1.13000000    2.42000008
   14.21611118  147.03799438    1.13000000    2.42000008
   14.21916580  147.66799927    1.13000000    2.42000008
   14.22527695  147.66799927    1.13000000    2.42000008
   14.22916603  144.87100220    1.13000000    2.42000008
   14.23249912  141.72399902    1.13000000    2.42000008
   14.23583317  140.48599243    1.13000000    2.42000008
   14.23888874  144.33599854    1.13000000    2.42000008
   14.24222279  148.01100159    1.13000000    2.42000008
   14.24333382  147.60499573    1.13000000    2.42000008
   14.24583340  142.79600525    1.13000000    2.42000008
   14.24916649  152.64799500    1.13000000    2.42000008
   14.25222206  145.45199585    1.13000000    2.42000008
   14.25555515  141.34500122    1.13000000    2.42000008
   14.25888920  143.36599731    1.13000000    2.42000008
   14.26194477  137.13699341    1.13000000    2.42000008
   14.26805496  137.13699341    1.13000000    2.42000008
   14.27222157  141.35499573    1.13000000    2.42000008
   14.27527714  142.98199463    1.13000000    2.42000008
   14.27666664  140.42599487    1.13000000    2.42000008
   14.27888870  182.16499329    1.13000000    2.42000008
   14.28222179  132.08599854    1.13000000    2.42000008
   14.28527832  129.84199524    1.13000000    2.42000008
   14.28861141  131.77600098    1.13000000    2.42000008
   14.29194450  143.93499756    1.13000000    2.42000008
   14.29500008  146.99699402    1.13000000    2.42000008
   14.29833412  135.26300049    1.13000000    2.42000008
   14.30166721  132.83200073    1.13000000    2.42000008
   14.30472279  139.07499695    1.13000000    2.42000008
   14.31083393  139.07499695    1.13000000    2.42000008
   14.31500053  135.57099915    1.13000000    2.42000008
   14.31833363  134.16000366    1.13000000    2.42000008
   14.32138920  131.15699768    1.13000000    2.42000008
   14.32472229  137.46099854    1.13000000    2.42000008
   14.32805538  140.55400085    1.13000000    2.42000008
   14.33111095  139.34599304    1.13000000    2.42000008
   14.33444405  159.63299561    1.13000000    2.42000008
   14.33777714  141.27200317    1.13000000    2.42000008
   14.34083271  156.16499329    1.13000000    2.42000008
   14.34333324  150.11199951    1.13000000    2.42000008
   14.34444427  146.00700378    1.13000000    2.42000008
   14.34777737  143.77099609    1.13000000    2.42000008
   14.35361195  143.77099609    1.13000000    2.42000008
   14.35777855  143.77099609    1.13000000    2.42000008
   14.36111164  136.04499817    1.13000000    2.42000008
   14.36416721  137.36700439    1.13000000    2.42000008
   14.36750031  146.38699341    1.13000000    2.42000008
   14.37083340  142.17999268    1.13000000    2.42000008
   14.37388897  140.77099609    1.13000000    2.42000008
   14.37666702  142.40100098    1.13000000    2.42000008
   14.37750053  138.25799561    1.13000000    2.42000008
   14.38083363  146.97500610    1.13000000    2.42000008
   14.38416672  146.48899841    1.13000000    2.42000008
   14.38722229  139.71400452    1.13000000    2.42000008
   14.39055538  141.97300720    1.13000000    2.42000008
   14.39666653  141.97300720    1.13000000    2.42000008
   14.40055561  148.38499451    1.13000000    2.42000008
   14.40388870  140.15400696    1.13000000    2.42000008
   14.40722179  167.95899963    1.13000000    2.42000008
   14.40999985  151.02900696    1.13000000    2.42000008
   14.41083336  152.68899536    1.13000000    2.42000008
   14.41416645  153.11300659    1.13000000    2.42000008
   14.41750050  143.75900269    1.13000000    2.42000008
   14.42055607  143.47900391    1.13000000    2.42000008
   14.42388916  151.43699646    1.13000000    2.42000008
   14.42694473  152.08900452    1.13000000    2.42000008
   14.43027782  154.16200256    1.13000000    2.42000008
   14.43361092  151.27099609    1.13000000    2.42000008
   14.43944454  151.27099609    1.13000000    2.42000008
   14.44361115  137.15699768    1.13000000    2.42000008
   14.44666672  163.94599915    1.13000000    2.42000008
   14.44999981  151.75300598    1.13000000    2.42000008
   14.45333290  153.54299927    1.13000000    2.42000008
   14.45638847  151.79600525    1.13000000    2.42000008
   14.45972157  152.26499939    1.13000000    2.42000008
   14.46277714  169.97099304    1.13000000    2.42000008
   14.46611118  168.73699951    1.13000000    2.42000008
   14.46944427  162.48699951    1.13000000    2.42000008
   14.47249985  188.65299988    1.13000000    2.42000008
   14.47583294   -1.00000000    1.13000000    2.42000008
   14.49722290   -1.00000000    1.13000000    2.42000008
   14.50138855  139.26400757    1.13000000    2.42000008
   14.50444412  146.55400085    1.13000000    2.42000008
   14.50777817  147.93499756    1.13000000    2.42000008
   14.51000023  146.69700623    1.13000000    2.42000008
   14.51138878  148.50000000    1.13000000    2.42000008
   14.51472187  152.04600525    1.13000000    2.42000008
   14.51805496  140.14500427    1.13000000    2.42000008
   14.52111053  136.72700500    1.13000000    2.42000008
   14.52444458  143.32099915    1.13000000    2.42000008
   14.52750015  146.15699768    1.13000000    2.42000008
   14.53083324  145.20100403    1.13000000    2.42000008
   14.53416729  143.47799683    1.13000000    2.42000008
   14.54000092  143.47799683    1.13000000    2.42000008
   14.54416752  135.06599426    1.13000000    2.42000008
   14.54722309  138.29899597    1.13000000    2.42000008
   14.55055618  142.30799866    1.13000000    2.42000008
   14.55388927  135.73300171    1.13000000    2.42000008
   14.55694485  145.07200623    1.13000000    2.42000008
   14.56027794  141.65100098    1.13000000    2.42000008
   14.56333351  145.30599976    1.13000000    2.42000008
   14.56666660  147.44900513    1.13000000    2.42000008
   14.56999969  136.63299561    1.13000000    2.42000008
   14.57305527  143.39900208    1.13000000    2.42000008
   14.57638836  132.25799561    1.13000000    2.42000008
   14.57694435  130.67999268    1.13000000    2.42000008
   14.58277798  130.67999268    1.13000000    2.42000008
   14.58749962  135.55900574    0.00000000    0.00000000
   14.59138870  137.44700623    0.00000000    0.00000000
   14.59527779  137.94599915    0.00000000    0.00000000
   14.59916592  138.10099792    0.00000000    0.00000000
   14.60305595  135.99899292    0.00000000    0.00000000
   14.60694504  138.50999451    0.00000000    0.00000000
   14.61083412  136.60099792    0.00000000    0.00000000
   14.61111164  134.14100647    0.00000000    0.00000000
   14.61500072  137.91200256    0.00000000    0.00000000
   14.61888885  136.01300049    0.00000000    0.00000000
   14.62638855  136.01300049    0.00000000    0.00000000
   14.63027763  140.42399597    0.05000000    0.07000000
   14.63361073  135.77200317    0.05000000    0.07000000
   14.63694477  134.16600037    0.05000000    0.07000000
   14.64000034  135.84300232    0.05000000    0.07000000
   14.64333344  133.95300293    0.05000000    0.07000000
   14.64444447  134.57699585    0.05000000    0.07000000
   14.64694405  133.85299683    0.05000000    0.07000000
   14.65027714  132.55099487    0.05000000    0.07000000
   14.65333271  132.32299805    0.05000000    0.07000000
   14.65666676  131.83099365    0.05000000    0.07000000
   14.65999985  135.23100281    0.05000000    0.07000000
   14.66305542  134.05099487    0.05000000    0.07000000
   14.66861153  134.05099487    0.05000000    0.07000000
   14.67250061  129.49299622    0.05000000    0.07000000
   14.67583370  133.24800110    0.05000000    0.07000000
   14.67777824  134.24200439    0.05000000    0.07000000
   14.67944431  136.05200195    0.05000000    0.07000000
   14.68277836  137.88499451    0.05000000    0.07000000
   14.68583298  134.20199585    0.05000000    0.07000000
   14.68916702  133.93800354    0.05000000    0.07000000
   14.69250011  134.52999878    0.05000000    0.07000000
   14.69555569  137.87100220    0.05000000    0.07000000
   14.69888878  136.13800049    0.05000000    0.07000000
   14.70222187  133.67799377    0.05000000    0.07000000
   14.70583344  140.35200500    0.05000000    0.07000000
   14.71138859  140.35200500    0.05000000    0.07000000
   14.71555519  134.30400085    0.05000000    0.07000000
   14.71861076  138.92799377    0.05000000    0.07000000
   14.72194386  138.08399963    0.05000000    0.07000000
   14.72527695  139.02400208    0.05000000    0.07000000
   14.72833252  151.80999756    0.05000000    0.07000000
   14.73166656  145.25700378    0.05000000    0.07000000
   14.73472214  147.44700623    0.05000000    0.07000000
   14.73805618  146.12800598    0.05000000    0.07000000
   14.74138927  148.30700684    0.05000000    0.07000000
   14.74444485  140.79699707    0.05000000    0.07000000
   14.74499989  146.57299805    0.05000000    0.07000000
   14.74833393  149.91499329    0.05000000    0.07000000
   14.75416660  149.91499329    0.05000000    0.07000000
   14.75833321  144.90699768    0.05000000    0.07000000
   14.76166630  153.41000366    0.05000000    0.07000000
   14.76472187  150.10899353    0.05000000    0.07000000
   14.76805496  145.80700684    0.05000000    0.07000000
   14.77111053  146.09599304    0.05000000    0.07000000
   14.77444458  153.12699890    0.05000000    0.07000000
   14.77777767  148.42700195    0.05000000    0.07000000
   14.77833271  147.66499329    0.05000000    0.07000000
   14.78138828  158.80599976    0.05000000    0.07000000
   14.78472233  154.50599670    0.05000000    0.07000000
   14.78805637  155.23100281    0.05000000    0.07000000
   14.79111195  150.61799622    0.05000000    0.07000000
   14.79694462  150.61799622    0.05000000    0.07000000
   14.80111122  141.69799805    0.05000000    0.07000000
   14.80444431  148.69500732    0.05000000    0.07000000
   14.80749989  143.16900635    0.05000000    0.07000000
   14.81083393  155.10499573    0.05000000    0.07000000
   14.81166649  147.47000122    0.05000000    0.07000000
   14.81444454  143.24000549    0.05000000    0.07000000
   14.81777763  138.68699646    0.05000000    0.07000000
   14.82111073  138.11999512    0.05000000    0.07000000
   14.82416630  135.65299988    0.05000000    0.07000000
   14.82750034  138.73899841    0.05000000    0.07000000
   14.83055592  133.44200134    0.05000000    0.07000000
   14.83388901  135.22999573    0.05000000    0.07000000
   14.83972168  135.22999573    0.05000000    0.07000000
   14.84388828  139.80999756    0.05000000    0.07000000
   14.84499931  136.46899414    0.05000000    0.07000000
   14.84749985  136.28799438    0.05000000    0.07000000
   14.85083389  133.76899719    0.05000000    0.07000000
   14.85416698  136.51699829    0.05000000    0.07000000
   14.85722256  132.55299377    0.05000000    0.07000000
   14.86055565  131.41200256    0.05000000    0.07000000
   14.86361122  140.03100586    0.05000000    0.07000000
   14.86694431  141.37199402    0.05000000    0.07000000
   14.87027836  133.35699463    0.05000000    0.07000000
   14.87333393  139.36099243    0.05000000    0.07000000
   14.87666702  138.23500061    0.05000000    0.07000000
   14.87833309  140.25900269    0.05000000    0.07000000
   14.88277817  140.25900269    0.05000000    0.07000000
   14.88694477  132.53399658    0.05000000    0.07000000
   14.89000034  147.49600220    0.05000000    0.07000000
   14.89333344  135.63499451    0.05000000    0.07000000
   14.89666653  148.39199829    0.05000000    0.07000000
   14.89972210  139.07000732    0.05000000    0.07000000
   14.90305519  139.74299622    0.05000000    0.07000000
   14.90611076  156.87300110    0.05000000    0.07000000
   14.90944386  133.58599854    0.05000000    0.07000000
   14.91166592  135.96099854    0.05000000    0.07000000
   14.91305542  144.04499817    0.05000000    0.07000000
   14.91638851  141.99099731    0.05000000    0.07000000
   14.91972256  146.83299255    0.05000000    0.07000000
   14.92555618  146.83299255    0.05000000    0.07000000
   14.92972279  140.22700500    0.05000000    0.07000000
   14.93305588  141.50900269    0.05000000    0.07000000
   14.93611145  135.27000427    0.05000000    0.07000000
   14.93944454  151.61300659    0.05000000    0.07000000
   14.94250011  146.14300537    0.05000000    0.07000000
   14.94499969  154.18400574    0.05000000    0.07000000
   14.94611073  158.31599426    0.05000000    0.07000000
   14.94944477  167.66400146    0.05000000    0.07000000
   14.95277786  158.60200500    0.05000000    0.07000000
   14.95583344  148.17100525    0.05000000    0.07000000
   14.95916653  162.52499390    0.05000000    0.07000000
   14.96222210  151.66799927    0.05000000    0.07000000
   14.96833324  151.66799927    0.05000000    0.07000000
   14.97249985  158.89900208    0.05000000    0.07000000
   14.97583294  163.70700073    0.05000000    0.07000000
   14.97833252  170.29899597    0.05000000    0.07000000
   14.97944355  163.17599487    0.05000000    0.07000000
   14.98277760  170.02099609    0.05000000    0.07000000
   14.98611164  169.79499817    0.05000000    0.07000000
   14.98916721  171.57600403    0.05000000    0.07000000
   14.99250031  179.55700684    0.05000000    0.07000000
   14.99555588  175.18800354    0.05000000    0.07000000
   14.99888897  181.84800720    0.05000000    0.07000000
   15.00222206  184.16000366    0.05000000    0.07000000
   15.00527763  178.36399841    0.05000000    0.07000000
   15.01111126  178.36399841    0.05000000    0.07000000
   15.01527786  184.25500488    0.05000000    0.07000000
   15.01861095  178.76699829    0.05000000    0.07000000
   15.02194405  180.56799316    0.05000000    0.07000000
   15.02499962  189.79699707    0.05000000    0.07000000
   15.02833271  190.01199341    0.05000000    0.07000000
   15.03138828  209.48399353    0.05000000    0.07000000
   15.03472233  189.01899719    0.05000000    0.07000000
   15.03805637  199.64599609    0.05000000    0.07000000
   15.04111195  211.29400635    0.05000000    0.07000000
   15.04444504  211.33900452    0.05000000    0.07000000
   15.04638958  208.28799438    0.05000000    0.07000000
   15.04805565  200.10400391    0.05000000    0.07000000
   15.05416679  200.10400391    0.05000000    0.07000000
   15.05833340  207.09199524    0.05000000    0.07000000
   15.06138897  201.95500183    0.05000000    0.07000000
   15.06472206  201.53500366    0.05000000    0.07000000
   15.06805515  213.67300415    0.05000000    0.07000000
   15.07111073  211.16299438    0.05000000    0.07000000
   15.07444477  207.00000000    0.05000000    0.07000000
   15.07750034  214.04299927    0.05000000    0.07000000
   15.07972240  212.02699280    0.05000000    0.07000000
   15.08111095  215.71099854    0.05000000    0.07000000
   15.08444405  208.91900635    0.05000000    0.07000000
   15.19194412   -1.00000000   -1.00000000   -1.00000000
   15.30472279   -1.00000000   -1.00000000   -1.00000000
   15.42222214   -1.00000000   -1.00000000   -1.00000000
   15.45111084  215.13099670    0.92000002    2.51999998
   15.45444393  222.43400574    0.88000000    2.51999998
   15.45749950  218.60899353    1.07000005    2.51999998
   15.46083355  219.48399353    1.00000000    2.50000000
   15.46416664  213.97700500    1.03999996    2.51999998
   15.46722221  218.70799255    1.03999996    2.51999998
   15.47138882  218.70799255    0.95999998    2.51999998
   15.47555542  215.66400146    0.92000002    2.51999998
   15.47888851  249.63299561    0.95999998    2.51999998
   15.48194408  254.28199768    1.00000000    2.51999998
   15.48444462  236.69299316    0.95999998    2.51999998
   15.48583317  244.99899292    0.95999998    2.51999998
   15.48916721  250.15100098    1.01999998    2.51999998
   15.49222279  253.86900330    1.23000002    2.51999998
   15.49555588  250.44500732    1.23000002    2.51999998
   15.49861145  254.02699280    1.21000004    2.51999998
   15.50194454  252.14799500    1.07000005    2.51999998
   15.50527763  282.73098755    0.94000000    2.51999998
   15.50833321  264.80200195    0.88000000    2.51999998
   15.51444435  264.80200195    0.88000000    2.51999998
   15.51833344  347.49899292    0.88000000    2.51999998
   15.52166653  286.22198486    0.88000000    2.51999998
   15.52499962  322.64801025    0.75000000    2.51999998
   15.52805519  321.21200562    0.80000001    2.51999998
   15.53138828  339.68399048    0.76999998    2.51999998
   15.53472233  336.78900146    0.81999999    2.51999998
   15.53777790  331.95800781    0.79000002    2.51999998
   15.54111195  297.50100708    0.76999998    2.51999998
   15.54444504  304.62899780    0.76999998    2.51999998
   15.54777813  286.82101440    0.64999998    2.51999998
   15.55083370  298.94198608    0.64999998    2.51999998
   15.55138874  318.48300171    0.64999998    2.51999998
   15.55722237  318.48300171    0.63000000    2.51999998
   15.56138897  274.72198486    0.69000000    2.51999998
   15.56444454  284.47799683    0.69000000    2.53999996
   15.56805515  274.64898682    0.73000002    2.51999998
   15.57111073  289.01800537    0.75000000    2.51999998
   15.57444477  280.08898926    0.76999998    2.51999998
   15.57750034  293.35299683    0.76999998    2.51999998
   15.58083344  276.09600830    0.80000001    2.51999998
   15.58416653  257.87600708    0.88000000    2.51999998
   15.58472157  248.26800537    0.88000000    2.51999998
   15.58777714  253.67700195    0.83999997    2.51999998
   15.59083271  259.53601074    0.81999999    2.51999998
   15.59416676  254.89399719    0.89999998    2.51999998
   15.60000038  254.89399719    0.86000001    2.51999998
   15.60416698  244.65499878    0.88000000    2.51999998
   15.60750008  245.13800049    0.88000000    2.51999998
   15.61055565  258.60800171    0.98000002    2.51999998
   15.61388969  269.71099854    1.11000001    2.51999998
   15.61694431  233.19299316    1.11000001    2.51999998
   15.61805534  259.90798950    1.11000001    2.51999998
   15.62083340  203.90800476    1.11000001    2.51999998
   15.62388897  225.00199890    1.11000001    2.51999998
   15.62722206  217.77900696    1.16999996    2.51999998
   15.63055611  221.70100403    1.13000000    2.51999998
   15.63361073  220.61099243    1.13000000    2.51999998
   15.63694477  213.26699829    1.19000006    2.51999998
   15.64277744  213.26699829    0.95999998    2.51999998
   15.64694405  223.37100220    0.94000000    2.51999998
   15.65027714  204.19000244    1.01999998    2.51999998
   15.65138817  203.75300598    1.01999998    2.51999998
   15.65388870  207.63000488    1.01999998    2.51999998
   15.65694427  193.76400757    1.01999998    2.51999998
   15.66027737  204.46699524    1.05999994    2.51999998
   15.66361046  193.96299744    1.05999994    2.51999998
   15.66666698  198.00900269    1.07000005    2.51999998
   15.67000008  196.67199707    0.92000002    2.51999998
   15.67333412  194.55999756    0.75000000    2.53999996
   15.67638874  188.78900146    0.88000000    2.51999998
   15.67972279  190.27799988    0.88000000    2.51999998
   15.68583298  190.27799988    0.89999998    2.51999998
   15.68972206  193.16900635    0.92000002    2.51999998
   15.69305515  195.23599243    0.86000001    2.51999998
   15.69638920  197.34800720    1.05999994    2.51999998
   15.69944477  197.29100037    1.21000004    2.51999998
   15.70277786  193.27499390    1.28999996    2.51999998
   15.70611095  206.16099548    1.39999998    2.51999998
   15.70916653  193.10299683    1.39999998    2.51999998
   15.71249962  189.91999817    1.33000004    2.51999998
   15.71583271  200.33500671    1.14999998    2.53999996
   15.71805477  213.87100220    1.28999996    2.51999998
   15.71944427  220.08299255    1.28999996    2.51999998
   15.72249985  234.89999390    1.23000002    2.51999998
   15.72861099  234.89999390    1.07000005    2.51999998
   15.73277760  323.33099365    1.13000000    2.51999998
   15.73583317  314.33999634    1.03999996    2.51999998
   15.73916721  306.58599854    1.03999996    2.51999998
   15.74250031  361.43701172    1.01999998    2.53999996
   15.74555588  345.17098999    0.98000002    2.51999998
   15.74888897  333.77700806    1.07000005    2.53999996
   15.75138855  319.30398560    1.07000005    2.53999996
   15.75249958  314.04699707    1.05999994    2.51999998
   15.75555515  319.13598633    1.05999994    2.51999998
   15.75888920  289.94799805    1.05999994    2.51999998
   15.76222229  290.21398926    0.89999998    2.53999996
   15.76527786  281.96600342    1.00000000    2.51999998
   15.77138901  281.96600342    1.00000000    2.51999998
   15.77555561  284.66699219    0.88000000    2.53999996
   15.77888870  297.77301025    0.86000001    2.53999996
   15.78194427  294.60000610    0.83999997    2.53999996
   15.78472233  271.99798584    0.86000001    2.53999996
   15.78555584  285.12701416    0.86000001    2.53999996
   15.78861141  271.05599976    0.88000000    2.53999996
   15.79194450  292.62600708    0.95999998    2.53999996
   15.79527855  288.21701050    1.09000003    2.53999996
   15.79861164  271.49200439    1.05999994    2.53999996
   15.80194473  283.68200684    1.05999994    2.53999996
   15.80500031  292.94000244    1.09000003    2.53999996
   15.80833340  283.15100098    1.28999996    2.53999996
   15.81416702  283.15100098    0.64999998    2.53999996
   15.81833363  241.90800476    0.64999998    2.53999996
   15.82166672  281.37200928    0.61000001    2.53999996
   15.82499981  301.35598755    0.64999998    2.53999996
   15.82805538  296.57400513    0.64999998    2.53999996
   15.83138847  274.23098755    0.75000000    2.53999996
   15.83444405  281.71798706    1.01999998    2.51999998
   15.83777714  269.89199829    1.21000004    2.51999998
   15.84111118  287.92898560    1.23000002    2.53999996
   15.84416676  259.42098999    1.23000002    2.51999998
   15.84749985  282.70599365    1.25000000    2.51999998
   15.85083389  278.25299072    1.16999996    2.53999996
   15.85138893  278.05099487    1.16999996    2.53999996
   15.85722256  278.05099487    1.19000006    2.51999998
   15.86138916  270.25601196    1.13000000    2.53999996
   15.86444473  253.60000610    1.13000000    2.51999998
   15.86777782  246.53500366    1.16999996    2.51999998
   15.87083340  252.57200623    1.16999996    2.51999998
   15.87416649  245.77799988    1.25000000    2.51999998
   15.87750053  246.57099915    1.19000006    2.53999996
   15.88055611  258.98199463    1.13000000    2.53999996
   15.88388920  267.04598999    1.30999994    2.53999996
   15.88472176  252.71600342    1.30999994    2.53999996
   15.88749981  242.07200623    1.25000000    2.53999996
   15.89083290  254.38099670    1.14999998    2.53999996
   15.89388847  223.40699768    1.11000001    2.53999996
   15.89999962  223.40699768    0.94000000    2.53999996
   15.90416622  226.93299866    0.92000002    2.53999996
   15.90722179  225.75500488    0.89999998    2.53999996
   15.91055489  232.65499878    0.89999998    2.53999996
   15.91388893  233.98699951    0.98000002    2.53999996
   15.91694450  208.91700745    1.00000000    2.53999996
   15.91805553  222.84300232    1.00000000    2.53999996
   15.92055607  225.26199341    0.76999998    2.53999996
   15.92388916  214.11599731    0.67000002    2.53999996
   15.92694473  217.21499634    0.89999998    2.53999996
   15.93027782  233.68400574    1.03999996    2.53999996
   15.93333340  216.97599792    1.09000003    2.53999996
   15.93666649  220.65800476    1.09000003    2.53999996
   15.94277763  220.65800476    1.03999996    2.53999996
   15.94694424  216.56100464    1.07000005    2.53999996
   15.94999981  225.30400085    1.07000005    2.53999996
   15.95138836  213.96699524    1.07000005    2.53999996
   15.95388889  215.42500305    0.95999998    2.53999996
   15.95722198  231.61099243    1.00000000    2.53999996
   15.96027756  225.29400635    0.94000000    2.53999996
   15.96361065  218.80400085    0.94000000    2.53999996
   15.96666622  221.55000305    0.81999999    2.53999996
   15.96999931  206.98100281    0.89999998    2.53999996
   15.97333336  220.35899353    0.89999998    2.53999996
   15.97638798  215.95599365    0.86000001    2.53999996
   15.97972202  204.41600037    0.89999998    2.53999996
   15.98555565  204.41600037    0.88000000    2.53999996
   15.98972225  226.63099670    0.92000002    2.53999996
   15.99305534  208.52400208    0.89999998    2.53999996
   15.99611092  191.63499451    1.03999996    2.53999996
   15.99944496  173.50000000    1.03999996    2.53999996
   16.00277710  213.81300354    1.19000006    2.53999996
   16.00583267  227.43699646    1.16999996    2.53999996
   16.00916672  227.33999634    1.07000005    2.53999996
   16.01250076  217.94099426    1.01999998    2.53999996
   16.01555634  211.13000488    1.01999998    2.53999996
   16.01805496  209.44099426    1.14999998    2.53999996
   16.01916695  217.00700378    1.14999998    2.53999996
   16.02249908  205.16600037    1.14999998    2.53999996
   16.02861023  205.16600037    1.30999994    2.53999996
   16.03249931  180.22999573    1.38000000    2.53999996
   16.03583336  185.37500000    1.38000000    2.53999996
   16.03916550  208.06100464    1.38000000    2.53999996
   16.04222107  204.42700195    1.34000003    2.53999996
   16.04555511  204.09399414    1.38000000    2.53999996
   16.04861069  155.83799744    1.36000001    2.53999996
   16.05138779  177.56900024    1.19000006    2.53999996
   16.05249977  201.59500122    1.19000006    2.53999996
   16.05583191  180.10699463    1.23000002    2.53999996
   16.05888748  198.56900024    1.13000000    2.53999996
   16.06222153  170.78500366    1.13000000    2.53999996
   16.06555557  180.98199463    1.01999998    2.53999996
   16.07139015  180.98199463    1.11000001    2.53999996
   16.07555580  185.25999451    1.16999996    2.53999996
   16.07888985  192.56100464    1.28999996    2.53999996
   16.08222389  188.98500061    1.25000000    2.53999996
   16.08472252  173.16799927    1.25000000    2.53999996
   16.08583450  181.93499756    1.50000000    2.53999996
   16.08916664  180.94900513    1.63000000    2.51999998
   16.09222221  173.96800232    1.63000000    2.51999998
   16.09555626  173.18800354    1.66999996    2.51999998
   16.09861183  186.94700623    1.39999998    2.51999998
   16.10194397  171.17199707    1.34000003    2.51999998
   16.10527802  183.66600037    1.16999996    2.53999996
   16.10833359  176.59700012    1.21000004    2.53999996
   16.11416626  176.59700012    1.03999996    2.53999996
   16.11833382  171.19900513    0.95999998    2.53999996
   16.12138939  183.36599731    1.13000000    2.53999996
   16.12472153  183.01199341    1.07000005    2.53999996
   16.12805557  166.61900330    0.92000002    2.53999996
   16.13111115  165.76600647    0.86000001    2.53999996
   16.13444519  177.26600647    0.94000000    2.53999996
   16.13777733  164.99800110    0.79000002    2.53999996
   16.14083290  169.27099609    0.75000000    2.55999994
   16.14416695  179.47900391    0.75000000    2.55999994
   16.14722252  164.46600342    0.76999998    2.53999996
   16.15055466  170.58900452    0.70999998    2.53999996
   16.15138817  174.45199585    0.70999998    2.53999996
   16.15694427  174.45199585    0.63000000    2.53999996
   16.16110992  176.43600464    0.64999998    2.53999996
   16.16444397  160.88699341    0.67000002    2.53999996
   16.16749954  167.61000061    0.79000002    2.53999996
   16.17083359  167.35299683    0.73000002    2.53999996
   16.17416573  164.46200562    0.73000002    2.53999996
   16.17722130  165.52799988    0.73000002    2.53999996
   16.18055534  163.70899963    0.64999998    2.53999996
   16.18361092  165.71400452    0.63000000    2.53999996
   16.18472099  165.05700684    0.63000000    2.53999996
   16.18722153  164.94900513    0.63000000    2.53999996
   16.19055557  163.58299255    0.61000001    2.53999996
   16.19361115  166.73500061    0.79000002    2.53999996
   16.20000076  166.73500061    0.70999998    2.55999994
   16.20388985  163.76800537    0.64999998    2.55999994
   16.20722389  163.63000488    0.52999997    2.55999994
   16.21055603  163.90699768    0.51999998    2.53999996
   16.21361160  162.84199524    0.52999997    2.53999996
   16.21694565  158.77600098    0.52999997    2.53999996
   16.21805573  165.08299255    0.50000000    2.53999996
   16.22055626  165.45300293    0.51999998    2.53999996
   16.22389030  162.27799988    0.61000001    2.53999996
   16.22694588  158.50000000    0.63000000    2.53999996
   16.23027802  160.78900146    0.64999998    2.53999996
   16.23361206  159.79499817    0.67000002    2.53999996
   16.23666763  157.48599243    0.67000002    2.53999996
   16.24277878  157.48599243    0.76999998    2.53999996
   16.24694443  160.24899292    0.76999998    2.53999996
   16.25000000  155.89300537    0.76999998    2.53999996
   16.25138855  158.01199341    0.76999998    2.53999996
   16.25361061  155.47900391    0.75000000    2.53999996
   16.25694466  159.54899597    0.73000002    2.53999996
   16.26000023  155.38499451    0.70999998    2.53999996
   16.26333427  159.81199646    0.70999998    2.53999996
   16.26666641  167.44299316    0.69000000    2.53999996
   16.26972198  161.78500366    0.61000001    2.55999994
   16.27305603  156.54600525    0.55000001    2.53999996
   16.27611160  162.91999817    0.52999997    2.55999994
   16.27944374  156.61199951    0.55000001    2.55999994
   16.28555489  156.61199951    0.56999999    2.55999994
   16.28972244  159.23199463    0.58999997    2.55999994
   16.29277802  163.17500305    0.58999997    2.55999994
   16.29611015  162.13200378    0.64999998    2.55999994
   16.29944420  156.77600098    0.64999998    2.53999996
   16.30277634  161.37399292    0.64999998    2.55999994
   16.30583191  165.60099792    0.88000000    2.53999996
   16.30916595  159.73300171    0.89999998    2.53999996
   16.31222153  163.64300537    0.89999998    2.55999994
   16.31555557  158.32299805    0.89999998    2.55999994
   16.31805611  158.88900757    0.86000001    2.55999994
   16.31916809  161.12100220    0.86000001    2.55999994
   16.32250023  159.03700256    0.81999999    2.53999996
   16.32833481  159.03700256    0.76999998    2.53999996
   16.33250046  172.82400513    0.92000002    2.55999994
   16.33583450  174.61300659    0.95999998    2.53999996
   16.33889008  171.98399353    0.88000000    2.53999996
   16.34222221  181.43099976    1.13000000    2.53999996
   16.34555626  170.76400757    1.11000001    2.53999996
   16.34861183  155.69700623    1.01999998    2.55999994
   16.35138893  177.51699829    1.01999998    2.53999996
   16.35222244  170.63099670    1.01999998    2.53999996
   16.35555649  175.88999939    0.95999998    2.53999996
   16.35861206  167.04600525    0.95999998    2.53999996
   16.36194420  161.26600647    0.95999998    2.53999996
   16.36527824  171.51199341    0.94000000    2.53999996
   16.37111092  171.51199341    1.03999996    2.55999994
   16.37527847  172.61799622    1.50000000    2.53999996
   16.37861061  165.82899475    1.44000006    2.53999996
   16.38194466  173.22700500    1.51999998    2.53999996
   16.38500023  154.19200134    1.44000006    2.53999996
   16.38555527  188.34700012    1.44000006    2.53999996
   16.38888931  165.53599548    1.44000006    2.53999996
   16.39194489  163.48399353    1.26999998    2.53999996
   16.39527702  163.83399963    1.25000000    2.53999996
   16.39861107  164.90499878    1.07000005    2.53999996
   16.40166664  179.01800537    1.07000005    2.53999996
   16.40499878  173.26800537    1.05999994    2.55999994
   16.40805435  155.98399353    1.05999994    2.53999996
   16.41416550  155.98399353    0.76999998    2.53999996
   16.41833305  167.24099731    0.76999998    2.53999996
   16.42138863  163.97300720    0.73000002    2.55999994
   16.42472076  158.08599854    0.79000002    2.53999996
   16.42805481  163.11000061    0.80000001    2.53999996
   16.43111038  167.51199341    0.80000001    2.53999996
   16.43444443  155.91000366    0.80000001    2.55999994
   16.43750000  148.65299988    0.86000001    2.53999996
   16.44083214  162.19700623    0.80000001    2.55999994
   16.44416618  159.26400757    0.64999998    2.55999994
   16.44722176  159.66900635    0.64999998    2.53999996
   16.45055580  150.60699463    0.75000000    2.55999994
   16.45166779  146.57099915    0.75000000    2.55999994
   16.47222328  146.57099915    0.69000000    2.53999996
   16.47638893  148.61399841    0.70999998    2.53999996
   16.47972298  146.46699524    0.73000002    2.53999996
   16.48277855  155.35299683    0.73000002    2.53999996
   16.48500061  148.55999756    0.79000002    2.53999996
   16.48638916  151.32200623    0.79000002    2.53999996
   16.48972321  143.35600281    0.79000002    2.55999994
   16.49277878  150.22099304    0.79000002    2.53999996
   16.49611092  155.67199707    0.81999999    2.53999996
   16.49944496  155.64300537    0.81999999    2.53999996
   16.50250053  150.03100586    0.94000000    2.53999996
   16.50583267  157.00900269    0.92000002    2.53999996
   16.50916672  154.53900146    0.92000002    2.55999994
   16.51499939  154.53900146    1.00000000    2.53999996
   16.51916695  158.98100281    1.33000004    2.53999996
   16.52222252  153.32400513    0.98000002    2.55999994
   16.52555466  152.75300598    0.94000000    2.53999996
   16.52888870  156.54899597    0.76999998    2.55999994
   16.53194427  160.07099915    0.76999998    2.55999994
   16.53527641  153.45599365    0.88000000    2.53999996
   16.53861046  149.44700623    0.92000002    2.53999996
   16.54166603  154.42500305    1.39999998    2.53999996
   16.54500008  152.36999512    1.39999998    2.53999996
   16.54805565  155.95799255    1.73000002    2.53999996
   16.55138779  148.27299500    2.05999994    2.53999996
   16.55194283  142.52499390    2.05999994    2.53999996
   16.55777740  142.52499390    1.86000001    2.53999996
   16.56194305  150.54699707    2.07999992    2.53999996
   16.56527710  153.69700623    2.05999994    2.53999996
   16.56833458  134.61300659    2.01999998    2.53999996
   16.57166672  154.45899963    2.19000006    2.53999996
   16.57500076  156.45100403    2.30999994    2.53999996
   16.57805634  149.86099243    2.23000002    2.53999996
   16.58139038  148.92399597    2.21000004    2.53999996
   16.58444595  153.92100525    2.32999992    2.53999996
   16.58527756  148.47799683    2.30999994    2.53999996
   16.58833313  147.48300171    2.21000004    2.53999996
   16.59138870  149.15299988    2.07999992    2.55999994
   16.59472275  143.06599426    1.86000001    2.53999996
   16.60055542  143.06599426    2.09999990    2.53999996
   16.60472298  157.96800232    1.88000000    2.53999996
   16.60805511  147.82099915    1.89999998    2.53999996
   16.61138916  156.07699585    1.83000004    2.53999996
   16.61444473  157.47999573    1.83000004    2.53999996
   16.61777878  151.31799316    1.83000004    2.53999996
   16.61861038  154.63900757    1.83000004    2.53999996
   16.62138939  157.26300049    1.71000004    2.53999996
   16.62444496  152.20700073    2.28999996    2.53999996
   16.62777710  159.51600647    2.32999992    2.53999996
   16.63111115  150.82299805    2.36999989    2.53999996
   16.63416672  152.77400208    2.25000000    2.53999996
   16.63750076  144.24600220    2.23000002    2.53999996
   16.64361191  144.24600220    2.09999990    2.53999996
   16.64777756  155.08799744    1.94000006    2.53999996
   16.65083313  148.06500244    1.94000006    2.53999996
   16.65194321  147.20100403    1.85000002    2.53999996
   16.65472221  149.04200745    1.85000002    2.53999996
   16.65777779  148.90800476    1.58000004    2.53999996
   16.66110992  144.62500000    1.46000004    2.55999994
   16.66444397  154.76400757    1.39999998    2.53999996
   16.66749954  149.99099731    1.48000002    2.53999996
   16.67083359  145.75799561    1.48000002    2.53999996
   16.67416573  152.30999756    1.46000004    2.53999996
   16.67722130  149.51600647    1.44000006    2.53999996
   16.68055534  147.05999756    1.50000000    2.53999996
   16.68638802  147.05999756    1.83000004    2.53999996
   16.69055557  153.09300232    1.96000004    2.53999996
   16.69361115  154.14300537    1.50000000    2.53999996
   16.69694328  148.40100098    1.16999996    2.55999994
   16.70027924  155.23899841    1.25000000    2.53999996
   16.70333481  147.91900635    1.30999994    2.55999994
   16.70666695  149.90400696    1.66999996    2.55999994
   16.71000099  150.99499512    1.66999996    2.55999994
   16.71305656  138.18899536    1.89999998    2.55999994
   16.71638870  158.43800354    2.34999990    2.53999996
   16.71861076  146.36700439    2.32999992    2.53999996
   16.72000122  153.54499817    2.32999992    2.53999996
   16.72305679  150.63600159    2.00000000    2.53999996
   16.72916794  150.63600159    1.91999996    2.53999996
   16.73333359  151.52000427    1.85000002    2.55999994
   16.73666763  158.84899902    1.85000002    2.55999994
   16.73972321  150.26899719    1.71000004    2.53999996
   16.74305534  143.83900452    1.89999998    2.53999996
   16.74638939  146.90400696    1.89999998    2.53999996
   16.74944496  140.77999878    2.32999992    2.53999996
   16.75194359  154.46699524    2.07999992    2.53999996
   16.75333405  151.30599976    2.01999998    2.53999996
   16.75638962  151.13600159    2.07999992    2.53999996
   16.75972176  154.39500427    2.11999989    2.53999996
   16.76305580  150.11999512    1.89999998    2.53999996
   16.76611137  137.77900696    1.85000002    2.55999994
   16.77194405  137.77900696    1.66999996    2.53999996
   16.77611160  144.78999329    2.26999998    2.53999996
   16.77944374  145.27999878    1.91999996    2.53999996
   16.78277779  145.53599548    1.63000000    2.53999996
   16.78527641  151.66900635    1.63000000    2.53999996
   16.78638840  140.87100220    1.69000006    2.53999996
   16.78944397  149.39100647    1.76999998    2.53999996
   16.79277802  150.20399475    2.51999998    2.53999996
   16.79611015  145.83399963    2.91000009    2.53999996
   16.79916573  139.90699768    2.98000002    2.53999996
   16.80249977  144.68099976    2.39000010    2.53999996
   16.80583191  149.27000427    2.59999990    2.53999996
   16.80888748  143.76499939    2.91000009    2.53999996
   16.81499863  143.76499939    2.89000010    2.53999996
   16.81916809  145.28999329    2.76999998    2.53999996
   16.82222366  140.45199585    2.66000009    2.53999996
   16.82555580  141.89100647    2.36999989    2.53999996
   16.82861137  138.05200195    2.42000008    2.53999996
   16.83194542  147.68800354    2.40000010    2.53999996
   16.83527756  140.99000549    2.57999992    2.53999996
   16.83833313  143.37199402    1.96000004    2.53999996
   16.84166718  144.16900635    2.05999994    2.53999996
   16.84500122  142.88699341    2.15000010    2.53999996
   16.84805679  137.94500732    2.26999998    2.51999998
   16.85138893  139.27000427    2.66000009    2.51999998
   16.85194397  138.94000244    2.78999996    2.51999998
   16.85777855  138.94000244    2.89000010    2.51999998
   16.86194420  142.77499390    3.11999989    2.51999998
   16.86499977  137.78399658    2.76999998    2.53999996
   16.86833382  140.93299866    3.09999990    2.53999996
   16.87166595  143.00100708    3.09999990    2.53999996
   16.87472153  162.95300293    3.20000005    2.53999996
   16.87805557  161.88999939    3.14000010    2.53999996
   16.88111115  164.67199707    2.89000010    2.53999996
   16.88444519  175.74099731    2.75000000    2.53999996
   16.88527679  175.66499329    2.75000000    2.53999996
   16.88805580  163.36900330    2.59999990    2.53999996
   16.89138794  161.52699280    2.32999992    2.53999996
   16.89444351  146.91499329    2.17000008    2.53999996
   16.90055466  146.91499329    2.23000002    2.53999996
   16.90472221  138.18499756    1.98000002    2.53999996
   16.90805435  136.64199829    1.80999994    2.53999996
   16.91110992  137.15199280    1.86000001    2.53999996
   16.91444397  131.97799683    1.64999998    2.53999996
   16.91749954  144.84199524    1.46000004    2.53999996
   16.91860962  136.68400574    1.41999996    2.53999996
   16.92138863  145.57099915    1.51999998    2.53999996
   16.92444420  139.10099792    1.46000004    2.53999996
   16.92777634  139.93899536    1.66999996    2.53999996
   16.93111038  143.35499573    1.66999996    2.53999996
   16.93416595  143.64500427    1.61000001    2.53999996
   16.93750000  139.90299988    1.55999994    2.53999996
   16.94333267  139.90299988    1.41999996    2.53999996
   16.94749832  141.67100525    1.69000006    2.53999996
   16.95083427  137.85099792    1.63000000    2.53999996
   16.95194435  137.24899292    1.66999996    2.53999996
   16.95444489  139.35299683    1.66999996    2.53999996
   16.95750046  137.19999695    1.60000002    2.53999996
   16.96083450  135.16099548    1.21000004    2.53999996
   16.96416664  136.77400208    1.05999994    2.53999996
   16.96722221  137.96299744    1.21000004    2.53999996
   16.97055626  135.64500427    1.30999994    2.53999996
   16.97389030  135.16700745    1.30999994    2.53999996
   16.97694588  136.58900452    1.38000000    2.53999996
   16.98027802  145.58399963    1.34000003    2.53999996
   16.98638916  145.58399963    1.19000006    2.55999994
   16.99027824  147.68600464    1.00000000    2.55999994
   16.99361229  156.17999268    1.07000005    2.53999996
   16.99694443  129.38900757    1.23000002    2.55999994
   17.00000000  152.87399292    1.23000002    2.55999994
   17.00333405  142.60400391    1.23000002    2.55999994
   17.00666618  139.82200623    1.46000004    2.53999996
   17.00972176  144.68899536    1.23000002    2.53999996
   17.01305580  140.46099854    1.00000000    2.55999994
   17.01611137  135.35800171    0.95999998    2.53999996
   17.01861000  145.59399414    0.95999998    2.53999996
   17.02000046  139.97000122    0.95999998    2.53999996
   17.02305603  139.16299438    0.94000000    2.55999994
   17.02916718  139.16299438    1.34000003    2.53999996
   17.03333282  138.44799805    1.13000000    2.55999994
   17.03638840  138.20599365    1.23000002    2.53999996
   17.03972244  138.69000244    1.01999998    2.53999996
   17.04305458  141.12800598    1.01999998    2.53999996
   17.04611015  138.07699585    1.34000003    2.55999994
   17.04944420  139.92999268    1.33000004    2.53999996
   17.05194283  153.53999329    1.48000002    2.55999994
   17.05305481  150.79600525    1.48000002    2.55999994
   17.05638885  141.83700562    1.78999996    2.53999996
   17.05944443  145.41400146    2.09999990    2.53999996
   17.06277657  136.69000244    1.91999996    2.53999996
   17.06611061  150.75599670    2.11999989    2.55999994
   17.07194519  150.75599670    2.28999996    2.53999996
   17.07611275  161.79699707    2.01999998    2.53999996
   17.07944489  152.52299500    1.96000004    2.53999996
   17.08250046  161.39599609    1.86000001    2.53999996
   17.08527756  158.73699951    1.85000002    2.53999996
   17.08611107  151.55999756    1.73000002    2.53999996
   17.08916664  149.44500732    1.58000004    2.55999994
   17.09250069  154.33500671    1.61000001    2.55999994
   17.09583473  146.32499695    2.28999996    2.53999996
   17.09889030  159.23699951    2.26999998    2.53999996
   17.10222244  141.57000732    2.25000000    2.53999996
   17.10555649  143.88400269    2.44000006    2.53999996
   17.10861206  137.03900146    2.32999992    2.53999996
   17.11472321  137.03900146    2.30999994    2.53999996
   17.11888885  153.12199402    2.28999996    2.53999996
   17.12222290  143.52799988    2.57999992    2.53999996
   17.12555504  139.16200256    2.59999990    2.53999996
   17.12861061  147.17900085    2.50000000    2.53999996
   17.13194466  137.41700745    2.19000006    2.55999994
   17.13500023  146.29100037    1.80999994    2.53999996
   17.13833237  147.68699646    1.76999998    2.53999996
   17.14166641  145.33799744    1.63000000    2.53999996
   17.14472198  139.62399292    1.71000004    2.55999994
   17.14805603  150.70399475    1.98000002    2.53999996
   17.15138817  142.62600708    2.26999998    2.53999996
   17.15194321  141.16000366    2.26999998    2.53999996
   17.15777779  141.16000366    2.76999998    2.53999996
   17.16166687  137.73699951    3.20000005    2.53999996
   17.16499901  142.55200195    3.43000007    2.51999998
   17.16833305  135.05799866    3.39000010    2.51999998
   17.17138863  147.70399475    3.14000010    2.51999998
   17.17472076  124.11199951    3.07999992    2.51999998
   17.17805481  126.45700073    2.75000000    2.53999996
   17.18111038  136.02900696    2.78999996    2.51999998
   17.18444443  136.20799255    2.57999992    2.51999998
   17.18527603  140.00199890    2.44000006    2.53999996
   17.18805504  136.08599854    2.28999996    2.53999996
   17.19138718  129.31599426    2.03999996    2.53999996
   17.19444275  134.17199707    1.86000001    2.51999998
   17.20055580  134.17199707    1.61000001    2.53999996
   17.20472336  134.74899292    1.39999998    2.53999996
   17.20777893  138.83099365    1.34000003    2.53999996
   17.21111107  136.64999390    1.13000000    2.53999996
   17.21444511  138.86099243    0.95999998    2.53999996
   17.21750069  136.30499268    0.98000002    2.55999994
   17.21861076  140.52699280    0.98000002    2.55999994
   17.22111130  129.13699341    1.00000000    2.53999996
   17.22444534  143.67599487    0.94000000    2.55999994
   17.22750092  133.04899597    0.94000000    2.55999994
   17.23083305  138.27000427    1.07000005    2.53999996
   17.23388863  140.18499756    1.36000001    2.53999996
   17.23722267  130.92999268    1.58000004    2.53999996
   17.24333382  130.92999268    1.66999996    2.53999996
   17.24749947  136.32000732    1.61000001    2.53999996
   17.25083351  145.81199646    1.88000000    2.53999996
   17.25194359  133.84100342    1.88000000    2.53999996
   17.25444412  135.78799438    1.98000002    2.53999996
   17.25777817  132.09199524    2.15000010    2.53999996
   17.26083374  137.25700378    2.11999989    2.53999996
   17.26416588  136.73300171    2.36999989    2.53999996
   17.26722145  136.28100586    2.23000002    2.53999996
   17.27055550  139.58200073    2.23000002    2.53999996
   17.27388954  132.29800415    2.26999998    2.51999998
   17.27694511  137.38299561    2.19000006    2.53999996
   17.28027725  140.70300293    2.00000000    2.51999998
   17.28610992  140.70300293    2.07999992    2.55999994
   17.29027748  143.84800720    2.00000000    2.53999996
   17.29361153  139.51400757    3.61999989    2.51999998
   17.29666710  138.72099304    4.53999996    2.50000000
   17.29999924  133.73100281    4.76000023    2.50000000
   17.30333328  143.36099243    4.90999985    2.50000000
   17.30638885  142.78100586    4.90999985    2.50000000
   17.30972099  155.72599792    4.90999985    2.50000000
   17.31305504  146.52499390    4.90999985    2.50000000
   17.31611061  141.60099792    4.90999985    2.50000000
   17.31861115  136.32000732    4.90999985    2.50000000
   17.31972313  142.11599731    4.90999985    2.50000000
   17.32305717  138.70100403    4.90999985    2.50000000
   17.32916832  138.70100403    4.90999985    2.50000000
   17.33305550  135.81300354    4.67999983    2.50000000
   17.33638954  133.69400024    4.51000023    2.50000000
   17.33972359  149.72099304    3.68000007    2.51999998
   17.34277916  140.59700012    3.26999998    2.51999998
   17.34611130  148.90699768    3.48000002    2.51999998
   17.34944534  143.42799377    2.44000006    2.53999996
   17.35194397  151.56399536    2.21000004    2.53999996
   17.35305595  143.71000671    2.36999989    2.53999996
   17.35639000  145.27000427    2.48000002    2.53999996
   17.35944557  144.76899719    2.26999998    2.53999996
   17.36277771  139.23199463    2.26999998    2.53999996
   17.36611176  138.06700134    2.53999996    2.51999998
   17.37194443  138.06700134    1.94000006    2.53999996
   17.37611198  149.52900696    1.66999996    2.53999996
   17.37916756  141.35600281    1.64999998    2.53999996
   17.38249969  137.54100037    1.51999998    2.53999996
   17.38527679  145.18400574    1.71000004    2.53999996
   17.38611031  137.29200745    1.78999996    2.53999996
   17.38944435  138.23899841    1.85000002    2.53999996
   17.39249992  135.30999756    2.07999992    2.53999996
   17.39583397  144.05099487    2.57999992    2.51999998
   17.39916611  139.02499390    3.18000007    2.51999998
   17.40222168  141.41799927    3.78999996    2.51999998
   17.40555573  135.88400269    3.78999996    2.51999998
   17.40861130  142.41400146    3.93000007    2.50000000
   17.41472244  142.41400146    4.00000000    2.51999998
   17.41888809  140.28199768    3.05999994    2.51999998
   17.42222214  150.76899719    2.53999996    2.53999996
   17.42527771  147.58399963    2.46000004    2.53999996
   17.42860985  146.58200073    2.61999989    2.53999996
   17.43166542  140.58799744    3.30999994    2.51999998
   17.43499947  167.84899902    3.76999998    2.51999998
   17.43833160  168.57600403    4.01999998    2.51999998
   17.44138718  154.81700134    3.82999992    2.51999998
   17.44472122  160.68800354    4.05999994    2.51999998
   17.44805527  156.07499695    4.19999981    2.51999998
   17.45111275  172.57600403    4.34999990    2.51999998
   17.45194435  167.35800171    4.55999994    2.50000000
   17.45750046  167.35800171    4.90999985    2.50000000
   17.46166801  163.22799683    4.76000023    2.50000000
   17.46500015  173.62699890    4.42999983    2.50000000
   17.46805573  155.02299500    3.61999989    2.50000000
   17.48583412  149.99899292    3.21000004    2.51999998
   17.48805618  147.58099365    3.05999994    2.51999998
   17.49138832  148.05000305    3.23000002    2.51999998
   17.49472237  147.28500366    3.34999990    2.51999998
   17.50055504  147.28500366    2.64000010    2.53999996
   17.50472260  130.60299683    2.71000004    2.51999998
   17.50805473  138.91400146    2.46000004    2.53999996
   17.51111031  139.23300171    2.32999992    2.53999996
   17.51444435  142.05299377    2.19000006    2.53999996
   17.51777840  148.09500122    2.07999992    2.53999996
   17.51888847  152.94500732    1.98000002    2.53999996
   17.52138901  138.55200195    1.78999996    2.53999996
   17.52472115  151.07899475    1.96000004    2.53999996
   17.52777672  137.65199280    1.98000002    2.53999996
   17.53111076  135.22300720    2.36999989    2.53999996
   17.53444481  148.58999634    2.50000000    2.51999998
   17.53750038  149.08399963    2.86999989    2.51999998
   17.54333305  149.08399963    2.55999994    2.51999998
   17.54749870  152.55799866    2.71000004    2.51999998
   17.55083275  132.70599365    2.44000006    2.51999998
   17.55222130  148.49400330    2.61999989    2.53999996
   17.55444336  146.03999329    3.23000002    2.51999998
   17.55777740  158.33399963    3.32999992    2.51999998
   17.56083298  155.07600403    3.26999998    2.51999998
   17.56416512  146.56700134    3.39000010    2.51999998
   17.56750107  148.92300415    3.25000000    2.51999998
   17.57055664  154.82600403    3.82999992    2.51999998
   17.57389069  146.23399353    3.97000003    2.50000000
   17.57722282  156.95700073    4.46999979    2.51999998
   17.58027840  158.40499878    4.90999985    2.51999998
   17.58638954  158.40499878    4.90999985    2.48000002
   17.59055710  167.13400269    4.90999985    2.48000002
   17.59361267  148.75599670    4.90999985    2.46000004
   17.59694481  154.01899719    4.90999985    2.46000004
   17.60000038  159.02799988    4.90999985    2.46000004
   17.60333443  148.12600708    4.90999985    2.48000002
   17.60666656  155.88299561    4.90999985    2.46000004
   17.60972214  153.63200378    4.90999985    2.46000004
   17.61305618  165.36799622    4.90999985    2.48000002
   17.61638832  146.05200195    4.90999985    2.46000004
   17.61888885  137.55999756    4.90999985    2.48000002
   17.62000084  138.88999939    4.90999985    2.48000002
   17.62333298  144.25300598    4.90999985    2.48000002
   17.62916756  144.25300598    4.90999985    2.50000000
   17.63333321  157.16400146    4.90999985    2.50000000
   17.63638878  139.98500061    4.90999985    2.50000000
   17.63972282  145.03500366    4.90999985    2.50000000
   17.64305496  139.27400208    4.90999985    2.50000000
   17.64611053  148.61199951    4.90999985    2.48000002
   17.64944458  143.59399414    4.90999985    2.48000002
   17.65222168  147.28900146    4.90999985    2.48000002
   17.65305519  144.05400085    4.90999985    2.48000002
   17.65638924  147.45500183    4.90999985    2.50000000
   17.65944481  146.11700439    4.90999985    2.50000000
   17.66277695  137.57899475    4.90999985    2.50000000
   17.66611099  136.90100098    4.80000019    2.50000000
   17.67194366  136.90100098    3.73000002    2.50000000
   17.67611122  147.63299561    3.86999989    2.50000000
   17.67944336  138.29100037    3.97000003    2.50000000
   17.68249893  134.25599670    3.66000009    2.51999998
   17.68583298  138.41600037    3.73000002    2.50000000
   17.68610954  135.58200073    3.73000002    2.50000000
   17.68944359  141.82800293    3.03999996    2.51999998
   17.69249916  138.61900330    2.78999996    2.51999998
   17.69583321  140.13600159    2.84999990    2.51999998
   17.69916534  145.47300720    2.82999992    2.51999998
   17.70222282  137.76699829    2.84999990    2.51999998
   17.70555687  143.04400635    3.26999998    2.51999998
   17.70888901  142.45899963    3.05999994    2.51999998
   17.71472359  142.45899963    2.98000002    2.50000000
   17.71916771  140.31199646    1.94000006    2.51999998
   17.71944427  140.88400269    2.17000008    2.51999998
   17.72277832  141.48699951    2.61999989    2.51999998
   17.72583389  141.46299744    2.17000008    2.51999998
   17.72916794  148.45799255    1.63000000    2.51999998
   17.73250008  140.80999756    2.11999989    2.51999998
   17.73555565  136.59800720    1.63000000    2.51999998
   17.73888969  141.05799866    1.63000000    2.53999996
   17.74222183  140.43499756    2.25000000    2.51999998
   17.74527740  145.13099670    2.34999990    2.51999998
   17.74861145  148.94500732    2.19000006    2.51999998
   17.75194359  151.98899841    2.21000004    2.51999998
   17.75250053  144.84700012    2.13000011    2.51999998
   17.75777817  144.84700012    2.53999996    2.51999998
   17.76166725  147.16499329    2.78999996    2.51999998
   17.76499939  147.91700745    3.01999998    2.51999998
   17.76833344  147.71499634    2.84999990    2.51999998
   17.77138901  149.86000061    2.55999994    2.51999998
   17.77472115  152.31700134    2.26999998    2.51999998
   17.77805519  157.83200073    2.01999998    2.51999998
   17.78111076  158.33299255    2.39000010    2.51999998
   17.78444481  159.21200562    2.57999992    2.51999998
   17.78583336  153.66600037    2.57999992    2.51999998
   17.78805542  166.12100220    2.67000008    2.51999998
   17.79138756  158.67999268    2.55999994    2.51999998
   17.79444313  160.67799377    2.51999998    2.51999998
   17.80055428  160.67799377    2.13000011    2.51999998
   17.80472183  157.34399414    2.48000002    2.53999996
   17.80777740  156.10000610    3.45000005    2.51999998
   17.81110954  162.35400391    3.80999994    2.50000000
   17.81444359  154.58099365    3.78999996    2.50000000
   17.81750107  160.69900513    3.93000007    2.50000000
   17.81916809  142.84700012    3.64000010    2.50000000
   17.82111168  145.43099976    3.72000003    2.50000000
   17.82444572  145.60099792    3.36999989    2.50000000
   17.82777786  148.24200439    3.05999994    2.50000000
   17.83083344  149.66400146    3.20000005    2.50000000
   17.83416748  150.64100647    3.86999989    2.50000000
   17.83722305  163.68600464    3.55999994    2.51999998
   17.84333420  163.68600464    3.55999994    2.51999998
   17.84749985  149.26400757    3.89000010    2.50000000
   17.85083389  146.16700745    4.05999994    2.50000000
   17.85250092  143.39799500    3.72000003    2.50000000
   17.85416794  152.20199585    3.39000010    2.51999998
   17.85750008  149.33799744    3.68000007    2.50000000
   17.86083412  144.95899963    3.78999996    2.50000000
   17.86388969  137.77400208    3.50000000    2.50000000
   17.86722183  145.80900574    4.07999992    2.50000000
   17.87027740  137.96899414    4.90999985    2.48000002
   17.87361145  143.79800415    4.90999985    2.46000004
   17.87694550  142.69799805    4.90999985    2.46000004
   17.88000107  141.96000671    4.90999985    2.48000002
   17.88611031  141.96000671    4.90999985    2.46000004
   17.89027786  136.13499451    4.90999985    2.46000004
   17.89361191  144.99400330    4.90999985    2.44000006
   17.89666748  136.34399414    4.90999985    2.42000008
   17.89999962  130.85499573    4.90999985    2.46000004
   17.90333366  140.44999695    4.90999985    2.48000002
   17.90638924  135.92100525    4.90999985    2.48000002
   17.90972137  131.17900085    4.90999985    2.48000002
   17.91305542  136.02499390    4.90999985    2.48000002
   17.91611099  138.48800659    4.80000019    2.48000002
   17.91916656  142.32000732    4.80000019    2.48000002
   17.91972160  134.71200562    4.80000019    2.48000002
   17.92305565  138.11999512    4.90999985    2.48000002
   17.92916679  138.11999512    4.90999985    2.48000002
   17.93305397  136.33599854    4.82999992    2.50000000
   17.93638802  133.28900146    4.71999979    2.48000002
   17.93972206  133.97300720    4.38999987    2.50000000
   17.94277763  131.90100098    4.84999990    2.48000002
   17.94610977  139.64700317    4.84999990    2.48000002
   17.94944382  136.73699951    4.71999979    2.48000002
   17.95250130  134.11099243    4.42999983    2.48000002
   17.95277786  135.82400513    4.13999987    2.50000000
   17.95611191  136.63099670    3.91000009    2.50000000
   17.95944595  137.78100586    3.66000009    2.50000000
   17.96250153  125.87699890    3.93000007    2.50000000
   17.96583366  132.27999878    3.34999990    2.51999998
   17.97194481  132.27999878    3.55999994    2.50000000
   17.97611237  131.72599792    3.23000002    2.51999998
   17.97916794  136.45899963    3.50000000    2.50000000
   17.98250008  134.01199341    2.42000008    2.50000000
   17.98583412  134.12699890    2.23000002    2.51999998
   17.98611069  133.79200745    2.23000002    2.51999998
   17.98944473  132.74400330    2.19000006    2.50000000
   17.99277878  135.82299805    2.84999990    2.51999998
   17.99583435  138.63299561    2.80999994    2.50000000
   17.99916649  137.69900513    2.71000004    2.50000000
   18.00222206  138.38499451    2.91000009    2.50000000
   18.00555611  134.04499817    3.03999996    2.50000000
   18.00888824  139.03399658    2.98000002    2.51999998
   18.01472282  139.03399658    2.51999998    2.51999998
   18.01888847  147.43800354    2.39000010    2.50000000
   18.01944351  147.05799866    2.39000010    2.50000000
   18.02249908  135.13499451    2.51999998    2.51999998
   18.02583313  145.66600037    3.16000009    2.50000000
   18.02916718  140.38699341    3.73000002    2.48000002
   18.03222275  148.34500122    3.48000002    2.50000000
   18.03555489  153.97700500    3.23000002    2.50000000
   18.03888893  161.07899475    2.98000002    2.50000000
   18.04194450  166.69200134    2.76999998    2.50000000
   18.04527664  158.95599365    2.91000009    2.51999998
   18.04833221  173.07600403    2.94000006    2.51999998
   18.05166626  181.43099976    3.20000005    2.50000000
   18.05277634  186.47999573    3.41000009    2.50000000
   18.05749893  186.47999573    4.59999990    2.48000002
   18.06166649  234.45300293    4.80999994    2.48000002
   18.06499863  175.38200378    4.65999985    2.48000002
   18.06805611  219.19200134    4.82999992    2.48000002
   18.07139015  233.19700623    4.90999985    2.48000002
   18.07472229  226.41900635    4.90999985    2.48000002
   18.07805634  224.37199402    4.90999985    2.48000002
   18.08111191  239.42900085    4.90999985    2.48000002
   18.08444595  212.77299500    4.90999985    2.48000002
   18.08611107  230.01199341    4.90999985    2.46000004
   18.08777809  206.39900208    4.90999985    2.48000002
   18.09111214  221.54100037    4.90999985    2.46000004
   18.09444427  212.99400330    4.90999985    2.46000004
   18.10055542  212.99400330    4.90999985    2.46000004
   18.10444450  204.80799866    4.90999985    2.46000004
   18.10777855  199.88400269    4.90999985    2.46000004
   18.11111069  205.52099609    4.90999985    2.46000004
   18.11416626  198.88299561    4.90999985    2.46000004
   18.11750031  214.35099792    4.90999985    2.46000004
   18.11944389  214.37800598    4.90999985    2.46000004
   18.12138939  218.98300171    4.90999985    2.46000004
   18.12444496  209.77600098    4.90999985    2.46000004
   18.12777710  204.44700623    4.90999985    2.48000002
   18.13083267  203.03399658    4.57999992    2.48000002
   18.13416672  192.59599304    4.51000023    2.48000002
   18.13750076  193.04499817    4.80000019    2.48000002
   18.14333344  193.04499817    4.90999985    2.48000002
   18.14749908  227.28599548    4.90999985    2.48000002
   18.15055466  218.80700684    4.76000023    2.48000002
   18.15277672  251.45599365    4.53000021    2.48000002
   18.15444374  233.56500244    4.48999977    2.48000002
   18.15749931  235.73300171    4.26000023    2.50000000
   18.16083336  228.28500366    4.90999985    2.48000002
   18.16388893  235.26199341    4.90999985    2.48000002
   18.16722107  233.93600464    4.78000021    2.48000002
   18.17055511  231.45399475    4.36999989    2.48000002
   18.17361069  226.61300659    4.13999987    2.48000002
   18.17694473  240.04699707    4.36999989    2.48000002
   18.18027687  237.05799866    4.76000023    2.48000002
   18.18610954  237.05799866    4.90999985    2.48000002
   18.19027710  304.37600708    4.90999985    2.46000004
   18.19361115  312.43499756    4.90999985    2.46000004
   18.19666672  292.43798828    4.90999985    2.46000004
   18.20000076  277.34899902    4.90999985    2.46000004
   18.20305634  281.39001465    4.90999985    2.46000004
   18.20639038  285.53698730    4.90999985    2.48000002
   18.20972252  316.43701172    4.90999985    2.46000004
   18.21277809  339.61499023    4.90999985    2.46000004
   18.21611214  307.16000366    4.90999985    2.48000002
   18.21944427  295.83499146    4.90999985    2.46000004
   18.21972275  301.49600220    4.90999985    2.48000002
   18.22305679  265.55200195    4.90999985    2.46000004
   18.22888947  265.55200195    4.90999985    2.46000004
   18.23305511  279.28201294    4.90999985    2.46000004
   18.23638916  255.56700134    4.90999985    2.48000002
   18.23944473  258.19198608    4.67999983    2.48000002
   18.24277878  253.27799988    4.78000021    2.48000002
   18.24611092  244.65199280    4.90999985    2.46000004
   18.24916649  239.88900757    4.90999985    2.46000004
   18.25250053  230.15600586    4.90999985    2.46000004
   18.25305557  229.85200500    4.90999985    2.46000004
   18.25611115  236.32699585    4.90999985    2.46000004
   18.25944519  233.53799438    4.90999985    2.46000004
   18.26250076  215.32299805    4.90999985    2.46000004
   18.26583290  211.41499329    4.90999985    2.46000004
   18.27194405  211.41499329    4.90999985    2.46000004
   18.27583313  193.39300537    4.90999985    2.46000004
   18.27916718  199.36300659    4.90999985    2.46000004
   18.28249931  206.93699646    4.90999985    2.46000004
   18.28555489  212.57800293    4.90999985    2.46000004
   18.28638840  206.04800415    4.90999985    2.46000004
   18.28916550  202.31100464    4.90999985    2.46000004
   18.29249954  204.67900085    4.90999985    2.46000004
   18.29555511  199.25999451    4.90999985    2.46000004
   18.29888916  192.79899597    4.90999985    2.46000004
   18.30222130  179.96000671    4.90999985    2.46000004
   18.30527687  172.93800354    4.90999985    2.46000004
   18.30861092  182.90299988    4.90999985    2.46000004
   18.31472206  182.90299988    4.90999985    2.46000004
   18.31888962  167.73500061    4.90999985    2.46000004
   18.32000160  167.01100159    4.90999985    2.46000004
   18.32250023  161.70899963    4.90999985    2.46000004
   18.32583427  166.24600220    4.90999985    2.44000006
   18.32888985  158.61099243    4.90999985    2.44000006
   18.33222389  160.49699402    4.90999985    2.46000004
   18.33555603  158.55099487    4.90999985    2.46000004
   18.33861160  162.69500732    4.90999985    2.46000004
   18.34194565  154.30200195    4.90999985    2.46000004
   18.34527779  164.78599548    4.90999985    2.46000004
   18.34833336  152.19200134    4.90999985    2.44000006
   18.35166740  152.36500549    4.90999985    2.44000006
   18.35333443  148.87800598    4.90999985    2.44000006
   18.35750008  148.87800598    4.90999985    2.44000006
   18.36166763  149.74400330    4.90999985    2.44000006
   18.36499977  150.28300476    4.90999985    2.46000004
   18.36805534  144.91299438    4.90999985    2.46000004
   18.37138939  148.24600220    4.90999985    2.46000004
   18.37444496  139.45700073    4.90999985    2.48000002
   18.37777710  144.15899658    4.42999983    2.48000002
   18.38111115  143.94999695    4.71999979    2.46000004
   18.38416672  138.74800110    4.01999998    2.48000002
   18.38666725  141.31799316    3.97000003    2.48000002
   18.38777733  144.48500061    4.03999996    2.48000002
   18.39111137  146.08200073    3.59999990    2.48000002
   18.39416695  155.07299805    3.70000005    2.48000002
   18.40027809  155.07299805    4.90999985    2.46000004
   18.40444374  144.61900330    4.90999985    2.46000004
   18.40777779  153.58999634    4.90999985    2.46000004
   18.41110992  148.89300537    4.90999985    2.46000004
   18.41416550  145.32699585    4.90999985    2.46000004
   18.41749954  140.73899841    4.90999985    2.46000004
   18.42000008  141.34300232    4.90999985    2.46000004
   18.42111015  142.89300537    4.90999985    2.46000004
   18.42444420  144.48699951    4.13999987    2.46000004
   18.42749977  159.02200317    4.38999987    2.46000004
   18.43083191  156.14300537    4.90999985    2.46000004
   18.43416595  174.89100647    4.90999985    2.46000004
   18.43722153  152.97000122    4.90999985    2.44000006
   18.44305420  152.97000122    4.90999985    2.42000008
   18.44722176  212.16600037    4.90999985    2.42000008
   18.45055580  214.36599731    4.90999985    2.40000010
   18.45333481  187.76100159    4.90999985    2.40000010
   18.45416832  187.12699890    4.90999985    2.39000010
   18.45750046  187.54899597    4.90999985    2.40000010
   18.46055603  171.91799927    4.90999985    2.40000010
   18.46389008  203.78700256    4.90999985    2.42000008
   18.46722221  180.63699341    4.90999985    2.42000008
   18.47027779  182.49499512    4.90999985    2.42000008
   18.47361183  183.89599609    4.90999985    2.44000006
   18.47694588  184.36900330    4.90999985    2.44000006
   18.48000145  172.79600525    4.90999985    2.44000006
   18.48611069  172.79600525    4.90999985    2.44000006
   18.50444412  174.57400513    4.90999985    2.46000004
   18.50777817  174.46899414    4.90999985    2.46000004
   18.51083374  175.72599792    4.90999985    2.46000004
   18.51416588  162.86199951    4.63999987    2.46000004
   18.51722145  205.45199585    4.53999996    2.46000004
   18.52055550  172.53700256    4.19999981    2.46000004
   18.52388954  169.25599670    4.07999992    2.46000004
   18.52916718  169.25599670    3.89000010    2.46000004
   18.53333282  180.78999329    3.93000007    2.46000004
   18.53638840  179.38699341    3.80999994    2.46000004
   18.53750038  172.80499268    3.82999992    2.46000004
   18.54027748  178.52400208    3.76999998    2.46000004
   18.54333305  196.52000427    3.72000003    2.46000004
   18.54666710  183.52499390    3.51999998    2.46000004
   18.54972076  164.40400696    2.96000004    2.48000002
   18.55305481  141.14999390    2.55999994    2.48000002
   18.55638885  181.49499512    2.82999992    2.46000004
   18.55944443  185.03799438    2.75000000    2.46000004
   18.56277657  163.46200562    3.00000000    2.48000002
   18.56611061  180.25199890    3.09999990    2.48000002
   18.57194519  180.25199890    2.76999998    2.48000002
   18.57611275  161.85400391    2.93000007    2.48000002
   18.57944489  203.21099854    2.67000008    2.46000004
   18.58250046  185.34500122    3.23000002    2.48000002
   18.58583450  155.45100403    3.89000010    2.46000004
   18.58916664  160.27600098    4.30999994    2.46000004
   18.59222221  170.81599426    4.34999990    2.46000004
   18.59555626  175.70799255    4.13999987    2.46000004
   18.59889030  162.18800354    4.09999990    2.46000004
   18.60194397  149.41600037    4.44999981    2.46000004
   18.60416794  164.54600525    4.36999989    2.46000004
   18.60583305  167.66900635    4.21999979    2.46000004
   18.60888863  168.46499634    4.03999996    2.46000004
   18.61472321  168.46499634    4.34999990    2.46000004
   18.61888885  162.25500488    4.71999979    2.46000004
   18.62222290  170.49800110    4.61999989    2.46000004
   18.62527847  171.52699280    4.53000021    2.46000004
   18.62861061  170.00599670    4.46999979    2.46000004
   18.63194466  169.42100525    4.53999996    2.46000004
   18.63500023  163.82000732    4.65999985    2.44000006
   18.63750076  162.61399841    4.65999985    2.46000004
   18.63888931  172.99000549    4.61999989    2.46000004
   18.64194489  180.67199707    4.42999983    2.46000004
   18.64527702  147.86500549    4.42999983    2.46000004
   18.64861107  156.09300232    4.65999985    2.46000004
   18.65166664  179.20700073    4.90999985    2.44000006
   18.65777779  179.20700073    4.90999985    2.46000004
   18.66194344  151.33999634    4.69999981    2.46000004
   18.66499901  153.02099609    4.53999996    2.46000004
   18.66833305  167.74400330    4.90999985    2.46000004
   18.67083359  156.43200684    4.90999985    2.44000006
   18.67194366  173.67999268    4.90999985    2.46000004
   18.67499924  171.82000732    4.80000019    2.46000004
   18.67833328  156.03500366    4.53999996    2.46000004
   18.68166542  174.40800476    4.38999987    2.46000004
   18.68472099  147.01100159    4.19999981    2.46000004
   18.68805504  161.85299683    4.09999990    2.46000004
   18.69111061  166.94599915    3.75000000    2.46000004
   18.69444275  146.84700012    3.18000007    2.46000004
   18.70055580  146.84700012    2.93000007    2.46000004
   18.70472336  153.73800659    2.86999989    2.46000004
   18.70777893  165.02699280    2.98000002    2.46000004
   18.71111107  151.10699463    3.11999989    2.46000004
   18.71444511  171.59500122    3.16000009    2.46000004
   18.71750069  155.81100464    3.21000004    2.46000004
   18.72083473  157.03500366    3.59999990    2.46000004
   18.72389030  174.68400574    3.76999998    2.44000006
   18.72722244  151.41400146    3.70000005    2.46000004
   18.73055649  150.95700073    3.91000009    2.46000004
   18.73361206  160.61000061    3.73000002    2.46000004
   18.73694420  150.82899475    3.61999989    2.46000004
   18.73750114  146.02799988    3.70000005    2.46000004
   18.74333382  146.02799988    4.34999990    2.46000004
   18.74749947  153.02299500    4.21999979    2.44000006
   18.75083351  155.34300232    4.38999987    2.44000006
   18.75388908  144.69700623    4.28999996    2.44000006
   18.75722313  151.08900452    4.00000000    2.46000004
   18.76055527  158.86399841    3.51999998    2.46000004
   18.76361084  153.13600159    3.53999996    2.46000004
   18.76694489  164.88200378    3.89000010    2.44000006
   18.77027702  156.65600586    4.17999983    2.44000006
   18.77083397  151.15299988    4.11999989    2.46000004
   18.77388954  152.95899963    3.80999994    2.46000004
   18.77694511  161.51699829    3.45000005    2.46000004
   18.78027725  148.78199768    3.55999994    2.46000004
   18.78610992  148.78199768    4.23999977    2.44000006
   18.79027748  166.80000305    4.57999992    2.46000004
   18.79361153  156.95100403    4.90999985    2.42000008
   18.79666710  170.38800049    4.90999985    2.42000008
   18.79999924  165.58500671    4.86999989    2.44000006
   18.80333328  165.83599854    4.59999990    2.46000004
   18.80416679  157.35899353    4.53999996    2.44000006
   18.80694389  164.54299927    4.55999994    2.44000006
   18.80999947  169.85499573    4.69999981    2.44000006
   18.81333351  172.29699707    4.69999981    2.42000008
   18.81666756  169.78199768    4.67999983    2.44000006
   18.81972313  165.97799683    4.90999985    2.42000008
   18.82305717  169.19200134    4.90999985    2.40000010
   18.82916832  169.19200134    4.90999985    2.42000008
   18.83305550  154.84899902    4.90999985    2.44000006
   18.83638954  166.75100708    4.90999985    2.44000006
   18.83750153  164.80599976    4.90999985    2.42000008
   18.84000015  175.31500244    4.90999985    2.44000006
   18.84305573  171.33999634    4.90999985    2.42000008
   18.84638977  176.57299805    4.90999985    2.42000008
   18.84972191  167.97799683    4.71999979    2.44000006
   18.85277748  160.72099304    4.01999998    2.46000004
   18.85611153  164.72799683    4.05999994    2.44000006
   18.85916710  153.98699951    4.90999985    2.50000000
   18.86250114  160.48800659    0.41999999    0.56999999
   18.86583328  155.54800415    0.15000001    0.11000000
   18.87194443  155.54800415    0.15000001    0.11000000
   18.87611198  170.35600281    0.15000001    0.11000000
   18.87916756  164.03900146    0.15000001    0.11000000
   18.88249969  163.40499878    0.15000001    0.11000000
   18.88583374  162.33299255    0.15000001    0.11000000
   18.88916588  160.62600708    0.15000001    0.11000000
   18.89249992  166.13900757    0.15000001    0.11000000
   18.89583397  157.12600708    0.15000001    0.11000000
   18.89888954  161.23100281    0.15000001    0.11000000
   18.90250015  162.38000488    0.15000001    0.11000000
   18.90416718  157.12300110    0.15000001    0.11000000
   18.90611076  166.10400391    0.15000001    0.11000000
   18.90916634  150.07600403    0.15000001    0.11000000
   18.91472244  150.07600403    0.15000001    0.11000000
   18.91888809  155.99600220    0.15000001    0.11000000
   18.92222214  158.88699341    0.15000001    0.11000000
   18.92527771  165.50700378    0.15000001    0.11000000
   18.92860985  159.58399963    0.15000001    0.11000000
   18.93166542  161.72500610    0.15000001    0.11000000
   18.93499947  167.58999634    0.15000001    0.11000000
   18.93750000  160.54200745    0.15000001    0.11000000
   18.93861008  171.55999756    0.15000001    0.11000000
   18.94166565  162.15499878    0.15000001    0.11000000
   18.94499969  164.85299683    0.15000001    0.11000000
   18.94833183  157.83599854    0.15000001    0.11000000
   18.95138931  168.20700073    0.15000001    0.11000000
   18.95750046  168.20700073    0.15000001    0.11000000
   18.96166801  156.33500671    0.15000001    0.11000000
   18.96500015  159.18099976    0.15000001    0.11000000
   18.96805573  151.75399780    0.15000001    0.11000000
   18.97083473  164.26100159    0.15000001    0.11000000
   18.97194481  163.10699463    0.15000001    0.11000000
   18.97500038  152.86500549    0.15000001    0.11000000
   18.97833443  157.58000183    0.15000001    0.11000000
   18.98166656  160.23500061    0.15000001    0.11000000
   18.98472214  165.86399841    0.15000001    0.11000000
   18.98805618  152.01899719    0.15000001    0.11000000
   18.99138832  166.60800171    0.15000001    0.11000000
   18.99444389  168.14700317    0.15000001    0.11000000
   19.00055504  168.14700317    0.15000001    0.11000000
   19.00444412  142.25300598    0.15000001    0.11000000
   19.00777817  160.35899353    0.15000001    0.11000000
   19.01111031  162.77099609    0.15000001    0.11000000
   19.01416588  155.38800049    0.15000001    0.11000000
   19.01749992  160.78199768    0.15000001    0.11000000
   19.02083397  161.84800720    0.15000001    0.11000000
   19.02388954  165.42700195    0.15000001    0.11000000
   19.02722168  156.24600220    0.15000001    0.11000000
   19.03055573  148.44700623    0.15000001    0.11000000
   19.03361130  156.51899719    0.15000001    0.11000000
   19.03694344  159.33500671    0.15000001    0.11000000
   19.03750038  155.29699707    0.15000001    0.11000000
   19.04333305  155.29699707    0.15000001    0.11000000
   19.04749870  142.07400513    0.15000001    0.11000000
   19.05055428  149.38800049    0.15000001    0.11000000
   19.05388832  156.08900452    0.15000001    0.11000000
   19.05722237  157.22700500    0.15000001    0.11000000
   19.06027794  149.04400635    0.15000001    0.11000000
   19.06361008  151.89500427    0.15000001    0.11000000
   19.06666756  148.38699341    0.15000001    0.11000000
   19.07000160  136.05299377    0.15000001    0.11000000
   19.07083511  153.61199951    0.15000001    0.11000000
   19.07361221  150.85499573    0.15000001    0.11000000
   19.07666779  149.77600098    0.15000001    0.11000000
   19.08000183  139.72700500    0.15000001    0.11000000
   19.08611107  139.72700500    0.15000001    0.11000000
   19.09027863  150.34399414    0.15000001    0.11000000
   19.09333420  146.20300293    0.15000001    0.11000000
   19.09666824  150.91600037    0.15000001    0.11000000
   19.10000038  145.44299316    0.15000001    0.11000000
   19.10305595  152.85499573    0.15000001    0.11000000
   19.10416794  141.45599365    0.15000001    0.11000000
   19.10694504  145.08900452    0.15000001    0.11000000
   19.11000061  150.45700073    0.15000001    0.11000000
   19.11333466  153.16700745    0.15000001    0.11000000
   19.11666679  145.72999573    0.15000001    0.11000000
   19.11972237  150.00199890    0.15000001    0.11000000
   19.12305641  147.90899658    0.15000001    0.11000000
   19.12888908  147.90899658    0.15000001    0.11000000
   19.13305473  147.65199280    0.15000001    0.11000000
   19.13638878  137.94799805    0.15000001    0.11000000
   19.13750076  147.26100159    0.15000001    0.11000000
   19.13999939  146.23500061    0.15000001    0.11000000
   19.14305496  143.41099548    0.15000001    0.11000000
   19.14638901  150.48899841    0.15000001    0.11000000
   19.14972115  148.09500122    0.15000001    0.11000000
   19.15277672  155.19000244    0.15000001    0.11000000
   19.15611076  139.64799500    0.15000001    0.11000000
   19.15944481  142.30099487    0.15000001    0.11000000
   19.16250038  142.99499512    0.15000001    0.11000000
   19.16583252  155.07600403    0.15000001    0.11000000
   19.17194366  155.07600403    0.15000001    0.11000000
   19.17583275  149.64300537    0.15000001    0.11000000
   19.17916679  162.25599670    0.15000001    0.11000000
   19.18249893  151.32600403    0.15000001    0.11000000
   19.18555450  153.48899841    0.15000001    0.11000000
   19.18888855  148.21600342    0.15000001    0.11000000
   19.19222069  143.83200073    0.15000001    0.11000000
   19.19527626  132.16400146    0.15000001    0.11000000
   19.19861031  157.60600281    0.15000001    0.11000000
   19.20166779  157.19999695    0.15000001    0.11000000
   19.20416832  157.23199463    0.15000001    0.11000000
   19.20555687  156.78500366    0.15000001    0.11000000
   19.20888901  148.77499390    0.15000001    0.11000000
   19.21472359  148.77499390    0.15000001    0.11000000
   19.21888924  169.53700256    0.15000001    0.11000000
   19.22194481  158.67700195    0.15000001    0.11000000
   19.22527885  174.68299866    0.15000001    0.11000000
   19.22861099  166.61500549    0.15000001    0.11000000
   19.23166656  177.30499268    0.15000001    0.11000000
   19.23500061  192.33299255    0.15000001    0.11000000
   19.23750114  272.28799438    0.15000001    0.11000000
   19.23861122  255.91999817    0.15000001    0.11000000
   19.24194527  368.66699219    0.15000001    0.11000000
   19.24500084  322.30398560    0.15000001    0.11000000
   19.24833298  387.50601196    0.15000001    0.11000000
   19.25138855  398.83599854    0.15000001    0.11000000
   19.25749969  398.83599854    0.15000001    0.11000000
   19.26166725  397.35299683    0.15000001    0.11000000
   19.26499939  453.81900024    0.15000001    0.11000000
   19.26694489  419.65701294    0.15000001    0.11000000
   19.26805496  479.39700317    0.15000001    0.11000000
   19.26944351  465.22000122    0.15000001    0.11000000
   19.27083397  459.49099731    0.15000001    0.11000000
   19.27222252  508.74398804    0.15000001    0.11000000
   19.27361107  462.22500610    0.15000001    0.11000000
   19.27499962  461.44500732    0.15000001    0.11000000
   19.27638817  483.13500977    0.15000001    0.11000000
   19.27777672  447.34201050    0.15000001    0.11000000
   19.27916718  449.06799316    0.15000001    0.11000000
   19.28055573  415.33401489    0.15000001    0.11000000
   19.28194427  438.29299927    0.15000001    0.11000000
   19.28333282  448.04598999    0.15000001    0.11000000
   19.28472137  451.21798706    0.15000001    0.11000000
   19.28610992  466.63500977    0.15000001    0.11000000
   19.28750038  513.11700439    0.15000001    0.11000000
   19.28888893  479.64300537    0.15000001    0.11000000
   19.29027748  417.95199585    0.15000001    0.11000000
   19.29194450  467.23098755    0.15000001    0.11000000
   19.29305458  468.34899902    0.15000001    0.11000000
   19.29444313  436.94601440    0.15000001    0.11000000
   19.29583359  476.55801392    0.15000001    0.11000000
   19.29722214  373.31100464    0.15000001    0.11000000
   19.29861069  396.02700806    0.15000001    0.11000000
   19.29999924  424.65301514    0.15000001    0.11000000
   19.30138779  396.35299683    0.15000001    0.11000000
   19.30277634  369.97299194    0.15000001    0.11000000
   19.30416679  411.15200806    0.15000001    0.11000000
   19.30555534  423.07998657    0.15000001    0.11000000
   19.30694389  411.25601196    0.15000001    0.11000000
   19.30833244  530.96099854    0.15000001    0.11000000
   19.30972099  448.54098511    0.15000001    0.11000000
   19.31110954  490.46398926    0.15000001    0.11000000
   19.31250000  435.17199707    0.15000001    0.11000000
   19.31388855  461.96398926    0.15000001    0.11000000
   19.31527710  444.14099121    0.15000001    0.11000000
   19.31666756  462.82901001    0.15000001    0.11000000
   19.31805611  527.64300537    0.15000001    0.11000000
   19.31944466  501.25000000    0.15000001    0.11000000
   19.32139015  515.55700684    0.15000001    0.11000000
   19.32222366  524.24700928    0.15000001    0.11000000
   19.32361221  511.24499512    0.15000001    0.11000000
   19.32500076  495.35400391    0.15000001    0.11000000
   19.32638931  446.57101440    0.15000001    0.11000000
   19.32777786  477.97900391    0.15000001    0.11000000
   19.32916832  492.46701050    0.15000001    0.11000000
   19.33055687  492.83599854    0.15000001    0.11000000
   19.33194542  505.05499268    0.15000001    0.11000000
   19.33333397  520.59802246    0.15000001    0.11000000
   19.33472252  517.82000732    0.15000001    0.11000000
   19.33611107  507.75601196    0.15000001    0.11000000
   19.33750153  486.42300415    0.15000001    0.11000000
   19.33889008  462.48199463    0.15000001    0.11000000
   19.34027863  476.75799561    0.15000001    0.11000000
   19.34166718  470.67999268    0.15000001    0.11000000
   19.34305573  464.74600220    0.15000001    0.11000000
   19.34444427  484.06399536    0.15000001    0.11000000
   19.34583473  473.73901367    0.15000001    0.11000000
   19.34722328  478.93798828    0.15000001    0.11000000
   19.34861183  438.42098999    0.15000001    0.11000000
   19.35000038  462.80200195    0.15000001    0.11000000
   19.35138893  453.91500854    0.15000001    0.11000000
   19.35277748  442.97900391    0.15000001    0.11000000
   19.35416794  460.92401123    0.15000001    0.11000000
   19.35555649  406.51901245    0.15000001    0.11000000
   19.35694504  401.49200439    0.15000001    0.11000000
   19.35833359  392.57699585    0.15000001    0.11000000
   19.35972214  387.67800903    0.15000001    0.11000000
   19.36111069  410.85400391    0.15000001    0.11000000
   19.36250114  396.25399780    0.15000001    0.11000000
   19.36388969  391.78298950    0.15000001    0.11000000
   19.36527824  398.90701294    0.15000001    0.11000000
   19.36666679  401.15200806    0.15000001    0.11000000
   19.36805534  403.58700562    0.15000001    0.11000000
   19.36944389  458.55999756    0.15000001    0.11000000
   19.37083435  462.27301025    0.15000001    0.11000000
   19.37222290  423.40600586    0.15000001    0.11000000
   19.37361145  394.44000244    0.15000001    0.11000000
   19.37500000  373.83401489    0.15000001    0.11000000
   19.37666702  417.91799927    0.15000001    0.11000000
   19.37777710  375.25601196    0.15000001    0.11000000
   19.37916756  401.66598511    0.15000001    0.11000000
   19.38055611  399.53601074    0.15000001    0.11000000
   19.38194466  392.65200806    0.15000001    0.11000000
   19.38333321  393.11801147    0.15000001    0.11000000
   19.38472176  436.12100220    0.15000001    0.11000000
   19.38611031  371.92199707    0.15000001    0.11000000
   19.38750076  337.83700562    0.15000001    0.11000000
   19.38777733  398.83599854    0.15000001    0.11000000
   19.38777733  397.35299683    0.15000001    0.11000000
   19.38777733  453.81900024    0.15000001    0.11000000
   19.38805580  177.30499268    0.15000001    0.11000000
   19.38805580  192.33299255    0.15000001    0.11000000
   19.38805580  255.91999817    0.15000001    0.11000000
   19.38833237  368.66699219    0.15000001    0.11000000
   19.38833237  322.30398560    0.15000001    0.11000000
   19.38861084  387.50601196    0.15000001    0.11000000
   19.38916588  359.99398804    0.15000001    0.11000000
   19.39222145  358.72100830    0.15000001    0.11000000
   19.39555550  367.47799683    0.15000001    0.11000000
   19.39861107  360.42300415    0.15000001    0.11000000
   19.40194321  340.14300537    0.15000001    0.11000000
   19.40833282  340.14300537    0.15000001    0.11000000
   19.41250038  296.63198853    0.15000001    0.11000000
   19.41583252  322.54000854    0.15000001    0.11000000
   19.41888809  272.73999023    0.15000001    0.11000000
   19.42138863  258.05599976    0.15000001    0.11000000
   19.42277718  261.11898804    0.15000001    0.11000000
   19.42611122  289.93499756    0.15000001    0.11000000
   19.42916679  258.55499268    0.15000001    0.11000000
   19.43249893  284.06399536    0.15000001    0.11000000
   19.43555450  272.53500366    0.15000001    0.11000000
   19.43888855  262.76000977    0.15000001    0.11000000
   19.44222069  255.73300171    0.15000001    0.11000000
   19.44527626  259.90600586    0.15000001    0.11000000
   19.45138931  259.90600586    0.15000001    0.11000000
   19.45527840  239.08399963    0.15000001    0.11000000
   19.45861244  253.62399292    0.15000001    0.11000000
   19.46194458  242.71600342    0.15000001    0.11000000
   19.46500015  218.12500000    0.15000001    0.11000000
   19.46833420  215.62699890    0.15000001    0.11000000
   19.47166634  239.42300415    0.15000001    0.11000000
   19.47472191  231.53500366    0.15000001    0.11000000
   19.47805595  207.09199524    0.15000001    0.11000000
   19.48111153  183.60000610    0.15000001    0.11000000
   19.48444557  187.88400269    0.15000001    0.11000000
   19.48777771  168.01699829    0.15000001    0.11000000
   19.48833275  187.43299866    0.15000001    0.11000000
   19.49416733  187.43299866    0.15000001    0.11000000
   19.49833298  158.96000671    0.15000001    0.11000000
   19.50138855  161.55900574    0.15000001    0.11000000
   19.52111053  168.92799377    0.15000001    0.11000000
   19.52166557  160.21699524    0.15000001    0.11000000
   19.52472115  166.62899780    0.15000001    0.11000000
   19.52777672  163.46099854    0.15000001    0.11000000
   19.53111076  152.82899475    0.15000001    0.11000000
   19.53694344  152.82899475    0.15000001    0.11000000
   19.54111099  142.79100037    0.15000001    0.11000000
   19.54444313  151.54499817    0.15000001    0.11000000
   19.54749870  148.30799866    0.15000001    0.11000000
   19.55083275  150.60200500    0.15000001    0.11000000
   19.55416679  156.63200378    0.15000001    0.11000000
   19.55499840  170.84700012    0.15000001    0.11000000
   19.55777740  160.22399902    0.15000001    0.11000000
   19.56110954  157.96600342    0.15000001    0.11000000
   19.56416512  159.02099609    0.15000001    0.11000000
   19.56750107  168.07400513    0.15000001    0.11000000
   19.57083511  158.22500610    0.15000001    0.11000000
   19.57389069  154.39900208    0.15000001    0.11000000
   19.57972336  154.39900208    0.15000001    0.11000000
   19.58388901  171.64700317    0.15000001    0.11000000
   19.58722305  155.86700439    0.15000001    0.11000000
   19.58833313  155.21499634    0.15000001    0.11000000
   19.59083366  168.76199341    0.15000001    0.11000000
   19.59416771  167.52299500    0.15000001    0.11000000
   19.59722328  176.42300415    0.15000001    0.11000000
   19.60055542  174.05299377    0.15000001    0.11000000
   19.60361099  188.85200500    0.15000001    0.11000000
   19.60694504  183.00700378    0.15000001    0.11000000
   19.61027908  185.64399719    0.15000001    0.11000000
   19.61333466  191.88699341    0.15000001    0.11000000
   19.61666679  202.97200012    0.15000001    0.11000000
   19.62277794  202.97200012    0.15000001    0.11000000
   19.62694550  198.79899597    0.15000001    0.11000000
   19.63000107  194.94799805    0.15000001    0.11000000
   19.63333321  213.09899902    0.15000001    0.11000000
   19.63638878  189.45799255    0.15000001    0.11000000
   19.63972282  196.43699646    0.15000001    0.11000000
   19.64305496  188.91900635    0.15000001    0.11000000
   19.64638901  195.10200500    0.15000001    0.11000000
   19.64944458  206.21899414    0.15000001    0.11000000
   19.65277672  185.02400208    0.15000001    0.11000000
   19.65499878  186.01199341    0.15000001    0.11000000
   19.65638924  192.62699890    0.15000001    0.11000000
   19.65972137  184.33799744    0.15000001    0.11000000
   19.66555595  184.33799744    0.15000001    0.11000000
   19.66972160  214.99499512    0.15000001    0.11000000
   19.67277718  218.16499329    0.15000001    0.11000000
   19.67611122  205.22999573    0.15000001    0.11000000
   19.67944336  205.03100586    0.15000001    0.11000000
   19.68249893  209.23699951    0.15000001    0.11000000
   19.68583298  192.38999939    0.15000001    0.11000000
   19.68833160  208.23699951    0.15000001    0.11000000
   19.68944359  215.55999756    0.15000001    0.11000000
   19.69277763  232.02099609    0.15000001    0.11000000
   19.69583321  242.87399292    0.15000001    0.11000000
   19.69916534  258.40499878    0.15000001    0.11000000
   19.70222282  285.06399536    0.15000001    0.11000000
   19.70833397  285.06399536    0.15000001    0.11000000
   19.71250153  333.25299072    0.15000001    0.11000000
   19.71583366  331.67098999    0.15000001    0.11000000
   19.71888924  206.24699402    0.15000001    0.11000000
