    HOUR (UT)   FLARE FACTOR    SKY TESTER    SUN TESTER
   11.59361076   -1.00000000   -1.00000000   -1.00000000
   11.62138939   -1.00000000    0.07000000    0.19000000
   11.62472248   -1.00000000    0.07000000    0.19000000
   11.62777805   -1.00000000    0.07000000    0.19000000
   11.63111115   -1.00000000    0.09000000    0.17000000
   11.63416672   -1.00000000    0.09000000    0.17000000
   11.64249992   -1.00000000    0.13000000    0.19000000
   11.64583302   -1.00000000    0.13000000    0.19000000
   11.64888859   -1.00000000    0.15000001    0.19000000
   11.65249920   -1.00000000    0.15000001    0.19000000
   11.65555477   -1.00000000    0.17000000    0.19000000
   11.65888882   -1.00000000    0.19000000    0.17000000
   11.66222191   -1.00000000    0.20999999    0.17000000
   11.66527748   -1.00000000    0.20999999    0.19000000
   11.66861153   -1.00000000    0.23000000    0.19000000
   11.67194462   -1.00000000    0.23000000    0.19000000
   11.67500019   -1.00000000    0.25000000    0.20999999
   11.68138885   -1.00000000    0.28000000    0.20999999
   11.68555546   -1.00000000    0.30000001    0.19000000
   11.68861103   -1.00000000    0.31999999    0.19000000
   11.69194412   -1.00000000    0.34000000    0.19000000
   11.69527817   -1.00000000    0.36000001    0.19000000
   11.69833374   -1.00000000    0.38000000    0.20999999
   11.70166683   -1.00000000    0.40000001    0.20999999
   11.70499992   -1.00000000    0.40000001    0.20999999
   11.70805550   -1.00000000    0.44000000    0.20999999
   11.71138859   -1.00000000    0.44000000    0.20999999
   11.71444416   -1.00000000    0.46000001    0.19000000
   11.71777725   -1.00000000    0.47999999    0.19000000
   11.72416592   -1.00000000    0.51999998    0.20999999
   11.72833252   -1.00000000    0.52999997    0.20999999
   11.73138809   -1.00000000    0.55000001    0.20999999
   11.73472214   -1.00000000    0.56999999    0.20999999
   11.73805618   -1.00000000    0.58999997    0.23000000
   11.74111176   -1.00000000    0.61000001    0.23000000
   11.74444485   -1.00000000   -1.00000000   -1.00000000
   11.74750042   -1.00000000   -1.00000000   -1.00000000
   11.75083351   -1.00000000    0.67000002    0.23000000
   11.75416660   -1.00000000    0.69000000    0.20999999
   11.75749969   -1.00000000    0.69000000    0.19000000
   11.76083374   -1.00000000    0.70999998    0.19000000
   11.76694393   -1.00000000    0.75000000    0.20999999
   11.77111053   -1.00000000    0.76999998    0.23000000
   11.77416611   -1.00000000    0.79000002    0.20999999
   11.77750015   -1.00000000    0.80000001    0.23000000
   11.78083324   -1.00000000    0.81999999    0.23000000
   11.78416729   60.93539810    0.83999997    0.23000000
   11.78500080   93.43759918    0.83999997    0.23000000
   11.78777790  109.20200348    0.86000001    0.25000000
   11.79083347  208.43499756    0.88000000    0.25000000
   11.79416752  219.03799438    0.89999998    0.25999999
   11.79750061  205.18200684    0.92000002    0.28000000
   11.80055618  199.20199585    0.94000000    0.28000000
   11.80388927  178.39700317    0.95999998    0.30000001
   11.80972195  178.39700317    1.00000000    0.30000001
   11.81388950  197.49600220    1.01999998    0.31999999
   11.81722260  171.04600525    1.01999998    0.31999999
   11.81833363  174.54400635    1.03999996    0.31999999
   11.82083321  159.75900269    1.03999996    0.34000000
   11.82388878  159.16999817    1.05999994    0.34000000
   11.82722187  146.09199524    1.05999994    0.34000000
   11.83055592  141.48100281    1.07000005    0.34000000
   11.83361053  149.56399536    1.07000005    0.34000000
   11.83694458  140.22500610    1.09000003    0.34000000
   11.84000015  146.00599670    1.09000003    0.34000000
   11.84333324  159.60899353    1.09000003    0.34000000
   11.84666634  155.34700012    1.09000003    0.34000000
   11.85249996  155.34700012    1.11000001    0.34000000
   11.85666752  148.81199646    1.11000001    0.36000001
   11.86000061  151.53100586    1.11000001    0.34000000
   11.86333370  150.96499634    1.11000001    0.34000000
   11.86638927  174.58299255    1.11000001    0.34000000
   11.86972237  146.46200562    1.09000003    0.34000000
   11.87305546  164.97999573    1.09000003    0.34000000
   11.87611103  149.97999573    1.07000005    0.34000000
   11.87944412  153.52000427    1.05999994    0.34000000
   11.88249969  137.07899475    1.05999994    0.36000001
   11.88500023  167.44700623    1.03999996    0.36000001
   11.88638878  157.57899475    1.03999996    0.34000000
   11.88944435  145.45799255    1.01999998    0.36000001
   11.89555550  145.45799255    0.95999998    0.36000001
   11.89972210  145.93299866    0.92000002    0.36000001
   11.90277767  153.23100281    0.89999998    0.36000001
   11.90611076  158.39700317    0.88000000    0.36000001
   11.90916634  143.35899353    0.86000001    0.34000000
   11.91249943  136.85400391    0.83999997    0.36000001
   11.91583252  148.75399780    0.80000001    0.36000001
   11.91833401  139.56500244    0.79000002    0.36000001
   11.91944504  141.00199890    0.79000002    0.36000001
   11.92250061  141.33299255    0.76999998    0.36000001
   11.92583370  152.80200195    0.75000000    0.36000001
   11.92916679  152.17599487    0.73000002    0.36000001
   11.93222237  147.91700745    0.70999998    0.36000001
   11.93833351  147.91700745    0.67000002    0.36000001
   11.94250011  145.97099304    0.64999998    0.36000001
   11.94583321  149.10400391    0.63000000    0.36000001
   11.94888878  149.39199829    0.63000000    0.36000001
   11.95166683  154.12399292    0.61000001    0.36000001
   11.95277786  144.14700317    0.61000001    0.36000001
   11.95583344  151.68299866    0.58999997    0.36000001
   11.95916653  137.34300232    0.58999997    0.36000001
   11.96249962  138.71200562    0.56999999    0.36000001
   11.96555519  140.14199829    0.56999999    0.36000001
   11.96888828  143.68400574    0.55000001    0.36000001
   11.97194386  142.56199646    0.55000001    0.36000001
   11.97527695  150.43699646    0.52999997    0.36000001
   11.98111057  150.43699646    0.51999998    0.36000001
   11.98527813  152.47799683    0.50000000    0.36000001
   11.98861122  147.61700439    0.50000000    0.36000001
   11.99166679  149.40400696    0.47999999    0.36000001
   11.99499989  141.69200134    0.47999999    0.36000001
   11.99833393  139.43600464    0.47999999    0.36000001
   12.00138855  140.99499512    0.46000001    0.34000000
   12.00472260  140.63999939    0.46000001    0.36000001
   12.00777817  148.31199646    0.46000001    0.36000001
   12.01111126  138.14399719    0.44000000    0.36000001
   12.01444435  149.85499573    0.44000000    0.36000001
   12.01749992  145.70899963    0.41999999    0.36000001
   12.01833344  150.90800476    0.41999999    0.36000001
   12.02388859  150.90800476    0.40000001    0.36000001
   12.02805519  145.84199524    0.40000001    0.36000001
   12.03138828  146.90100098    0.38000000    0.36000001
   12.03472233  145.40199280    0.38000000    0.36000001
   12.03777790  142.08599854    0.38000000    0.36000001
   12.04111195  140.20700073    0.38000000    0.36000001
   12.04416752  147.96699524    0.36000001    0.36000001
   12.04750061  148.71400452    0.36000001    0.36000001
   12.05083370  151.99699402    0.36000001    0.36000001
   12.05166721  143.45399475    0.36000001    0.36000001
   12.05444431  147.96800232    0.36000001    0.36000001
   12.05749989  143.19500732    0.34000000    0.36000001
   12.06083393  146.83799744    0.34000000    0.36000001
   12.06694412  146.83799744    0.34000000    0.36000001
   12.07111073  146.25599670    0.34000000    0.36000001
   12.07416630  154.25000000    0.31999999    0.36000001
   12.07750034  143.73100281    0.31999999    0.36000001
   12.08055592  144.09599304    0.31999999    0.36000001
   12.08388901  146.46200562    0.31999999    0.36000001
   12.08500004  150.21899414    0.31999999    0.36000001
   12.08749962  147.29400635    0.31999999    0.36000001
   12.09055519  136.38800049    0.31999999    0.36000001
   12.09388828  140.47700500    0.31999999    0.36000001
   12.09722233  144.48399353    0.31999999    0.36000001
   12.10027790  143.36700439    0.31999999    0.38000000
   12.10361195  139.59700012    0.31999999    0.38000000
   12.10972214  139.59700012    0.30000001    0.36000001
   12.11388969  149.58299255    0.30000001    0.38000000
   12.11694431  136.04600525    0.30000001    0.36000001
   12.11833382  140.12699890    0.30000001    0.36000001
   12.12083340  141.97000122    0.30000001    0.36000001
   12.12388897  140.91099548    0.30000001    0.36000001
   12.12722206  139.77000427    0.30000001    0.38000000
   12.13055611  142.71299744    0.30000001    0.38000000
   12.13361073  136.87800598    0.30000001    0.38000000
   12.13694477  136.68600464    0.30000001    0.38000000
   12.14027786  142.44700623    0.28000000    0.38000000
   12.14333344  139.30599976    0.28000000    0.38000000
   12.14666653  136.77000427    0.28000000    0.38000000
   12.15249920  136.77000427    0.28000000    0.38000000
   12.15666676  131.45399475    0.28000000    0.38000000
   12.15999985  133.31100464    0.28000000    0.38000000
   12.16305542  135.09599304    0.28000000    0.38000000
   12.16638851  139.45799255    0.28000000    0.38000000
   12.16972256  137.88299561    0.28000000    0.38000000
   12.17277813  139.91499329    0.25999999    0.38000000
   12.17611122  142.75700378    0.28000000    0.38000000
   12.17944431  176.26699829    0.28000000    0.38000000
   12.18249989  210.90299988    0.25999999    0.38000000
   12.18500042  183.36599731    0.25999999    0.38000000
   12.18611145  221.54699707    0.25999999    0.38000000
   12.18916702  204.03300476    0.25999999    0.38000000
   12.19527817  204.03300476    0.25999999    0.38000000
   12.19944477  241.87300110    0.25999999    0.38000000
   12.20277786  294.97299194    0.25999999    0.38000000
   12.20611095  266.64199829    0.25999999    0.38000000
   12.20916653  318.71200562    0.25999999    0.38000000
   12.21249962  337.93899536    0.25000000    0.38000000
   12.21555519  313.03900146    0.25000000    0.38000000
   12.21833324  321.90600586    0.25000000    0.38000000
   12.21944427  308.58401489    0.25000000    0.38000000
   12.22249985  313.22799683    0.25000000    0.38000000
   12.22583294  319.85299683    0.25000000    0.38000000
   12.22916603  307.09500122    0.25000000    0.38000000
   12.23222160  251.18400574    0.25000000    0.38000000
   12.23833370  251.18400574    0.25000000    0.38000000
   12.24250031  264.09100342    0.25000000    0.38000000
   12.24555588  247.53500366    0.25000000    0.38000000
   12.24888897  324.87799072    0.25000000    0.38000000
   12.25166702  267.10299683    0.25000000    0.38000000
   12.25249958  177.00500488    0.25000000    0.38000000
   12.25555515  183.35299683    0.23000000    0.38000000
   12.25888920  224.73399353    0.23000000    0.38000000
   12.26222229  234.69900513    0.23000000    0.38000000
   12.26527786  194.80700684    0.23000000    0.38000000
   12.26861095  219.29600525    0.23000000    0.38000000
   12.27194405  193.24499512    0.23000000    0.40000001
   12.27499962  207.77999878    0.23000000    0.40000001
   12.28111076  207.77999878    0.23000000    0.38000000
   12.28527832  162.53500366    0.23000000    0.38000000
   12.28833389  179.61300659    0.23000000    0.38000000
   12.29166698  269.90600586    0.23000000    0.38000000
   12.29500008  244.32800293    0.23000000    0.40000001
   12.29833412  220.85800171    0.23000000    0.40000001
   12.30138874  259.34698486    0.23000000    0.40000001
   12.30472279  222.57099915    0.23000000    0.40000001
   12.30805588  199.06300354    0.23000000    0.38000000
   12.31111145  226.13099670    0.23000000    0.38000000
   12.31444454  192.35000610    0.23000000    0.40000001
   12.31750011  172.47000122    0.23000000    0.40000001
   12.31833363  147.88800049    0.23000000    0.40000001
   12.32388878  147.88800049    0.20999999    0.40000001
   12.32805538  175.08099365    0.20999999    0.40000001
   12.33138847  146.67799377    0.20999999    0.40000001
   12.33444405  165.18800354    0.20999999    0.40000001
   12.33777714  146.19599915    0.20999999    0.40000001
   12.34083271  139.55700684    0.20999999    0.40000001
   12.34416676  137.21899414    0.20999999    0.40000001
   12.34749985  145.74699402    0.20999999    0.40000001
   12.35055637  133.43400574    0.20999999    0.40000001
   12.35166740  137.19799805    0.20999999    0.40000001
   12.35416698  136.59800720    0.20999999    0.40000001
   12.35722256  136.38299561    0.20999999    0.40000001
   12.36055565  151.27099609    0.20999999    0.40000001
   12.36666679  151.27099609    0.20999999    0.40000001
   12.37083340  154.32899475    0.20999999    0.40000001
   12.37416649  155.49200439    0.20999999    0.40000001
   12.37722206  139.99499512    0.20999999    0.40000001
   12.38055611  144.86700439    0.19000000    0.40000001
   12.38388920  135.09599304    0.20999999    0.40000001
   12.38500023  137.15100098    0.20999999    0.40000001
   12.38749981  134.45300293    0.20999999    0.40000001
   12.39055538  133.64799500    0.19000000    0.40000001
   12.39388847  132.19999695    0.19000000    0.40000001
   12.39722252  143.58500671    0.19000000    0.40000001
   12.40027714  131.45199585    0.19000000    0.40000001
   12.40361118  139.31199646    0.19000000    0.40000001
   12.40972137  139.31199646    0.19000000    0.40000001
   12.41361046  136.84800720    0.19000000    0.40000001
   12.41694450  135.14399719    0.19000000    0.40000001
   12.41833401  134.19299316    0.19000000    0.40000001
   12.42055607  132.37100220    0.19000000    0.38000000
   12.42361164  135.71299744    0.19000000    0.40000001
   12.42694473  136.19099426    0.19000000    0.40000001
   12.43027782  130.43200684    0.19000000    0.40000001
   12.43333340  133.45399475    0.19000000    0.40000001
   12.43666649  129.40400696    0.19000000    0.40000001
   12.44000053  136.25100708    0.19000000    0.40000001
   12.44305515  131.14300537    0.19000000    0.40000001
   12.44638920  133.50500488    0.19000000    0.40000001
   12.45249939  133.50500488    0.19000000    0.40000001
   12.45666695  128.16400146    0.19000000    0.40000001
   12.45972157  131.67700195    0.19000000    0.40000001
   12.46305561  125.33999634    0.19000000    0.40000001
   12.46638870  127.46199799    0.19000000    0.40000001
   12.46944427  128.17300415    0.19000000    0.40000001
   12.47277737  134.69599915    0.19000000    0.40000001
   12.47583294  128.19000244    0.17000000    0.40000001
   12.47916603  129.60899353    0.19000000    0.40000001
   12.48249912  132.76899719    0.19000000    0.40000001
   12.48500061  131.11099243    0.17000000    0.40000001
   12.48611164  130.04899597    0.17000000    0.40000001
   12.48916721  133.78300476    0.17000000    0.40000001
   12.49527836  133.78300476    0.17000000    0.40000001
   12.49944496  131.29200745    0.17000000    0.40000001
   12.50277805  134.13600159    0.17000000    0.40000001
   12.50583363  132.65100098    0.17000000    0.40000001
   12.50916672  129.47200012    0.17000000    0.40000001
   12.51222229  133.69999695    0.17000000    0.40000001
   12.51555538  131.12399292    0.17000000    0.40000001
   12.51833344  130.98100281    0.17000000    0.40000001
   12.51916599  130.80299377    0.17000000    0.40000001
   12.52222157  132.94999695    0.17000000    0.40000001
   12.52555561  132.38800049    0.17000000    0.40000001
   12.52888870  134.69099426    0.17000000    0.40000001
   12.53194427  127.82800293    0.17000000    0.40000001
   12.53805637  127.82800293    0.17000000    0.40000001
   12.54222298  128.37800598    0.17000000    0.40000001
   12.54555607  128.68600464    0.17000000    0.40000001
   12.54888916  125.70300293    0.17000000    0.40000001
   12.55166721  126.21099854    0.17000000    0.40000001
   12.55249977  130.36999512    0.17000000    0.40000001
   12.55555534  127.44899750    0.17000000    0.40000001
   12.55888939  132.16600037    0.17000000    0.40000001
   12.56222248  129.41900635    4.90999985    2.40000010
   12.56527805  131.94400024    0.38000000    2.36999989
   12.56861115  122.53700256    0.40000001    2.34999990
   12.57194424  112.54900360    0.40000001    2.36999989
   12.57499981  121.93599701    0.40000001    2.36999989
   12.58111095  121.93599701    0.40000001    2.36999989
   12.58500004  132.33500671    0.40000001    2.36999989
   12.58833313  132.39199829    0.40000001    2.39000010
   12.59166622  134.57600403    0.40000001    2.36999989
   12.59472179  125.00399780    0.40000001    2.36999989
   12.59805489  127.80500031    0.40000001    2.36999989
   12.60138893  120.39600372    0.40000001    2.39000010
   12.60444450  134.30400085    0.40000001    2.36999989
   12.60777855  124.55599976    0.40000001    2.39000010
   12.61083412  135.36599731    0.40000001    2.39000010
   12.61416721  119.09100342    0.40000001    2.36999989
   12.61750031  123.52100372    0.40000001    2.39000010
   12.61833382  138.34199524    0.40000001    2.39000010
   12.63916683  138.34199524    0.40000001    2.39000010
   12.64333344  165.21600342    0.40000001    2.39000010
   12.64638901  128.56799316    0.40000001    2.39000010
   12.64972210  128.50399780    0.40000001    2.40000010
   12.65166664  128.97700500    0.40000001    2.40000010
   12.65333271  127.85600281    0.40000001    2.40000010
   12.65666676  128.18699646    0.40000001    2.40000010
   12.65972137  132.15699768    0.40000001    2.39000010
   12.66305542  133.85899353    0.40000001    2.39000010
   12.66638851  129.00999451    0.40000001    2.40000010
   12.66944504  131.38699341    0.38000000    2.40000010
   12.67277813  129.34399414    0.40000001    2.40000010
   12.67583370  123.58699799    0.40000001    2.40000010
   12.68194485  123.58699799    0.40000001    2.40000010
   12.68611145  124.96900177    0.40000001    2.40000010
   12.68916702  125.52100372    0.38000000    2.40000010
   12.69250011  125.46299744    0.40000001    2.40000010
   12.69555569  127.62699890    0.40000001    2.40000010
   12.69888878  128.76600647    0.40000001    2.40000010
   12.70222187  123.52600098    0.40000001    2.40000010
   12.70527744  126.29199982    0.40000001    2.40000010
   12.70861053  131.92300415    0.40000001    2.40000010
   12.71194458  117.51100159    0.40000001    2.40000010
   12.71500015  119.56400299    0.40000001    2.40000010
   12.71833324  124.05300140    0.40000001    2.40000010
   12.71888828  123.46900177    0.40000001    2.40000010
   12.72472191  123.46900177    0.40000001    2.40000010
   12.72888851  117.75399780    0.38000000    2.42000008
   12.73194408  127.80400085    0.38000000    2.40000010
   12.73527813  119.04199982    0.38000000    2.40000010
   12.73861122  116.78399658    0.38000000    2.40000010
   12.74166679  125.01300049    0.38000000    2.40000010
   12.74499989  127.40799713    0.38000000    2.40000010
   12.74805546  120.50299835    0.38000000    2.40000010
   12.75138855  131.34599304    0.38000000    2.40000010
   12.75222206  121.74299622    0.38000000    2.40000010
   12.75500011  126.94999695    0.40000001    2.40000010
   12.75833321  126.20800018    0.40000001    2.40000010
   12.76166630  123.93000031    0.38000000    2.42000008
   12.76749992  123.93000031    0.40000001    2.40000010
   12.77166653  117.84500122    0.38000000    2.40000010
   12.77499962  127.26100159    0.38000000    2.40000010
   12.77805519  129.46200562    0.38000000    2.42000008
   12.78138828  127.95899963    0.38000000    2.42000008
   12.78472233  127.52999878    0.38000000    2.42000008
   12.78555584  120.13800049    0.38000000    2.42000008
   12.78805637  122.05100250    0.38000000    2.42000008
   12.79138947  120.51000214    0.38000000    2.42000008
   12.79472256  122.85199738    0.38000000    2.42000008
   12.79777813  122.80200195    0.38000000    2.42000008
   12.80111122  125.44499969    0.38000000    2.42000008
   12.80444431  122.44300079    0.38000000    2.42000008
   12.81027794  122.44300079    0.38000000    2.44000006
   12.81444454  126.85399628    0.38000000    2.44000006
   12.81777763  123.18299866    0.38000000    2.42000008
   12.81888866  126.02899933    0.38000000    2.42000008
   12.82138920  120.25399780    0.38000000    2.44000006
   12.82472229  124.65599823    0.38000000    2.44000006
   12.82805538  131.64900208    0.38000000    2.44000006
   12.83111095  127.68199921    0.38000000    2.44000006
   12.83444405  122.37100220    0.38000000    2.44000006
   12.83777714  122.39499664    0.38000000    2.42000008
   12.84083271  133.20899963    0.38000000    2.44000006
   12.84416676  133.46600342    0.38000000    2.44000006
   12.84749985  124.43900299    0.38000000    2.44000006
   12.85333347  124.43900299    0.38000000    2.44000006
   12.85722256  120.70999908    0.38000000    2.44000006
   12.86055565  120.74800110    0.38000000    2.44000006
   12.86388969  122.41400146    0.38000000    2.44000006
   12.86694431  122.78600311    0.38000000    2.44000006
   12.87027836  118.50299835    0.38000000    2.44000006
   12.87361145  115.83000183    0.38000000    2.44000006
   12.87666702  117.59899902    0.38000000    2.44000006
   12.88000011  119.47699738    0.38000000    2.44000006
   12.88333321  118.64900208    0.38000000    2.44000006
   12.88555527  113.61199951    0.38000000    2.44000006
   12.88666630  120.73899841    0.38000000    2.44000006
   12.89000034  117.69400024    0.38000000    2.46000004
   12.89611053  117.69400024    0.38000000    2.44000006
   12.90027714  116.59400177    0.38000000    2.46000004
   12.90333271  111.63600159    0.38000000    2.44000006
   12.90666676  117.65599823    0.38000000    2.44000006
   12.90999985  126.04499817    0.38000000    2.46000004
   12.91305542  127.73899841    0.38000000    2.44000006
   12.91638851  121.97100067    0.38000000    2.44000006
   12.91888905  124.65399933    0.38000000    2.46000004
   12.91972256  120.76200104    0.38000000    2.46000004
   12.92305565  119.70999908    0.38000000    2.46000004
   12.92638874  111.75900269    0.40000001    2.48000002
   12.92944431  116.82499695    0.40000001    2.46000004
   12.93277836  122.21199799    0.40000001    2.44000006
   12.93888855  122.21199799    0.40000001    2.46000004
   12.94305515  119.75099945    0.40000001    2.44000006
   12.94638920  112.02799988    0.40000001    2.46000004
   12.94944477  114.54299927    0.40000001    2.44000006
   12.95222187  113.10500336    0.40000001    2.46000004
   12.95333290  113.33100128    0.40000001    2.46000004
   12.95666695  126.10299683    0.38000000    2.48000002
   12.95972157  110.97399902    0.38000000    2.46000004
   12.96305561  119.43199921    0.38000000    2.46000004
   12.96611118  115.63700104    0.40000001    2.46000004
   12.96944427  113.77300262    0.40000001    2.46000004
   12.97277737  114.57900238    0.40000001    2.48000002
   12.97611046  120.69499969    0.40000001    2.46000004
   12.98166656  120.69499969    0.38000000    2.48000002
   12.98583317  124.80200195    0.38000000    2.46000004
   12.98916721  127.20700073    0.40000001    2.48000002
   12.99222279  123.53399658    0.40000001    2.46000004
   12.99555588  116.59700012    0.40000001    2.48000002
   12.99888897  114.17400360    0.40000001    2.48000002
   13.00194454  123.91600037    0.38000000    2.48000002
   13.00527763  120.00000000    0.38000000    2.48000002
   13.00861073  115.72599792    0.38000000    2.48000002
   13.01166630  108.93199921    0.38000000    2.48000002
   13.01500034  112.09899902    0.40000001    2.48000002
   13.01805496  116.01399994    0.40000001    2.48000002
   13.01888847  112.13099670    0.40000001    2.48000002
   13.02472210  112.13099670    0.40000001    2.46000004
   13.02888870  112.63600159    0.40000001    2.48000002
   13.03194427  114.85099792    0.40000001    2.48000002
   13.03527832  109.44000244    0.40000001    2.48000002
   13.03861141  115.29199982    0.40000001    2.48000002
   13.04166698  116.46399689    0.40000001    2.46000004
   13.04500008  122.65200043    0.40000001    2.48000002
   13.04805565  112.19799805    0.40000001    2.48000002
   13.05138874  119.78700256    0.40000001    2.48000002
   13.05222225  118.39800262    0.40000001    2.48000002
   13.05500031  125.14499664    0.40000001    2.48000002
   13.05833340  117.19200134    0.40000001    2.50000000
   13.06166649  113.39600372    0.40000001    2.50000000
   13.06750011  113.39600372    0.40000001    2.48000002
   13.07166672  124.83300018    0.40000001    2.48000002
   13.07472229  122.03900146    0.38000000    2.48000002
   13.07805538  119.92600250    0.40000001    2.48000002
   13.08138847  120.00099945    0.40000001    2.46000004
   13.08444405  111.32499695    0.40000001    2.48000002
   13.08555508  120.08899689    0.40000001    2.48000002
   13.08805561  120.84899902    0.40000001    2.48000002
   13.09138870  122.88700104    0.40000001    2.48000002
   13.09472179  112.98100281    0.38000000    2.48000002
   13.09777737  125.15599823    0.40000001    2.50000000
   13.10111141  118.01599884    0.40000001    2.50000000
   13.10444450  118.36100006    0.40000001    2.50000000
   13.11027813  118.36100006    0.41999999    2.50000000
   13.11444473  117.94000244    0.41999999    2.48000002
   13.11777782  113.91000366    0.41999999    2.50000000
   13.11888885  122.80000305    0.41999999    2.50000000
   13.12111092  118.59899902    0.41999999    2.50000000
   13.12444496  125.82399750    0.41999999    2.48000002
   13.12777805  114.65299988    0.41999999    2.50000000
   13.13083363  108.94499969    0.41999999    2.50000000
   13.13416672  116.83799744    0.40000001    2.50000000
   13.13749981  112.97000122    0.40000001    2.50000000
   13.14055538  114.30200195    0.41999999    2.48000002
   13.14388847  116.64800262    0.41999999    2.48000002
   13.14722252  122.14099884    0.41999999    2.50000000
   13.15305519  122.14099884    0.41999999    2.50000000
   13.15722179  110.81900024    0.41999999    2.50000000
   13.16055489  112.36399841    0.44000000    2.50000000
   13.16361046  118.49500275    0.41999999    2.51999998
   13.16694450  114.05899811    0.41999999    2.50000000
   13.17027855  109.45200348    0.41999999    2.50000000
   13.17333412  111.47499847    0.44000000    2.50000000
   13.17666721  113.49299622    0.41999999    2.50000000
   13.18000031  110.41000366    0.41999999    2.50000000
   13.18305588  109.85800171    0.41999999    2.50000000
   13.18555546  112.64800262    0.41999999    2.50000000
   13.18666649  113.73600006    0.41999999    2.50000000
   13.19000053  109.39700317    0.41999999    2.50000000
   13.19611073  109.39700317    0.41999999    2.51999998
   13.19999981  109.95500183    0.41999999    2.50000000
   13.20333290  114.26100159    0.41999999    2.50000000
   13.20666695  118.81900024    0.41999999    2.50000000
   13.20972157  113.00499725    0.41999999    2.50000000
   13.21305561  107.68000031    0.40000001    2.50000000
   13.21638870  108.19699860    0.40000001    2.51999998
   13.21888828  116.43199921    0.40000001    2.51999998
   13.21999931  114.51799774    0.40000001    2.51999998
   13.22333336  107.37400055    0.40000001    2.51999998
   13.22638798  110.88200378    0.40000001    2.51999998
   13.22972202  113.32800293    0.41999999    2.50000000
   13.23277760  114.00499725    0.41999999    2.50000000
   13.23888874  114.00499725    0.41999999    2.51999998
   13.24305534  116.08300018    0.40000001    2.50000000
   13.24611092  114.42299652    0.40000001    2.50000000
   13.24944496  113.91799927    0.40000001    2.51999998
   13.25222206  117.07800293    0.40000001    2.51999998
   13.25277805  117.69699860    0.40000001    2.51999998
   13.25611115  117.95400238    0.40000001    2.51999998
   13.25944424  116.71900177    0.40000001    2.51999998
   13.26249981  119.25900269    0.40000001    2.50000000
   13.26583290  115.00800323    0.40000001    2.50000000
   13.26916599  115.42700195    0.41999999    2.51999998
   13.27222157  116.27500153    0.41999999    2.51999998
   13.27555561  112.10099792    0.41999999    2.51999998
   13.28166676  112.10099792    0.41999999    2.51999998
   13.28583336  105.94499969    0.44000000    2.51999998
   13.28916740  105.49199677    0.44000000    2.51999998
   13.29222298  115.94599915    0.44000000    2.51999998
   13.29555607  115.84500122    0.44000000    2.51999998
   13.29861164  115.21499634    0.44000000    2.53999996
   13.30194473  101.73000336    0.44000000    2.53999996
   13.30527782  113.59700012    0.44000000    2.53999996
   13.30833340  113.34799957    0.44000000    2.51999998
   13.31166649  103.13200378    0.44000000    2.51999998
   13.31500053  119.76000214    0.44000000    2.51999998
   13.31805515  106.39199829    0.44000000    2.51999998
   13.31888866  114.58799744    0.44000000    2.51999998
   13.32444477  114.58799744    0.44000000    2.51999998
   13.32861137  109.65499878    0.44000000    2.51999998
   13.33194447  115.76300049    0.41999999    2.53999996
   13.33500004  112.52999878    0.44000000    2.51999998
   13.33833313  117.52600098    0.41999999    2.53999996
   13.34166622  115.83499908    0.41999999    2.53999996
   13.34472179  119.69200134    0.41999999    2.51999998
   13.34805489  108.28800201    0.41999999    2.51999998
   13.35138893  103.10500336    0.41999999    2.51999998
   13.35222244  114.60500336    0.41999999    2.51999998
   13.35500050  109.75299835    0.40000001    2.51999998
   13.35805607  103.53099823    0.40000001    2.53999996
   13.36138916  107.37599945    0.40000001    2.53999996
   13.36750031  107.37599945    0.40000001    2.53999996
   13.37138939  109.58599854    0.40000001    2.53999996
   13.37472248  111.23799896    0.40000001    2.53999996
   13.37805557  113.43000031    0.40000001    2.51999998
   13.38111115  108.14800262    0.40000001    2.53999996
   13.38444424  105.46800232    0.40000001    2.53999996
   13.38555527  116.18900299    0.40000001    2.51999998
   13.38805580  110.73600006    0.40000001    2.51999998
   13.39111137  104.13300323    0.40000001    2.51999998
   13.39444447  109.54000092    0.40000001    2.53999996
   13.39750004  108.22699738    0.40000001    2.53999996
   13.40083313  108.49400330    0.40000001    2.53999996
   13.40416622  115.48400116    0.40000001    2.55999994
   13.41027737  115.48400116    0.40000001    2.53999996
   13.41444397  112.08499908    0.40000001    2.53999996
   13.41750050  113.45600128    0.40000001    2.53999996
   13.41888905  110.41200256    0.40000001    2.53999996
   13.42138958  111.63500214    0.40000001    2.53999996
   13.42444515  112.53800201    0.40000001    2.53999996
   13.42777824  116.95999908    0.40000001    2.53999996
   13.43083382  112.82499695    0.40000001    2.53999996
   13.43416691  103.79699707    0.38000000    2.55999994
   13.43750000  111.39700317    0.38000000    2.55999994
   13.44055557  109.29900360    0.38000000    2.55999994
   13.44388866  108.16600037    0.38000000    2.53999996
   13.44694424  112.63600159    0.38000000    2.53999996
   13.45305538  112.63600159    0.38000000    2.55999994
   13.45722198  111.39299774    0.38000000    2.55999994
   13.46027756  115.74099731    0.38000000    2.55999994
   13.46361065  104.58899689    0.38000000    2.53999996
   13.46694374  109.49099731    0.38000000    2.55999994
   13.46999931  118.52400208    0.38000000    2.55999994
   13.47333336  111.79699707    0.38000000    2.55999994
   13.47666645  105.20400238    0.38000000    2.55999994
   13.47999954  107.98799896    0.38000000    2.55999994
   13.48305511  108.04599762    0.38000000    2.55999994
   13.48555565  110.38300323    0.38000000    2.55999994
   13.48694515  109.72799683    0.38000000    2.55999994
   13.49000072  102.82299805    0.38000000    2.53999996
   13.49583340  102.82299805    0.38000000    2.55999994
   13.50000000  101.57499695    0.38000000    2.55999994
   13.50333309  104.57399750    0.38000000    2.55999994
   13.50638866  103.93599701    0.38000000    2.55999994
   13.50972176  101.23400116    0.38000000    2.55999994
   13.51305580   94.97989655    0.38000000    2.55999994
   13.51611137  100.95800018    0.38000000    2.55999994
   13.51888847  101.35600281    0.36000001    2.55999994
   13.51999950  108.77200317    0.36000001    2.55999994
   13.52361107  100.09300232    0.36000001    2.55999994
   13.52666664  108.35299683    0.36000001    2.55999994
   13.52999973  105.81199646    0.36000001    2.55999994
   13.53305531  106.76699829    0.38000000    2.55999994
   13.53888893  106.76699829    0.38000000    2.55999994
   13.54277802   91.07879639    0.36000001    2.55999994
   13.54611111  108.64299774    0.38000000    2.55999994
   13.54944515  114.04799652    0.36000001    2.55999994
   13.55222225  115.36399841    0.36000001    2.55999994
   13.55305576   99.39969635    0.38000000    2.55999994
   13.55611134  107.74099731    0.38000000    2.55999994
   13.55944443  106.64299774    0.36000001    2.55999994
   13.56277752  108.41799927    0.38000000    2.55999994
   13.56583309  110.15200043    0.38000000    2.55999994
   13.56916618  105.66500092    0.38000000    2.55999994
   13.57250023  112.19499969    0.36000001    2.55999994
   13.57555580  114.28099823    0.36000001    2.55999994
   13.58166695  114.28099823    0.36000001    2.55999994
   13.58583260  108.16200256    0.38000000    2.53999996
   13.58888817  109.04900360    0.38000000    2.55999994
   13.59222221  113.32099915    0.38000000    2.57999992
   13.59527779  105.99600220    0.38000000    2.55999994
   13.59861088  112.71600342    0.38000000    2.55999994
   13.60194492  110.09700012    0.36000001    2.55999994
   13.60500050  101.22399902    0.36000001    2.55999994
   13.60833359  109.31600189    0.36000001    2.57999992
   13.61166668  104.58599854    0.36000001    2.57999992
   13.61472225  108.40100098    0.36000001    2.55999994
   13.61805534  111.52799988    0.36000001    2.55999994
   13.61888885  108.53099823    0.36000001    2.55999994
   13.62444496  108.53099823    0.38000000    2.55999994
   13.62861156  110.90200043    0.38000000    2.55999994
   13.63194466  110.50000000    0.40000001    2.55999994
   13.63500023  120.51799774    0.41999999    2.57999992
   13.65249920  113.23200226    0.36000001    2.57999992
   13.65499973  115.49199677    0.36000001    2.57999992
   13.65833282  115.12599945    0.36000001    2.57999992
   13.66138840  116.36499786    0.34000000    2.57999992
   13.66750050  116.36499786    0.34000000    2.57999992
   13.67166710  105.43900299    0.34000000    2.57999992
   13.67472267  111.31999969    0.36000001    2.57999992
   13.67805576  111.67900085    0.36000001    2.57999992
   13.68138885  114.18499756    0.38000000    2.57999992
   13.68444443  110.37400055    0.38000000    2.57999992
   13.68583298  110.77799988    0.38000000    2.57999992
   13.68833351  112.75900269    0.36000001    2.57999992
   13.69138908  109.90299988    0.36000001    2.57999992
   13.69472218  110.61699677    0.36000001    2.57999992
   13.69805527  105.55000305    0.38000000    2.59999990
   13.70111084  106.40100098    0.40000001    2.55999994
   13.70444393  106.95400238    0.41999999    2.57999992
   13.71027756  106.95400238    0.44000000    2.57999992
   13.71444416  110.15200043    0.46000001    2.57999992
   13.71749973   96.05850220    0.47999999    2.57999992
   13.71916580  106.81999969    0.47999999    2.57999992
   13.72138882  113.07299805    0.47999999    2.57999992
   13.72444439  104.10299683    0.47999999    2.57999992
   13.72777748  106.05300140    0.46000001    2.59999990
   13.73111057  112.01399994    0.46000001    2.57999992
   13.73416710  107.43900299    0.44000000    2.57999992
   13.73750019  112.04100037    0.44000000    2.57999992
   13.74055576  102.70600128    0.44000000    2.57999992
   13.74388885  112.03600311    0.44000000    2.57999992
   13.74722290  114.36799622    0.41999999    2.57999992
   13.75305557  114.36799622    0.40000001    2.57999992
   13.75722218  113.01899719    0.40000001    2.59999990
   13.76055527  107.31199646    0.38000000    2.57999992
   13.76361084  109.67199707    0.38000000    2.59999990
   13.76694393  106.25900269    0.38000000    2.57999992
   13.77027798  110.09200287    0.36000001    2.57999992
   13.77333355  102.82399750    0.36000001    2.57999992
   13.77666664  106.38500214    0.36000001    2.59999990
   13.77972221  100.99500275    0.36000001    2.59999990
   13.78305531  105.64600372    0.36000001    2.59999990
   13.78583336  102.46700287    0.38000000    2.59999990
   13.78666687  100.21900177    0.38000000    2.59999990
   13.79000092  101.47499847    0.41999999    2.59999990
   13.79583359  101.47499847    0.46000001    2.59999990
   13.80000019  103.21099854    0.46000001    2.59999990
   13.80333328  102.79499817    0.46000001    2.59999990
   13.80666733   89.71420288    0.47999999    2.59999990
   13.80972195  113.09500122    0.47999999    2.59999990
   13.81305599  104.30100250    0.47999999    2.59999990
   13.81611156  108.69000244    0.47999999    2.59999990
   13.81916618  106.03500366    0.44000000    2.59999990
   13.81999969  106.25700378    0.44000000    2.59999990
   13.82305527  102.96499634    0.40000001    2.59999990
   13.82638836  104.34600067    0.38000000    2.59999990
   13.82972240  100.96299744    0.38000000    2.59999990
   13.83277798  113.86299896    0.38000000    2.59999990
   13.83888817  113.86299896    0.38000000    2.59999990
   13.84305477  100.85900116    0.38000000    2.59999990
   13.84611034  106.87000275    0.38000000    2.59999990
   13.84944439  102.48300171    0.38000000    2.59999990
   13.85249996  106.34899902    0.38000000    2.59999990
   13.85305595  106.03299713    0.38000000    2.59999990
   13.85611153   94.48470306    0.40000001    2.59999990
   13.85944462  107.06700134    0.40000001    2.59999990
   13.86277771  106.95899963    0.40000001    2.59999990
   13.86583328  106.89600372    0.38000000    2.59999990
   13.86916637  102.60199738    0.38000000    2.59999990
   13.87250042  102.14499664    0.38000000    2.59999990
   13.87555599  108.81300354    0.38000000    2.59999990
   13.88166714  108.81300354    0.38000000    2.59999990
   13.88583279  107.15799713    0.40000001    2.59999990
   13.88638878  108.83499908    0.40000001    2.59999990
   13.88944435  101.14299774    0.40000001    2.59999990
   13.89305496  102.11799622    0.40000001    2.59999990
   13.89611053  109.11699677    0.40000001    2.59999990
   13.89944458  101.94300079    0.40000001    2.59999990
   13.90249920  101.27600098    0.38000000    2.59999990
   13.90583324  110.65899658    0.40000001    2.59999990
   13.90916634  115.10399628    0.40000001    2.59999990
   13.91222191  100.38500214    0.40000001    2.57999992
   13.91555500   96.96130371    0.40000001    2.57999992
   13.91888905  103.74199677    0.38000000    2.59999990
   13.91972256  106.56400299    0.38000000    2.59999990
   13.92444515  106.56400299    0.40000001    2.59999990
   13.92861176  102.98600006    0.40000001    2.59999990
   13.93194485  103.87699890    0.40000001    2.59999990
   13.93527794  102.09799957    0.41999999    2.59999990
   13.93833351  107.59200287    0.41999999    2.59999990
   13.94166660   93.96289825    0.41999999    2.59999990
   13.94472218  109.46700287    0.46000001    2.61999989
   13.94805527  105.49900055    0.47999999    2.59999990
   13.95138836  103.66999817    0.47999999    2.61999989
   13.95305538  103.79100037    0.47999999    2.59999990
   13.95472240   96.31880188    0.50000000    2.61999989
   13.95805550  112.50800323    0.50000000    2.59999990
   13.96138859  102.78500366    0.50000000    2.61999989
   13.96722221  102.78500366    0.50000000    2.61999989
   13.97138882  101.68000031    0.50000000    2.61999989
   13.97472191  113.65399933    0.50000000    2.61999989
   13.97805500  102.93800354    0.51999998    2.61999989
   13.98111057  105.74500275    0.52999997    2.61999989
   13.98444462  108.32800293    0.52999997    2.61999989
   13.98638916  104.84400177    0.52999997    2.61999989
   13.98805618  107.47100067    0.52999997    2.59999990
   13.99138927  103.88300323    0.52999997    2.61999989
   13.99472237  101.83000183    0.52999997    2.61999989
   13.99777794  103.99199677    0.51999998    2.59999990
   14.00111103  106.87999725    0.52999997    2.61999989
   14.00416660  101.46499634    0.63000000    2.61999989
   14.01027775  101.46499634    0.70999998    2.61999989
   14.01444435  110.69200134    0.70999998    2.61999989
   14.01749992  106.01100159    0.69000000    2.61999989
   14.01972198  103.28199768    0.69000000    2.61999989
   14.02111053  106.60700226    0.63000000    2.61999989
   14.02444458  107.27899933    0.58999997    2.61999989
   14.02777767  100.04599762    0.56999999    2.59999990
   14.03083324  100.29100037    0.56999999    2.59999990
   14.03416729  101.06900024    0.56999999    2.61999989
   14.03722286   98.48670197    0.58999997    2.61999989
   14.04055595   91.48130035    0.58999997    2.61999989
   14.04388905  101.31300354    0.56999999    2.61999989
   14.04694462   85.38120270    0.55000001    2.59999990
   14.05305576   85.38120270    0.61000001    2.64000010
   14.05722237  103.62400055    0.61000001    2.61999989
   14.06027794  105.17600250    0.56999999    2.59999990
   14.06361103   97.64099884    0.52999997    2.61999989
   14.06694412  100.27100372    0.50000000    2.61999989
   14.06999969   90.16429901    0.47999999    2.61999989
   14.07333374   97.87809753    0.47999999    2.61999989
   14.07666683   98.37590027    0.47999999    2.61999989
   14.07972240  102.65000153    0.46000001    2.64000010
   14.08305550   98.49340057    0.46000001    2.64000010
   14.08638859  112.38400269    0.47999999    2.61999989
   14.08666611   92.24430084    0.47999999    2.61999989
   14.09000015   96.29139709    0.47999999    2.61999989
   14.09583282   96.29139709    0.50000000    2.61999989
   14.10000038   98.59279633    0.50000000    2.64000010
   14.10333347  101.28600311    0.50000000    2.61999989
   14.10666752   97.64009857    0.50000000    2.61999989
   14.10972214   97.06649780    0.50000000    2.61999989
   14.11305618  105.31900024    0.47999999    2.61999989
   14.11611176   97.09349823    0.47999999    2.61999989
   14.11944485  100.55999756    0.47999999    2.61999989
   14.11999989  103.28299713    0.47999999    2.61999989
   14.12333393  104.69300079    0.46000001    2.61999989
   14.12638855  107.94400024    0.46000001    2.61999989
   14.12972260   97.51509857    0.47999999    2.61999989
   14.13277817  109.73200226    0.47999999    2.61999989
   14.13861084  109.73200226    0.50000000    2.61999989
   14.14277744  106.93900299    0.51999998    2.61999989
   14.14611053  103.42099762    0.52999997    2.64000010
   14.14944458  108.80599976    0.51999998    2.64000010
   14.15249920  102.93199921    0.51999998    2.64000010
   14.15333271   98.03500366    0.50000000    2.64000010
   14.15638828   90.60379791    0.50000000    2.64000010
   14.15972137   96.33860016    0.50000000    2.64000010
   14.16305542   99.54540253    0.51999998    2.61999989
   14.16638851   94.73989868    0.50000000    2.64000010
   14.16944504   99.22219849    0.47999999    2.61999989
   14.17277813   96.57649994    0.46000001    2.64000010
   14.17583370  101.66300201    0.46000001    2.64000010
   14.18166733  101.66300201    0.46000001    2.64000010
   14.18583298  101.09700012    0.44000000    2.64000010
   14.18666649   93.66259766    0.44000000    2.64000010
   14.18944454  101.64299774    0.41999999    2.64000010
   14.19250011  104.65100098    0.40000001    2.64000010
   14.19583321  100.40299988    0.40000001    2.64000010
   14.19888878  101.71099854    0.40000001    2.64000010
   14.20222187  106.23000336    0.40000001    2.64000010
   14.20555496  103.66799927    0.41999999    2.64000010
   14.20861053  109.59999847    0.40000001    2.64000010
   14.21194458  106.24299622    0.40000001    2.64000010
   14.21527767  108.64099884    0.38000000    2.64000010
   14.21833324  106.39600372    0.36000001    2.64000010
   14.21999931   91.96050262    0.36000001    2.64000010
   14.22444439   91.96050262    0.36000001    2.64000010
   14.22861099  104.65100098    0.34000000    2.64000010
   14.23166656  109.62500000    0.34000000    2.64000010
   14.23500061   99.42160034    0.34000000    2.64000010
   14.23833370  109.32099915    0.34000000    2.64000010
   14.24166679  104.32800293    0.31999999    2.64000010
   14.24472237  102.12300110    0.31999999    2.64000010
   14.24805546   98.95860291    0.31999999    2.64000010
   14.25138855  105.77300262    0.31999999    2.64000010
   14.25333309  101.87799835    0.30000001    2.64000010
   14.25500011  100.70200348    0.30000001    2.64000010
   14.25805569  106.38300323    0.31999999    2.66000009
   14.26138878  110.06999969    0.30000001    2.64000010
   14.26722240  110.06999969    0.30000001    2.64000010
   14.27138901  105.13999939    0.30000001    2.64000010
   14.27472210  101.62999725    0.30000001    2.64000010
   14.27777767   94.45850372    0.31999999    2.64000010
   14.28111076  105.25299835    0.31999999    2.64000010
   14.28416729   97.89579773    0.31999999    2.64000010
   14.28666687  102.91899872    0.34000000    2.64000010
   14.28805637  114.52400208    0.34000000    2.64000010
   14.29111195  139.44900513    0.34000000    2.64000010
   14.29444504  129.73800659    0.34000000    2.64000010
   14.29750061  113.86399841    0.34000000    2.64000010
   14.30083370  103.91500092    0.34000000    2.64000010
   14.30416679   98.64140320    0.34000000    2.66000009
   14.31000042   98.64140320    0.31999999    2.64000010
   14.31416702  101.08999634    0.31999999    2.64000010
   14.31750011   88.64160156    0.31999999    2.64000010
   14.31999969  102.64800262    0.30000001    2.64000010
   14.32111073   97.01390076    0.30000001    2.64000010
   14.32416630  103.83599854    0.30000001    2.64000010
   14.32750034   96.28700256    0.30000001    2.64000010
   14.33055592   98.98829651    0.30000001    2.64000010
   14.33388901   88.56199646    0.30000001    2.64000010
   14.33722210  105.06999969    0.30000001    2.64000010
   14.34027767   95.48010254    0.31999999    2.66000009
   14.34361076   97.28220367    0.38000000    2.64000010
   14.34694386   96.47959900    0.38000000    2.64000010
   14.35305595   96.47959900    0.38000000    2.66000009
   14.35722256  105.96900177    0.38000000    2.64000010
   14.36027813   96.60140228    0.38000000    2.64000010
   14.36361122  104.87500000    0.38000000    2.64000010
   14.36666679   98.85780334    0.36000001    2.64000010
   14.36999989   93.91790009    0.36000001    2.64000010
   14.37333393   99.43070221    0.36000001    2.66000009
   14.37638855   98.78820038    0.36000001    2.66000009
   14.37972260   99.31960297    0.31999999    2.64000010
   14.38305569   95.84339905    0.30000001    2.64000010
   14.38611126  103.22699738    0.30000001    2.66000009
   14.38805580  104.16100311    0.30000001    2.64000010
   14.38972187  101.43099976    0.30000001    2.66000009
   14.39583302  101.43099976    0.28000000    2.64000010
   14.39999962   98.83020020    0.28000000    2.66000009
   14.40305519   90.38009644    0.28000000    2.64000010
   14.40638828  104.91799927    0.28000000    2.64000010
   14.40972137  102.00700378    0.28000000    2.66000009
   14.41305542   95.49189758    0.28000000    2.66000009
   14.41611099  100.31700134    0.28000000    2.66000009
   14.41944504  113.87799835    0.28000000    2.64000010
   14.42138958   98.48979950    0.28000000    2.64000010
   14.42277813  103.03900146    0.28000000    2.66000009
   14.42611122  109.57800293    0.28000000    2.66000009
   14.42944431  105.42500305    0.28000000    2.64000010
   14.43249989  103.63300323    0.28000000    2.64000010
   14.43861103  103.63300323    0.28000000    2.64000010
   14.44277763  105.36699677    0.28000000    2.66000009
   14.44611073  100.52799988    0.25999999    2.64000010
   14.44916630   98.93779755    0.25999999    2.64000010
   14.45249939   98.14669800    0.28000000    2.66000009
   14.45472240   94.36799622    0.25999999    2.66000009
   14.45611095  102.66100311    0.25999999    2.66000009
   14.45944405  102.75399780    0.25999999    2.64000010
   14.46249962   99.22920227    0.25999999    2.66000009
   14.46583271  101.73400116    0.25999999    2.66000009
   14.46916580  101.83699799    0.25999999    2.64000010
   14.47222137   95.69879913    0.25999999    2.66000009
   14.47555542   99.37280273    0.25999999    2.66000009
   14.48138809   99.37280273    0.25999999    2.66000009
   14.48555565  102.07299805    0.28000000    2.66000009
   14.48805618  110.46499634    0.28000000    2.66000009
   14.48916721  105.77600098    0.28000000    2.66000009
   14.49250031  100.04299927    0.28000000    2.66000009
   14.49555588  105.90599823    0.25999999    2.66000009
   14.49888897   99.70230103    0.25999999    2.66000009
   14.50222206   97.63829803    0.25999999    2.66000009
   14.50527763  100.90599823    0.25999999    2.66000009
   14.50861073  102.60099792    0.28000000    2.64000010
   14.51166630   97.46369934    0.28000000    2.64000010
   14.51500034   95.04620361    0.25999999    2.66000009
   14.51833344  103.06700134    0.28000000    2.66000009
   14.52444458  103.06700134    0.28000000    2.64000010
   14.52833271  108.88400269    0.28000000    2.64000010
   14.53166676   98.77929688    0.25999999    2.66000009
   14.53500080  104.30699921    0.25999999    2.67000008
   14.53805637  115.60500336    0.25999999    2.66000009
   14.54138947  105.93399811    0.25999999    2.66000009
   14.54472256  116.34799957    0.25999999    2.67000008
   14.54777813  114.26200104    0.28000000    2.66000009
   14.55111122  103.44899750    0.28000000    2.64000010
   14.55444431  101.68199921    0.25999999    2.66000009
   14.55527782  106.81199646    0.25999999    2.66000009
   14.55777836  107.79199982    0.25999999    2.66000009
   14.56111145  108.19400024    0.25999999    2.66000009
   14.56722260  108.19400024    0.25999999    2.67000008
   14.57138920  106.78199768    0.25999999    2.66000009
   14.57472229  104.54100037    0.25999999    2.66000009
   14.57777786  109.13300323    0.25999999    2.66000009
   14.58111095  108.68599701    0.25999999    2.66000009
   14.58444405  111.72599792    0.28000000    2.66000009
   14.58749962  108.66400146    0.28000000    2.66000009
   14.58861065  108.01899719    0.28000000    2.66000009
   14.59138870  104.79599762    0.28000000    2.66000009
   14.59444427  122.41600037    0.28000000    2.66000009
   14.59777737  110.75800323    0.30000001    2.66000009
   14.60083389  110.93900299    0.30000001    2.67000008
   14.60444450  103.25099945    0.28000000    2.66000009
   14.61000061  103.25099945    0.28000000    2.66000009
   14.61416721  130.03300476    0.28000000    2.66000009
   14.61750031  140.19799805    0.28000000    2.66000009
   14.62055588  127.19400024    0.28000000    2.66000009
   14.62222195  113.58899689    0.28000000    2.66000009
   14.62416649  126.17199707    0.28000000    2.66000009
   14.62750053  125.51899719    0.30000001    2.66000009
   14.63055611  123.78900146    0.30000001    2.67000008
   14.63388920  143.12699890    0.30000001    2.66000009
   14.63722229  147.28900146    0.30000001    2.66000009
   14.64027786  149.07400513    0.30000001    2.67000008
   14.64361095  124.22200012    0.31999999    2.67000008
   14.64694405  133.15400696    0.31999999    2.66000009
   14.65277767  133.15400696    0.30000001    2.67000008
   14.67138958  110.90299988    0.31999999    2.67000008
   14.67444515  118.99099731    0.31999999    2.67000008
   14.67777824  111.96399689    0.30000001    2.67000008
   14.68083382  113.23699951    0.30000001    2.67000008
   14.68416691  116.67800140    0.30000001    2.67000008
   14.68750000  114.46199799    0.30000001    2.67000008
   14.69055557  107.83799744    0.30000001    2.67000008
   14.69583321  107.83799744    0.30000001    2.67000008
   14.69999981  115.61499786    0.30000001    2.66000009
   14.70333290  112.08899689    0.30000001    2.66000009
   14.70416641  104.99500275    0.30000001    2.67000008
   14.70694447  110.52100372    0.30000001    2.67000008
   14.71027756  110.53600311    0.30000001    2.66000009
   14.71333313  111.60500336    0.30000001    2.67000008
   14.71666622  103.82599640    0.30000001    2.66000009
   14.71999931   93.67910004    0.30000001    2.67000008
   14.72305489  101.16500092    0.30000001    2.67000008
   14.72638798   99.00830078    0.30000001    2.67000008
   14.72972202  102.84700012    0.30000001    2.67000008
   14.73277760  103.67500305    0.30000001    2.67000008
   14.73888874  103.67500305    0.38000000    2.67000008
   14.74277782  109.41799927    0.52999997    2.67000008
   14.74611092  102.19300079    0.52999997    2.67000008
   14.74944496  109.76000214    0.51999998    2.67000008
   14.75277805  103.76999664    0.51999998    2.67000008
   14.75611115  101.57700348    0.52999997    2.67000008
   14.75916672   99.29370117    0.52999997    2.67000008
   14.76249981   99.72969818    0.61000001    2.67000008
   14.76583290  106.88999939    0.56999999    2.66000009
   14.76888847  100.36399841    0.52999997    2.67000008
   14.77083302  102.30999756    0.50000000    2.67000008
   14.77250004   95.19390106    0.50000000    2.67000008
   14.77583313  114.14099884    0.52999997    2.67000008
   14.78166676  114.14099884    0.55000001    2.67000008
   14.78583336  115.53700256    0.63000000    2.67000008
   14.78888893  102.48699951    1.63000000    2.67000008
   14.79222298  106.00700378    1.63000000    2.67000008
   14.79555607  106.69000244    1.66999996    2.66000009
   14.79861164  104.58599854    1.86000001    2.64000010
   14.80194473   99.87699890    1.98000002    2.66000009
   14.80416679  106.33000183    1.98000002    2.66000009
   14.80555534  122.51699829    1.51999998    2.66000009
   14.80888939  138.47900391    1.00000000    2.67000008
   14.81194496  115.66500092    0.50000000    2.67000008
   14.81527805  124.14600372    0.44000000    2.67000008
   14.81861115  106.27200317    0.44000000    2.67000008
   14.82444477  106.27200317    0.41999999    2.67000008
   14.82861137   99.30239868    0.38000000    2.67000008
   14.83194447  107.56999969    0.40000001    2.69000006
   14.83500004  123.99199677    0.40000001    2.67000008
   14.83749962  120.08999634    0.40000001    2.67000008
   14.83861065   98.86250305    0.38000000    2.67000008
   14.84194374  113.71499634    0.38000000    2.67000008
   14.84527779  101.73100281    0.36000001    2.67000008
   14.84833336  113.07499695    0.36000001    2.67000008
   14.85166740   97.76180267    0.38000000    2.67000008
   14.85472298  101.75099945    0.38000000    2.67000008
   14.85805607  101.29399872    0.40000001    2.67000008
   14.86138916   94.06109619    0.40000001    2.67000008
   14.86722279   94.06109619    0.40000001    2.67000008
   14.87138939  104.85099792    0.40000001    2.67000008
   14.87472248   99.85060120    0.40000001    2.67000008
   14.87777805   98.97879791    0.40000001    2.69000006
   14.88111115  103.98799896    0.40000001    2.67000008
   14.88444424  104.36900330    0.40000001    2.67000008
   14.88749981  104.83799744    0.41999999    2.67000008
   14.89083290   98.47489929    0.41999999    2.67000008
   14.89416695   97.54599762    0.41999999    2.67000008
   14.89722252   99.17639923    0.41999999    2.67000008
   14.90055561  106.57900238    0.44000000    2.67000008
   14.90388870   99.49859619    0.44000000    2.67000008
   14.90444374  100.73200226    0.44000000    2.67000008
   14.91027737  100.73200226    0.46000001    2.67000008
   14.91416645   90.68460083    0.46000001    2.67000008
   14.91750050   97.39469910    0.47999999    2.67000008
   14.92083359   99.30410004    0.51999998    2.67000008
   14.92388916  103.05100250    0.55000001    2.67000008
   14.92722225  101.09400177    0.55000001    2.67000008
   14.93055630   86.96980286    0.58999997    2.67000008
   14.93361092   99.57389832    0.61000001    2.67000008
   14.93694496  103.14499664    0.61000001    2.67000008
   14.93777752   93.82920074    0.61000001    2.67000008
   14.94055557   92.85389709    0.63000000    2.67000008
   14.94388866   98.37010193    0.63000000    2.67000008
   14.94722271   91.61190033    0.61000001    2.67000008
   14.95305538   91.61190033    0.63000000    2.67000008
   14.95722198   95.21269989    0.63000000    2.67000008
   14.96027756  101.74800110    0.63000000    2.67000008
   14.96361065  102.62100220    0.58999997    2.67000008
   14.96694374  100.10600281    0.56999999    2.67000008
   14.96999931   95.43329620    0.55000001    2.67000008
   14.97083282  101.67800140    0.55000001    2.67000008
   14.97361088   95.79170227    0.51999998    2.67000008
   14.97694397   97.74410248    0.51999998    2.67000008
   14.97999954   95.49160004    0.50000000    2.67000008
   14.98333359  101.18000031    0.50000000    2.67000008
   14.98666668  103.51499939    0.47999999    2.67000008
   14.98972225  102.16500092    0.47999999    2.67000008
   14.99583340  102.16500092    0.47999999    2.67000008
   15.00000000  104.48799896    0.46000001    2.69000006
   15.00333309   97.05149841    0.46000001    2.69000006
   15.00416660  101.14199829    0.46000001    2.67000008
   15.00666714   96.76029968    0.46000001    2.67000008
   15.01000023   94.07250214    0.46000001    2.67000008
   15.01305580  100.15100098    0.46000001    2.67000008
   15.01666641   95.31960297    0.44000000    2.67000008
   15.01972198   86.23249817    0.94000000    2.67000008
   15.02305508  104.23799896    1.71000004    2.67000008
   15.02638817   93.30690002    1.51999998    2.67000008
   15.02944374   94.53649902    2.23000002    2.67000008
   15.03277779  103.15299988    4.90999985    2.67000008
   15.03861141  103.15299988    4.90999985    2.55999994
   15.04277802  253.83000183    4.90999985    1.78999996
   15.04611111  138.44400024    4.90999985    1.75000000
   15.04916668  107.03299713    4.90999985    2.13000011
   15.05249977  111.82299805    4.90999985    2.39000010
   15.05583382   97.82859802    4.90999985    2.40000010
   15.05888939  108.97299957    4.90999985    2.51999998
   15.06222248  108.16699982    4.90999985    2.42000008
   15.06555557   97.06610107    4.90999985    2.53999996
   15.06861115   97.33769989    4.90999985    2.59999990
   15.07111073   97.11900330    4.90999985    2.61999989
   15.07222176  100.65599823    4.90999985    2.51999998
   15.07555580  106.62500000    4.90999985    2.50000000
   15.08138847  106.62500000    4.90999985    2.48000002
   15.08555508  100.81099701    4.90999985    2.55999994
   15.08888817   97.80100250    4.90999985    2.64000010
   15.09222221   95.10919952    3.61999989    2.67000008
   15.09527779   94.46459961    3.76999998    2.69000006
   15.09861088   99.35610199    3.70000005    2.66000009
   15.10194492   95.52030182    3.18000007    2.64000010
   15.10444450   94.69349670    2.50000000    2.67000008
   15.10527802   98.62879944    2.26999998    2.66000009
   15.10861111   91.67880249    1.13000000    2.66000009
   15.11166668   95.73529816    0.70999998    2.67000008
   15.11500072   96.04460144    0.56999999    2.67000008
   15.11833382  100.51399994    0.44000000    2.67000008
   15.12444496  100.51399994    0.44000000    2.67000008
   15.12861156   96.73729706    0.46000001    2.69000006
   15.22444439   -1.00000000   -1.00000000   -1.00000000
   15.37361145   -1.00000000   -1.00000000   -1.00000000
   15.50388908   -1.00000000   -1.00000000   -1.00000000
   15.58888817   71.51940155    0.36000001    2.71000004
   15.59222221  119.95999908    0.34000000    2.71000004
   15.59527779  112.55000305    0.36000001    2.71000004
   15.59861088  118.41899872    0.36000001    2.71000004
   15.60222244  119.89600372    0.38000000    2.71000004
   15.60555553  123.86100006    0.38000000    2.71000004
   15.60972214  123.86100006    0.38000000    2.69000006
   15.61361122  102.08799744    0.38000000    2.71000004
   15.61694431  108.81199646    0.38000000    2.71000004
   15.62027836  109.56500244    0.38000000    2.71000004
   15.62222195  108.15799713    0.36000001    2.71000004
   15.62388897  110.89099884    0.36000001    2.71000004
   15.62694454  109.13600159    0.36000001    2.71000004
   15.63027763  111.03600311    0.36000001    2.71000004
   15.63361073  122.34799957    0.36000001    2.71000004
   15.63666630  125.03299713    0.38000000    2.71000004
   15.64000034  120.52600098    0.38000000    2.71000004
   15.64333344  122.94899750    0.38000000    2.71000004
   15.64638901  103.31300354    0.38000000    2.73000002
   15.65249920  103.31300354    0.36000001    2.71000004
   15.65666676  103.60500336    0.36000001    2.71000004
   15.65972137  105.23400116    0.38000000    2.71000004
   15.66305542  106.23699951    0.38000000    2.71000004
   15.66611099  115.92099762    0.38000000    2.71000004
   15.66944504  118.08999634    0.38000000    2.71000004
   15.67277813  111.45200348    0.36000001    2.71000004
   15.67583370  107.16400146    0.36000001    2.71000004
   15.67916679  108.56400299    0.34000000    2.71000004
   15.68249989  102.96299744    0.34000000    2.71000004
   15.68555546  105.90499878    0.34000000    2.71000004
   15.68888855  109.41100311    0.31999999    2.71000004
   15.68944454  114.32499695    0.31999999    2.71000004
   15.69527817  114.32499695    0.30000001    2.71000004
   15.69944477   99.44580078    0.30000001    2.71000004
   15.70249939  105.66100311    0.30000001    2.71000004
   15.70583344   95.94860077    0.30000001    2.71000004
   15.70916653   97.65399933    0.30000001    2.71000004
   15.71222210  102.29100037    0.30000001    2.71000004
   15.71555519   95.23940277    0.30000001    2.71000004
   15.71888828  105.64800262    0.30000001    2.71000004
   15.72194386   98.85330200    0.31999999    2.71000004
   15.72277737  105.75299835    0.31999999    2.71000004
   15.72555542   95.83540344    0.34000000    2.71000004
   15.72888851   93.86699677    0.34000000    2.71000004
   15.73194408   97.78790283    0.34000000    2.71000004
   15.73805618   97.78790283    0.36000001    2.71000004
   15.74222279  102.97499847    0.38000000    2.71000004
   15.74555588  108.00800323    0.38000000    2.71000004
   15.74861145  108.82499695    0.38000000    2.71000004
   15.75194454  106.56400299    0.38000000    2.71000004
   15.75527763   99.24459839    0.38000000    2.71000004
   15.75611115   98.46070099    0.38000000    2.71000004
   15.75888920  102.06900024    0.38000000    2.71000004
   15.76194477   94.20690155    0.38000000    2.71000004
   15.76527786  102.88700104    0.38000000    2.71000004
   15.76861095  102.63800049    0.38000000    2.71000004
   15.77166653   97.76750183    0.38000000    2.71000004
   15.77499962   94.15779877    0.38000000    2.71000004
   15.78083324   94.15779877    0.36000001    2.71000004
   15.78500080   92.38430023    0.36000001    2.71000004
   15.78833389   94.51550293    0.36000001    2.71000004
   15.78944492   95.21420288    0.36000001    2.71000004
   15.79194450  101.93199921    0.36000001    2.73000002
   15.79527855   91.42559814    0.34000000    2.71000004
   15.79861164   97.81559753    0.34000000    2.71000004
   15.80166721   97.81690216    0.34000000    2.71000004
   15.80500031   98.48989868    0.31999999    2.71000004
   15.80805588  106.06900024    0.31999999    2.71000004
   15.81138897   99.32879639    0.31999999    2.71000004
   15.81472206   99.53810120    0.31999999    2.71000004
   15.81777763  101.48100281    0.31999999    2.71000004
   15.82416630  101.48100281    0.31999999    2.71000004
   15.82833290   98.60530090    0.30000001    2.71000004
   15.83138847  101.71199799    0.30000001    2.71000004
   15.83472157   97.49160004    0.30000001    2.71000004
   15.83805561  101.65299988    0.30000001    2.71000004
   15.84111118  102.11100006    0.30000001    2.71000004
   15.84444427   99.48930359    0.30000001    2.71000004
   15.84777737   97.54180145    0.30000001    2.71000004
   15.85083389   96.52700043    0.30000001    2.71000004
   15.85416698   97.75640106    0.30000001    2.71000004
   15.85611153   97.82790375    0.30000001    2.71000004
   15.85777855   98.03199768    0.30000001    2.71000004
   15.86111164   97.58170319    0.31999999    2.71000004
   15.86666679   97.58170319    1.94000006    2.67000008
   15.87083340  107.90699768    2.84999990    2.69000006
   15.87388897  102.08200073    1.55999994    2.71000004
   15.87722206  106.07700348    1.69000006    2.69000006
   15.88055611  103.08200073    1.60000002    2.67000008
   15.88361073  102.79699707    1.34000003    2.71000004
   15.88694477  100.01599884    3.41000009    2.66000009
   15.88944435  102.06700134    4.90999985    2.59999990
   15.89027786  118.08599854    4.90999985    2.55999994
   15.89361095   -1.00000000    4.90999985    0.58999997
   15.89694405   95.62020111    4.90999985    2.05999994
   15.89999962  100.43699646    4.90999985    2.66000009
   15.90333271   90.86350250    2.15000010    2.71000004
   15.90944386   90.86350250    0.31999999    2.71000004
   15.91361046   97.35109711    0.34000000    2.71000004
   15.91694450   98.84239960    0.34000000    2.73000002
   15.92000008   94.89289856    0.36000001    2.71000004
   15.92277813   99.60800171    0.36000001    2.71000004
   15.92361164   98.65769958    0.38000000    2.71000004
   15.92694473  100.93299866    0.36000001    2.71000004
   15.93027782   97.29239655    0.31999999    2.71000004
   15.93361092   95.65110016    0.31999999    2.71000004
   15.93666649  102.92700195    0.30000001    2.71000004
   15.94000053   95.69400024    0.31999999    2.71000004
   15.94333363   98.59400177    0.31999999    2.71000004
   15.94638920  100.26200104    0.31999999    2.71000004
   15.95222187  100.26200104    0.44000000    2.71000004
   15.95638847   97.18119812    1.46000004    2.69000006
   15.95972157   94.76879883    4.80999994    2.69000006
   15.96277714  139.45199585    4.90999985    2.44000006
   15.96611118   -1.00000000    4.90999985    1.71000004
   15.96944427   -1.00000000    4.90999985    1.21000004
   15.97249985   -1.00000000    4.90999985    0.79000002
   15.97583294   -1.00000000    4.90999985    1.05999994
   15.97916603   -1.00000000    4.90999985    1.09000003
   15.98222160   -1.00000000    4.90999985    0.83999997
   15.98555565   -1.00000000    4.90999985    0.69000000
   15.98861122  108.50299835    4.90999985    1.76999998
   15.98944473  124.26100159    4.90999985    2.17000008
   15.99527836  124.26100159    4.90999985    2.61999989
   15.99916649  110.63600159    0.86000001    2.71000004
   16.00250053  110.73799896    0.69000000    2.71000004
   16.00583267  104.04399872    0.63000000    2.71000004
   16.00888824  108.44799805    0.64999998    2.69000006
   16.01222229   92.64279938    0.64999998    2.69000006
   16.01555634  104.70999908    0.64999998    2.71000004
   16.01861000   97.47080231    0.63000000    2.71000004
   16.02194405  111.23300171    0.52999997    2.71000004
   16.02277756  105.14700317    0.52999997    2.71000004
   16.02583313   94.19730377    0.40000001    2.71000004
   16.02888870  102.92700195    0.36000001    2.71000004
   16.03222275  104.02999878    0.69000000    2.71000004
   16.03805542  104.02999878    0.76999998    2.71000004
   16.04222107   99.09549713    0.40000001    2.71000004
   16.04527664  104.02700043    0.40000001    2.73000002
   16.04861069  101.41300201    0.38000000    2.71000004
   16.05194283  104.39700317    0.36000001    2.71000004
   16.05499840  103.26699829    0.36000001    2.71000004
   16.05611038  104.60900116    0.36000001    2.71000004
   16.05861092  100.01499939    0.31999999    2.71000004
   16.06194305   94.26589966    0.30000001    2.73000002
   16.06527710   95.22799683    0.30000001    2.71000004
   16.06833458  105.22499847    0.30000001    2.73000002
   16.07166672   98.32089996    0.30000001    2.71000004
   16.07500076  103.33699799    0.30000001    2.71000004
   16.08083344  103.33699799    0.28000000    2.71000004
   16.08500099  100.20500183    0.28000000    2.71000004
   16.08833313   97.46119690    0.28000000    2.73000002
   16.08944511   97.92009735    0.28000000    2.73000002
   16.09166718   97.53810120    0.28000000    2.73000002
   16.09527779   97.90309906    0.28000000    2.73000002
   16.09833336  105.42500305    0.30000001    2.73000002
   16.10166740  106.53399658    0.30000001    2.73000002
   16.10499954  104.63099670    0.30000001    2.73000002
   16.10805511  112.77200317    0.31999999    2.71000004
   16.11138916   99.18810272    0.31999999    2.71000004
   16.11444473  103.29499817    0.34000000    2.73000002
   16.11777878  106.06199646    0.40000001    2.71000004
   16.12388992  106.06199646    0.40000001    2.71000004
   16.12805557   98.64430237    0.41999999    2.69000006
   16.13111115  101.57599640    0.46000001    2.73000002
   16.13444519   95.72920227    0.46000001    2.73000002
   16.13777733   97.15019989    0.46000001    2.71000004
   16.14083290   96.16999817    0.46000001    2.71000004
   16.14416695   94.51609802    0.46000001    2.71000004
   16.14749908   91.74590302    0.47999999    2.71000004
   16.15055466   96.74469757    0.47999999    2.71000004
   16.15388870  101.22699738    0.46000001    2.71000004
   16.15611076   95.44699860    0.46000001    2.71000004
   16.15749931   94.84709930    0.46000001    2.71000004
   16.16055489   99.56310272    0.44000000    2.71000004
   16.16666603   99.56310272    0.44000000    2.71000004
   16.17055511   99.03459930    0.41999999    2.73000002
   16.17388916  104.13400269    0.41999999    2.71000004
   16.17722130  102.28299713    0.41999999    2.71000004
   16.18027687   96.26270294    0.40000001    2.71000004
   16.18361092   97.18979645    0.40000001    2.71000004
   16.18694305   99.76730347    0.41999999    2.71000004
   16.18944359  100.30999756    0.46000001    2.71000004
   16.19055557   94.22070313    0.46000001    2.71000004
   16.19388771   94.84239960    0.47999999    2.71000004
   16.19694328   98.49780273    0.47999999    2.71000004
   16.20027924   98.74349976    0.47999999    2.71000004
   16.20361137   98.58419800    0.44000000    2.71000004
   16.20944595   98.58419800    0.38000000    2.73000002
   16.21361160   93.34770203    0.36000001    2.71000004
   16.21694565   93.52179718    0.36000001    2.71000004
   16.22000122  100.97000122    0.36000001    2.71000004
   16.22277832   98.31659698    0.36000001    2.71000004
   16.22389030   96.49720001    0.36000001    2.71000004
   16.22694588   99.27549744    0.34000000    2.71000004
   16.23027802  103.91600037    0.34000000    2.71000004
   16.23333359   97.65070343    0.34000000    2.71000004
   16.23666763   99.77570343    0.36000001    2.73000002
   16.24027824   99.43419647    0.34000000    2.71000004
   16.24333382   92.63719940    0.31999999    2.71000004
   16.24666786  108.39800262    0.31999999    2.71000004
   16.25222206  108.39800262    0.30000001    2.71000004
   16.25638962   95.09200287    0.30000001    2.73000002
   16.25972176  107.84300232    0.31999999    2.71000004
   16.26277733  108.81999969    0.31999999    2.71000004
   16.26611137   98.16819763    0.31999999    2.73000002
   16.26916695   93.12159729    0.30000001    2.73000002
   16.27249908   99.49160004    0.30000001    2.73000002
   16.27583313   91.46920013    0.30000001    2.73000002
   16.27888870  101.58799744    0.30000001    2.71000004
   16.28222275  102.90599823    0.30000001    2.71000004
   16.28555489  101.76999664    0.30000001    2.71000004
   16.28861046  106.88200378    0.50000000    2.71000004
   16.28944397  112.07800293    0.89999998    2.71000004
   16.29500008  112.07800293    0.94000000    2.71000004
   16.29916573  109.27899933    1.00000000    2.71000004
   16.30249977  103.38899994    1.05999994    2.71000004
   16.30555534   99.29969788    1.03999996    2.71000004
   16.30888748   99.74189758    1.14999998    2.71000004
   16.31222153  138.83399963    1.14999998    2.71000004
   16.31527710  121.54199982    2.42000008    2.67000008
   16.31861115  120.28600311    2.67000008    2.67000008
   16.32194519  109.30799866    2.98000002    2.66000009
   16.32277870  116.10099792    3.07999992    2.66000009
   16.32555580  102.19999695    3.26999998    2.64000010
   16.32861137  107.67099762    3.32999992    2.64000010
   16.33194542   95.75650024    3.30999994    2.66000009
   16.33777809   95.75650024    2.98000002    2.64000010
   16.34194565   98.19319916    2.48000002    2.67000008
   16.34527779   98.44419861    2.30999994    2.66000009
   16.34861183   95.07430267    2.21000004    2.66000009
   16.35166740   90.82749939    1.71000004    2.69000006
   16.35499954   98.95970154    1.11000001    2.69000006
   16.35611153   99.82330322    1.05999994    2.71000004
   16.35861206  103.11299896    0.75000000    2.71000004
   16.36166763   96.78079987    0.64999998    2.71000004
   16.36499977   95.34020233    0.64999998    2.71000004
   16.36805534   95.57900238    0.64999998    2.71000004
   16.37138939   95.67060089    0.55000001    2.73000002
   16.37472153   92.57299805    0.52999997    2.71000004
   16.38083267   92.57299805    0.51999998    2.73000002
   16.38500023  100.25800323    0.52999997    2.73000002
   16.38805580   95.06990051    0.52999997    2.71000004
   16.38944435   98.58020020    0.51999998    2.71000004
   16.39194489  107.06400299    0.51999998    2.71000004
   16.39500046   99.27390289    0.51999998    2.71000004
   16.39833260  101.58599854    0.50000000    2.71000004
   16.40138817  101.84300232    0.46000001    2.73000002
   16.40472221   99.23600006    0.46000001    2.71000004
   16.40805435  112.41799927    0.47999999    2.71000004
   16.41110992  100.15399933    0.64999998    2.71000004
   16.41444397  100.04699707    4.90999985    2.55999994
   16.41777802  102.20600128    4.90999985    2.57999992
   16.42361069  102.20600128    4.90999985    2.55999994
   16.42777634   95.03639984    4.90999985    2.59999990
   16.43083191   95.46109772    3.00000000    2.69000006
   16.43416595   92.96649933    2.66000009    2.69000006
   16.43750000   92.61990356    2.55999994    2.69000006
   16.44055557   94.59470367    2.82999992    2.67000008
   16.44388771  108.25000000    3.57999992    2.66000009
   16.44722176  102.60900116    4.90999985    2.64000010
   16.45027924   98.08580017    4.90999985    2.57999992
   16.45361137  100.64299774    4.90999985    2.55999994
   16.45611191   98.19139862    4.90999985    2.53999996
   16.45722389  103.91400146    4.90999985    2.48000002
   16.46027946  101.04499817    4.90999985    2.32999992
   16.46638870  101.04499817    4.90999985    2.57999992
   16.47055626  103.12999725    3.16000009    2.67000008
   16.47389030   97.20909882    1.33000004    2.71000004
   16.47694588  101.39499664    0.47999999    2.71000004
   16.48027802   97.97049713    0.40000001    2.71000004
   16.48361206   93.91159821    0.40000001    2.71000004
   16.48666763   98.42330170    0.51999998    2.71000004
   16.48944473   92.82060242    0.52999997    2.71000004
   16.49055672   93.21649933    0.56999999    2.71000004
   16.49361229   92.14160156    0.98000002    2.71000004
   16.49694443   95.24230194    1.14999998    2.69000006
   16.50027847  100.13800049    0.69000000    2.73000002
   16.50333405   99.73059845    0.28000000    2.73000002
   16.50944519   99.73059845    0.28000000    2.73000002
   16.51333427   96.51300049    0.28000000    2.73000002
   16.51666641  100.66699982    0.25999999    2.73000002
   16.52000046   97.79109955    0.25000000    2.71000004
   16.52277756  100.48899841    0.23000000    2.71000004
   16.52361107   98.32990265    0.23000000    2.71000004
   16.52666664   95.55780029    0.23000000    2.73000002
   16.53000069   91.27320099    0.23000000    2.71000004
   16.53333282   91.18199921    0.25000000    2.73000002
   16.53638840   97.50129700    0.25000000    2.73000002
   16.53972244   90.57389832    0.25999999    2.71000004
   16.54305458   97.97460175    0.28000000    2.73000002
   16.54611015   93.23580170    0.28000000    2.73000002
   16.55222130   93.23580170    0.28000000    2.73000002
   16.55638885   94.74900055    0.28000000    2.73000002
   16.55944443  103.62599945    0.28000000    2.73000002
   16.56277657   98.69349670    0.28000000    2.73000002
   16.56611061   96.37950134    0.28000000    2.73000002
   16.56916809   99.77239990    0.28000000    2.71000004
   16.57250023   95.06289673    0.28000000    2.71000004
   16.57555580   93.94799805    0.28000000    2.71000004
   16.57888985  100.66699982    0.28000000    2.71000004
   16.58222389   98.18640137    0.28000000    2.73000002
   16.58527756   96.39859772    0.28000000    2.73000002
   16.58861160  102.35500336    0.28000000    2.71000004
   16.58944511   94.52149963    0.28000000    2.71000004
   16.61027908   94.52149963    0.88000000    2.71000004
   16.61416626   98.06199646    0.83999997    2.73000002
   16.61750031   99.95970154    1.03999996    2.71000004
   16.62083435   96.72779846    0.47999999    2.71000004
   16.62277794  102.34799957    0.30000001    2.71000004
   16.62444496  104.79000092    0.28000000    2.71000004
   16.62750053   98.53839874    0.28000000    2.71000004
   16.63083267   99.03730011    0.28000000    2.71000004
   16.63416672   98.70179749    0.28000000    2.71000004
   16.63722229   94.74379730    0.25999999    2.73000002
   16.64055634  100.93199921    0.28000000    2.71000004
   16.64388847   97.71360016    0.25999999    2.73000002
   16.64694405   95.21880341    0.25999999    2.73000002
   16.65277672   95.21880341    0.25999999    2.73000002
   16.65694427   89.78720093    0.25999999    2.71000004
   16.66027832   93.81569672    0.25999999    2.71000004
   16.66361046   99.54139709    0.25999999    2.71000004
   16.66666603   94.59919739    0.25999999    2.71000004
   16.67000008   93.48880005    0.25999999    2.71000004
   16.67305565   94.58830261    0.30000001    2.73000002
   16.67638779   96.37989807    0.28000000    2.73000002
   16.67972183   96.16790009    0.28000000    2.71000004
   16.68277740   92.58959961    0.28000000    2.73000002
   16.68610954   99.71970367    0.28000000    2.73000002
   16.68944359   96.53119659    0.28000000    2.73000002
   16.68972206   93.62310028    0.28000000    2.73000002
   16.69583321   93.62310028    0.28000000    2.73000002
   16.70000076   95.01540375    0.28000000    2.71000004
   16.70305634  102.35099792    0.28000000    2.71000004
   16.70639038   89.14679718    0.28000000    2.71000004
   16.70944595   97.02999878    0.28000000    2.71000004
   16.71277809   91.50119781    0.28000000    2.73000002
   16.71611214   92.30419922    0.30000001    2.73000002
   16.71916771   99.06159973    0.30000001    2.73000002
   16.72249985  103.75000000    0.30000001    2.73000002
   16.72333336   93.11389923    0.34000000    2.71000004
   16.72611237   96.10620117    0.34000000    2.71000004
   16.72944450   90.66840363    0.28000000    2.71000004
   16.73250008   99.62609863    0.28000000    2.71000004
   16.73861122   99.62609863    0.28000000    2.73000002
   16.74277878   96.52980042    0.28000000    2.71000004
   16.74583435   94.05960083    0.28000000    2.73000002
   16.74916649   89.91680145    0.28000000    2.71000004
   16.75250053   92.98650360    0.25999999    2.71000004
   16.75555611   94.99310303    0.25999999    2.71000004
   16.75666618  101.09200287    0.25999999    2.71000004
   16.75916672   98.10739899    0.25999999    2.73000002
   16.76250076   99.92070007    0.25999999    2.73000002
   16.76555634   96.21260071    0.28000000    2.71000004
   16.76888847   97.36669922    0.28000000    2.71000004
   16.77222252   94.31500244    0.28000000    2.71000004
   16.77527809   91.14510345    0.28000000    2.71000004
   16.78138924   91.14510345    0.25999999    2.73000002
   16.78555489   91.89530182    0.25000000    2.73000002
   16.78888893   93.47100067    0.25000000    2.71000004
   16.78999901   90.11660004    0.25000000    2.71000004
   16.79222107   90.51519775    0.25000000    2.73000002
   16.79555511   94.43669891    0.25000000    2.71000004
   16.79861069   93.55239868    0.25000000    2.71000004
   16.80194283   97.43000031    0.25000000    2.71000004
   16.80527687   96.59059906    0.25000000    2.71000004
   16.80833244   96.17109680    0.25999999    2.71000004
   16.81166649   99.50469971    0.25999999    2.73000002
   16.81499863  101.21299744    0.25999999    2.73000002
   16.81805611  100.76999664    0.28000000    2.71000004
   16.82416725  100.76999664    0.31999999    2.71000004
   16.82833481   95.71350098    0.31999999    2.71000004
   16.83166695   99.11569977    0.30000001    2.71000004
   16.83472252   93.50119781    0.30000001    2.71000004
   16.83805656   95.62249756    0.30000001    2.71000004
   16.84138870   95.91519928    0.31999999    2.71000004
   16.84444427   93.63510132    0.31999999    2.71000004
   16.84777832   89.10410309    0.31999999    2.71000004
   16.85111237   91.00420380    0.34000000    2.73000002
   16.85416794   96.29850006    0.34000000    2.73000002
   16.85666656   95.46279907    0.34000000    2.73000002
   16.85805511   94.12699890    0.36000001    2.73000002
   16.86111069   98.81269836    0.34000000    2.73000002
   16.86722183   98.81269836    0.34000000    2.71000004
   16.87138939   96.86009979    0.34000000    2.71000004
   16.87444496   94.22869873    0.36000001    2.71000004
   16.87777710   97.88300323    0.38000000    2.71000004
   16.88083267   98.29720306    0.38000000    2.73000002
   16.88416672   91.64959717    0.38000000    2.73000002
   16.88750076   90.53759766    0.40000001    2.73000002
   16.88999939   93.28279877    0.41999999    2.73000002
   16.89083290   95.41570282    0.41999999    2.73000002
   16.89416695   96.01300049    0.41999999    2.73000002
   16.89749908   98.26190186    0.44000000    2.71000004
   16.90055466   95.01339722    0.44000000    2.73000002
   16.90388870  100.11499786    0.44000000    2.73000002
   16.90999985  100.11499786    0.41999999    2.71000004
   16.91416550   97.71730042    0.41999999    2.73000002
   16.91722107   96.59120178    0.41999999    2.73000002
   16.92055511   98.16629791    0.41999999    2.73000002
   16.92333221   94.98480225    0.40000001    2.73000002
   16.92416573   95.80829620    0.40000001    2.73000002
   16.92749977   97.05570221    0.40000001    2.73000002
   16.93055534   93.08840179    0.40000001    2.73000002
   16.93388748   93.79709625    0.41999999    2.73000002
   16.93722153   93.17019653    0.40000001    2.71000004
   16.94055557   96.63639832    0.40000001    2.71000004
   16.94388771   98.12789917    0.44000000    2.73000002
   16.94722176  103.43900299    0.44000000    2.73000002
   16.95277786  103.43900299    0.44000000    2.71000004
   16.95694542   99.16960144    0.44000000    2.73000002
   16.96027946   92.17140198    0.44000000    2.73000002
   16.96333504   93.60620117    0.50000000    2.73000002
   16.96666718   94.70780182    0.50000000    2.73000002
   16.97000122   94.70500183    0.55000001    2.73000002
   16.97305679   95.07160187    0.64999998    2.71000004
   16.97638893   94.77680206    0.67000002    2.71000004
   16.97944450   92.24479675    0.70999998    2.71000004
   16.98277855   97.37210083    0.73000002    2.71000004
   16.98611069  102.20400238    0.73000002    2.71000004
   16.98916626   98.98320007    0.73000002    2.71000004
   16.98999977   98.56459808    0.73000002    2.71000004
   16.99555588   98.56459808    0.75000000    2.73000002
   16.99972153   96.84349823    0.79000002    2.71000004
   17.00305557  100.09799957    0.83999997    2.71000004
   17.00638962   95.23339844    0.92000002    2.71000004
   17.00972176   94.96179962    0.92000002    2.71000004
   17.01277733   93.08979797    1.01999998    2.71000004
   17.01611137   92.49649811    1.41999996    2.69000006
   17.01944351   92.33039856    1.58000004    2.71000004
   17.02249908   94.66619873    1.61000001    2.71000004
   17.02333260   91.14790344    1.61000001    2.71000004
   17.02611160   99.61370087    1.75000000    2.71000004
   17.02944374   99.23570251    1.55999994    2.71000004
   17.03277779  100.11199951    1.55999994    2.71000004
   17.03861046  100.11199951    1.46000004    2.71000004
   17.04277802  101.45099640    1.46000004    2.71000004
   17.04583359   95.93930054    1.46000004    2.71000004
   17.04916573   97.08119965    1.39999998    2.71000004
   17.05222130   96.53849792    1.39999998    2.71000004
   17.05555534   93.98609924    1.34000003    2.71000004
   17.05666542   97.55950165    1.34000003    2.71000004
   17.05916595   89.21499634    1.36000001    2.71000004
   17.06250000   95.18930054    1.36000001    2.71000004
   17.06583214   98.51930237    1.36000001    2.71000004
   17.06888962   95.04139709    1.33000004    2.71000004
   17.07222366   98.82109833    1.30999994    2.71000004
   17.07527924  102.90599823    1.26999998    2.71000004
   17.08139038  102.90599823    1.23000002    2.71000004
   17.08555603   98.67389679    1.21000004    2.71000004
   17.08861160   98.72499847    1.21000004    2.71000004
   17.09000015   97.27169800    1.19000006    2.71000004
   17.09222221   97.40529633    1.14999998    2.71000004
   17.09555626   99.09929657    1.14999998    2.71000004
   17.09889030   97.67970276    1.14999998    2.71000004
   17.10194397   94.11530304    1.14999998    2.71000004
   17.10527802   92.08000183    1.16999996    2.71000004
   17.10861206  100.16400146    1.25000000    2.71000004
   17.11166763  105.92400360    1.34000003    2.71000004
   17.11499977  102.80599976    1.34000003    2.71000004
   17.11805534  100.30799866    1.34000003    2.71000004
   17.12416649  100.30799866    1.41999996    2.71000004
   17.12833405  103.89499664    1.44000006    2.71000004
   17.13166618  104.45999908    1.41999996    2.71000004
   17.13472176  103.69899750    1.41999996    2.71000004
   17.13805580   96.13490295    1.39999998    2.71000004
   17.14138794   97.01010132    1.38000000    2.71000004
   17.14444351   97.23500061    1.34000003    2.71000004
   17.14777756  101.60600281    1.26999998    2.71000004
   17.15111160   94.42310333    1.21000004    2.71000004
   17.15416718   91.74659729    1.16999996    2.73000002
   17.15666580  100.20800018    1.16999996    2.71000004
   17.15777779   94.60160065    1.14999998    2.71000004
   17.16110992   98.84850311    1.05999994    2.71000004
   17.16694450   98.84850311    1.09000003    2.71000004
   17.17111015   89.62909698    1.30999994    2.71000004
   17.17444420   92.51619720    1.46000004    2.71000004
   17.17777634   93.40550232    1.50000000    2.71000004
   17.18083191   92.01779938    1.55999994    2.71000004
   17.18416595   93.63839722    1.58000004    2.71000004
   17.18722153   96.12539673    1.63000000    2.71000004
   17.18999863   97.68080139    1.80999994    2.71000004
   17.19083214   96.36900330    1.80999994    2.71000004
   17.19416618   94.68679810    1.91999996    2.71000004
   17.19749832   94.59429932    1.94000006    2.71000004
   17.20055580   92.65409851    1.96000004    2.71000004
   17.20388985   98.42150116    1.91999996    2.71000004
   17.21000099   98.42150116    1.89999998    2.71000004
   17.21389008   97.42109680    1.85000002    2.71000004
   17.21722221  100.52200317    1.80999994    2.69000006
   17.22055626   99.10739899    1.69000006    2.71000004
   17.22333336   94.09300232    1.69000006    2.71000004
   17.22389030   95.00029755    1.86000001    2.71000004
   17.22722244   97.91960144    3.20000005    2.69000006
   17.23055649   99.91040039    2.94000006    2.69000006
   17.23361206  108.77100372    3.64000010    2.67000008
   17.23694420  103.37300110    4.59999990    2.61999989
   17.23999977  110.05100250    4.28999996    2.67000008
   17.24333382  107.40200043    4.05999994    2.67000008
   17.24666786  104.59899902    3.57999992    2.67000008
   17.25277710  104.59899902    4.07999992    2.61999989
   17.25694466   99.51480103    4.73999977    2.64000010
   17.26000023   97.18389893    3.66000009    2.67000008
   17.26333427   95.93430328    2.03999996    2.71000004
   17.26666641  103.70600128    1.69000006    2.71000004
   17.26972198  106.73200226    1.63000000    2.71000004
   17.27305603  103.25700378    1.58000004    2.71000004
   17.27638817  109.67299652    2.28999996    2.69000006
   17.27972221   99.19550323    4.90999985    2.39000010
   17.28277779  102.69599915    4.90999985    2.69000006
   17.28610992   96.05480194    4.57999992    2.64000010
   17.28916550  100.25399780    4.42999983    2.67000008
   17.28999901   97.57669830    4.42999983    2.67000008
   17.29555511   97.57669830    4.90999985    2.48000002
   17.29972076   98.54750061    4.90999985    2.51999998
   17.30305481  105.32499695    4.90999985    2.53999996
   17.30611038   96.54380035    4.90999985    2.40000010
   17.30944443  111.72799683    4.90999985    2.39000010
   17.31250000  101.01499939    4.90999985    2.44000006
   17.31583214  110.94300079    4.90999985    2.40000010
   17.31916809   95.88629913    4.90999985    2.44000006
   17.32222366  102.47499847    4.90999985    2.67000008
   17.32333374  101.56099701    4.48999977    2.69000006
   17.32583427  106.53700256    1.89999998    2.71000004
   17.32916832  106.53500366    1.34000003    2.73000002
   17.33250046  101.26200104    1.21000004    2.71000004
   17.33833313  101.26200104    1.09000003    2.71000004
   17.34250069  106.62899780    2.36999989    2.67000008
   17.34583473  108.65499878    4.15999985    2.64000010
   17.34889030  102.43199921    4.84999990    2.64000010
   17.35222244  103.03600311    3.48000002    2.67000008
   17.35555649   94.90139771    2.39000010    2.71000004
   17.35666656  102.35199738    1.85000002    2.71000004
   17.35888863   96.96849823    0.73000002    2.73000002
   17.36222267   99.54000092    1.00000000    2.73000002
   17.36555672  105.91400146    1.51999998    2.69000006
   17.36861038   94.90750122    3.34999990    2.71000004
   17.37194443   97.94789886    3.93000007    2.66000009
   17.37527847   98.29530334    4.90999985    2.61999989
   17.38138962   98.29530334    4.90999985    2.64000010
   17.38527679  120.06700134    4.90999985    2.00000000
   17.38861084   -1.00000000    4.90999985    1.73000002
   17.39222145   -1.00000000    4.90999985    1.33000004
   17.39555550   -1.00000000    4.90999985    1.26999998
   17.39888954   -1.00000000    4.90999985    0.75000000
   17.40194321   -1.00000000    4.90999985    0.58999997
   17.40527725   -1.00000000    4.90999985    1.26999998
   17.40833282  111.01999664    4.90999985    1.98000002
   17.41166687  105.29900360    4.90999985    2.55999994
   17.41499901  111.26000214    2.94000006    2.71000004
   17.41805458  104.70200348    0.83999997    2.71000004
   17.42416573  104.70200348    0.69000000    2.73000002
   17.42833328  104.82099915    1.26999998    2.73000002
   17.43138885  103.55799866    3.05999994    2.67000008
   17.43472099  124.70400238    4.90999985    2.73000002
   17.43805504   -1.00000000    4.90999985    1.33000004
   17.44111061   -1.00000000    4.90999985    1.33000004
   17.44444275   -1.00000000    4.90999985    0.75000000
   17.44777679  243.22599792    4.90999985    0.76999998
   17.45083427  119.53800201    4.90999985    1.28999996
   17.45416832  107.74500275    4.90999985    2.48000002
   17.45666695  108.72399902    4.90999985    2.64000010
   17.45777893  115.07099915    4.90999985    2.64000010
   17.46111107  112.22499847    4.90999985    2.55999994
   17.46694565  112.22499847    4.90999985    2.55999994
   17.47111130  105.43199921    4.90999985    2.57999992
   17.47444534   98.92469788    4.90999985    2.42000008
   17.47750092  104.91699982    4.90999985    2.32999992
   17.48083305  102.54299927    4.90999985    2.55999994
   17.48388863  105.69899750    4.11999989    2.61999989
   17.48722267  110.10600281    4.11999989    2.61999989
   17.48999977  105.24500275    3.46000004    2.66000009
   17.49083328  106.20700073    2.61999989    2.67000008
   17.49416733  101.75399780    2.40000010    2.69000006
   17.49749947  106.37000275    1.05999994    2.71000004
   17.50055504  109.83399963    0.58999997    2.71000004
   17.50388908  112.52600098    0.52999997    2.71000004
   17.50972176  112.52600098    0.55000001    2.71000004
   17.51388931   99.35549927    0.52999997    2.71000004
   17.51722145  108.77400208    0.52999997    2.71000004
   17.52027702  108.10800171    0.52999997    2.71000004
   17.52333260  110.02899933    0.52999997    2.71000004
   17.52388954  108.28500366    0.52999997    2.71000004
   17.52722168  100.93599701    0.52999997    2.71000004
   17.53055573  105.89700317    0.52999997    2.71000004
   17.53361130  103.00299835    0.55000001    2.71000004
   17.53694344  101.88999939    0.55000001    2.73000002
   17.54027748   99.72059631    0.55000001    2.73000002
   17.54333305   99.22910309    0.56999999    2.71000004
   17.54666710   99.09239960    0.56999999    2.73000002
   17.55277634   99.09239960    0.56999999    2.71000004
   17.55666542  104.24700165    0.56999999    2.71000004
   17.55999947  103.29100037    0.58999997    2.71000004
   17.56333351  101.40699768    0.56999999    2.71000004
   17.56638718  105.29499817    0.52999997    2.71000004
   17.56972313  103.60299683    0.52999997    2.71000004
   17.57305717  102.39700317    0.51999998    2.71000004
   17.57611275  106.12699890    0.51999998    2.73000002
   17.57944489  115.73000336    0.50000000    2.71000004
   17.58250046  110.02999878    0.51999998    2.71000004
   17.58583450  103.44699860    0.51999998    2.71000004
   17.58916664  101.82599640    0.51999998    2.71000004
   17.59000015  105.19699860    0.51999998    2.71000004
   17.59555626  105.19699860    0.52999997    2.71000004
   17.59972191  103.94599915    0.51999998    2.73000002
   17.60277748  106.36199951    0.51999998    2.71000004
   17.60611153  105.85800171    0.52999997    2.71000004
   17.62361145   98.72270203    0.55000001    2.71000004
   17.62611198   98.99559784    0.52999997    2.71000004
   17.62944412  129.23699951    0.52999997    2.71000004
   17.63249969  132.62100220    0.52999997    2.71000004
   17.63861084  132.62100220    0.52999997    2.71000004
   17.64249992  124.70400238    0.52999997    2.71000004
   17.64583397  143.23199463    0.52999997    2.73000002
   17.64916611  145.98399353    0.52999997    2.71000004
   17.65222168  116.60800171    0.52999997    2.71000004
   17.65555573  132.11700439    0.52999997    2.71000004
   17.65694427  129.27299500    0.52999997    2.71000004
   17.65916634  164.83000183    0.51999998    2.73000002
   17.66222191  133.15899658    0.51999998    2.73000002
   17.66555595  123.83799744    0.52999997    2.71000004
   17.66860962  128.35600281    0.55000001    2.71000004
   17.67222214  102.51699829    0.58999997    2.71000004
   17.67527771  135.11599731    0.61000001    2.71000004
   17.68138885  135.11599731    0.61000001    2.71000004
   17.68555450  133.80599976    0.61000001    2.73000002
   17.68888855  116.65699768    0.63000000    2.71000004
   17.69027710  107.20099640    0.63000000    2.71000004
   17.69249916  122.47100067    0.63000000    2.71000004
   17.69555473  126.59799957    0.61000001    2.71000004
   17.69888878  118.21800232    0.61000001    2.73000002
   17.70194435  106.11199951    0.61000001    2.73000002
   17.70527840  100.49900055    0.64999998    2.71000004
   17.70861244  105.41600037    0.67000002    2.71000004
   17.71166801  106.57099915    0.64999998    2.71000004
   17.71500015  102.85500336    0.64999998    2.71000004
   17.71833420  105.21900177    0.64999998    2.71000004
   17.72444534  105.21900177    0.61000001    2.71000004
   17.72833443  100.74299622    0.58999997    2.71000004
   17.73166656  107.39299774    0.56999999    2.71000004
   17.73500061  111.36699677    0.56999999    2.71000004
   17.73805618   96.01409912    0.56999999    2.71000004
   17.74138832  102.15899658    0.52999997    2.71000004
   17.74472237  104.96499634    0.51999998    2.71000004
   17.74777794  102.56500244    0.51999998    2.73000002
   17.75111198   99.83489990    0.50000000    2.73000002
   17.75416756  100.22100067    0.50000000    2.73000002
   17.75694466   97.30989838    0.50000000    2.71000004
   17.75805473  103.58999634    0.50000000    2.71000004
   17.76111031  106.57599640    0.51999998    2.71000004
   17.76722145  106.57599640    0.58999997    2.71000004
   17.77138901   98.60910034    0.67000002    2.71000004
   17.77444458  102.68599701    0.70999998    2.71000004
   17.77777672   99.24629974    0.69000000    2.73000002
   17.78111076  104.83399963    0.64999998    2.71000004
   17.78416634   97.32060242    0.69000000    2.71000004
   17.78750038  105.60099792    0.69000000    2.71000004
   17.79027748  101.88099670    0.67000002    2.71000004
   17.79111099  100.44599915    0.67000002    2.71000004
   17.79416656  100.96499634    0.70999998    2.71000004
   17.79749870   95.37139893    0.83999997    2.71000004
   17.80083275  102.98200226    0.92000002    2.69000006
   17.80388832  103.14900208    0.89999998    2.73000002
   17.80999947  103.14900208    1.14999998    2.69000006
   17.81416512   98.45909882    1.14999998    2.69000006
   17.81750107   98.83589935    1.14999998    2.69000006
   17.82055664  101.86399841    1.23000002    2.71000004
   17.82361221   98.23989868    0.83999997    2.71000004
   17.82416725  101.33599854    0.83999997    2.71000004
   17.82722282  106.25399780    0.70999998    2.71000004
   17.83055687  101.63400269    0.70999998    2.71000004
   17.83388901   95.61579895    0.67000002    2.71000004
   17.83694458  102.23300171    0.61000001    2.71000004
   17.84027863  102.21399689    0.61000001    2.71000004
   17.84333420  104.21800232    0.61000001    2.73000002
   17.84666824  107.91699982    0.64999998    2.73000002
   17.85277748  107.91699982    0.56999999    2.75000000
   17.85694504  103.09799957    0.52999997    2.73000002
   17.86027908  106.47699738    0.46000001    2.71000004
   17.86333466  102.05699921    0.46000001    2.71000004
   17.86666679  110.30100250    0.44000000    2.71000004
   17.87000084  105.90100098    0.40000001    2.71000004
   17.87305641   94.26419830    0.40000001    2.71000004
   17.87638855  105.32599640    0.38000000    2.71000004
   17.87972260  104.38200378    0.38000000    2.71000004
   17.88277817  107.58699799    0.34000000    2.73000002
   17.88611031  106.15499878    0.34000000    2.71000004
   17.88916588   96.43640137    0.34000000    2.73000002
   17.89027786   89.46929932    0.34000000    2.73000002
   17.89583397   89.46929932    0.34000000    2.73000002
   17.89972115  108.26699829    0.34000000    2.73000002
   17.90305519  104.54699707    0.36000001    2.73000002
   17.90638924   95.18129730    0.34000000    2.71000004
   17.90944481  102.26100159    0.34000000    2.71000004
   17.91277695  106.03099823    0.36000001    2.71000004
   17.91611099  101.88700104    0.36000001    2.73000002
   17.91916656   97.61260223    0.36000001    2.73000002
   17.92249870   95.29149628    0.36000001    2.71000004
   17.92361069  102.28099823    0.36000001    2.71000004
   17.92611122  100.50800323    0.36000001    2.73000002
   17.92916679  106.23600006    0.36000001    2.71000004
   17.93249893   98.00399780    0.36000001    2.71000004
   17.93861008   98.00399780    0.30000001    2.71000004
   17.94277763  102.99299622    0.30000001    2.71000004
   17.94583321  100.16300201    0.25999999    2.73000002
   17.94916534  108.08300018    0.25999999    2.73000002
   17.95250130  101.75299835    0.25999999    2.73000002
   17.95555687   99.85769653    0.25999999    2.73000002
   17.95694542   94.97760010    0.25999999    2.73000002
   17.95916748   96.89499664    0.25999999    2.71000004
   17.96250153  105.42199707    0.25999999    2.73000002
   17.96555710  103.69899750    0.25999999    2.71000004
   17.96888924   96.83509827    0.25999999    2.73000002
   17.97194481   98.73940277    0.25999999    2.73000002
   17.97527885   95.90979767    0.25999999    2.71000004
   17.98139000   95.90979767    0.25999999    2.71000004
   17.98555565  105.82299805    0.25999999    2.73000002
   17.98888969  104.49099731    0.25999999    2.73000002
   17.99027824  104.14700317    0.25999999    2.73000002
   17.99250031  100.93099976    0.25999999    2.73000002
   17.99555588   97.54250336    0.25999999    2.73000002
   17.99888992  105.71700287    0.25999999    2.71000004
   18.00222206  104.09899902    0.28000000    2.71000004
   18.00527763   98.86820221    0.30000001    2.71000004
   18.00861168  100.22599792    0.31999999    2.71000004
   18.01194382  101.65699768    0.36000001    2.71000004
   18.01499939  101.53900146    0.36000001    2.71000004
   18.01833344  102.92299652    0.38000000    2.71000004
   18.02416611  102.92299652    0.51999998    2.71000004
   18.02833366   99.37020111    0.55000001    2.73000002
   18.03166580  100.54299927    0.56999999    2.71000004
   18.03472137  101.84700012    0.58999997    2.71000004
   18.03805542  103.88400269    0.56999999    2.71000004
   18.04138756  104.15100098    0.58999997    2.71000004
   18.04472160  101.62899780    0.58999997    2.71000004
   18.04777718  103.12599945    0.70999998    2.71000004
   18.05111122  104.68099976    0.79000002    2.71000004
   18.05416679  104.16100311    0.76999998    2.71000004
   18.05694389  100.75800323    0.83999997    2.71000004
   18.05805397   92.82379913    0.83999997    2.71000004
   18.06110954  100.98000336    1.33000004    2.69000006
   18.06722260  100.98000336    1.16999996    2.71000004
   18.07139015   98.14980316    2.69000006    2.67000008
   18.07444572   97.44770050    4.90999985    2.57999992
   18.07777786  103.70600128    4.90999985    2.32999992
   18.08083344  105.79299927    4.90999985    2.44000006
   18.08416748  122.51499939    4.90999985    2.40000010
   18.08750153  105.07700348    4.90999985    2.19000006
   18.09027863  127.86199951    4.90999985    2.36999989
   18.09111214  126.00800323    4.90999985    2.42000008
   18.09416771   -1.00000000    4.90999985    1.89999998
   18.09749985  182.67100525    4.90999985    1.26999998
   18.10083389  135.14900208    4.90999985    1.89999998
   18.10388947  110.84300232    4.90999985    2.00000000
   18.11000061  110.84300232    4.90999985    2.59999990
   18.11416626  105.18699646    4.90999985    2.59999990
   18.11722183  102.73000336    3.57999992    2.64000010
   18.12055588   99.38300323    2.91000009    2.67000008
   18.12361145   99.95449829    4.46999979    2.67000008
   18.12416649  104.87599945    4.90999985    2.67000008
   18.12722206   98.11080170    4.90999985    2.66000009
   18.13055611  105.91699982    4.90999985    2.64000010
   18.13388824  117.80100250    4.90999985    2.61999989
   18.13694382  102.13500214    4.90999985    2.59999990
   18.14027786  123.09999847    4.90999985    2.57999992
   18.14361191  121.01999664    4.90999985    2.40000010
   18.14666748  172.15299988    4.90999985    2.23000002
   18.15277672  172.15299988    4.90999985    1.53999996
   18.15694427   -1.00000000    4.90999985    1.55999994
   18.16055489   -1.00000000    4.90999985    1.50000000
   18.16388893   -1.00000000    4.90999985    1.58000004
   18.16694450   -1.00000000    4.90999985    1.30999994
   18.17027664   -1.00000000    4.90999985    1.09000003
   18.17361069   -1.00000000    4.90999985    1.14999998
   18.17666626   -1.00000000    4.90999985    1.01999998
   18.18000031   -1.00000000    4.90999985    0.98000002
   18.18305397   -1.00000000    4.90999985    0.75000000
   18.18638802   -1.00000000    4.90999985    0.75000000
   18.18972206   -1.00000000    4.90999985    1.13000000
   18.19972038  114.30799866    4.90999985    1.38000000
   18.20305634  120.86699677    4.90999985    1.71000004
   18.20611191   -1.00000000    4.90999985    1.51999998
   18.20944595   -1.00000000    4.90999985    0.51999998
   18.21250153   -1.00000000    4.90999985    0.38000000
   18.21583366   -1.00000000    4.90999985    0.58999997
   18.21916771   -1.00000000    4.90999985    0.40000001
   18.22222328   -1.00000000    4.90999985    0.40000001
   18.22583389   -1.00000000    4.90999985    1.33000004
   18.22916794   50.26959991    4.90999985    1.13000000
   18.23222351  180.22000122    4.90999985    1.89999998
   18.23833275  180.22000122    2.94000006    2.67000008
   18.24250031  147.84700012    1.88000000    2.69000006
   18.24583435  155.90499878    1.78999996    2.69000006
   18.24916649  135.06100464    1.63000000    2.67000008
   18.25222206  156.44999695    1.51999998    2.69000006
   18.25555611  151.75500488    1.51999998    2.69000006
   18.25749969  153.90400696    1.53999996    2.69000006
   18.25916672  142.83999634    1.53999996    2.69000006
   18.26250076  143.31700134    1.53999996    2.69000006
   18.26583290  139.01400757    1.94000006    2.67000008
   18.26888847  129.02099609    1.94000006    2.67000008
   18.27222252  127.54100037    1.91999996    2.67000008
   18.27555466  133.23399353    1.86000001    2.67000008
   18.28138924  133.23399353    3.28999996    2.66000009
   18.28555489  122.57199860    2.75000000    2.67000008
   18.28861046  141.07200623    2.32999992    2.69000006
   18.29083252  116.14800262    2.15000010    2.67000008
   18.29222107  119.04299927    1.85000002    2.67000008
   18.29555511  127.70700073    1.48000002    2.69000006
   18.29888916  125.41799927    1.48000002    2.69000006
   18.30194283  129.61000061    0.94000000    2.69000006
   18.30527687  127.03199768    0.88000000    2.67000008
   18.30861092  110.70800018    0.88000000    2.69000006
   18.31166649  113.51899719    1.09000003    2.69000006
   18.31499863  113.79399872    1.44000006    2.69000006
   18.31805611  118.27400208    1.98000002    2.67000008
   18.32416725  118.27400208    1.98000002    2.67000008
   18.32833481  114.79499817    1.88000000    2.67000008
   18.33166695  108.84600067    1.88000000    2.67000008
   18.33500099  120.54699707    1.44000006    2.69000006
   18.33805656   96.79049683    1.51999998    2.69000006
   18.34138870  113.17400360    2.51999998    2.69000006
   18.34472275  114.88099670    4.51000023    2.66000009
   18.34777832  108.63899994    4.17999983    2.66000009
   18.35111237  108.24600220    3.51999998    2.66000009
   18.35444450  105.91200256    3.07999992    2.67000008
   18.35750008  108.26300049    3.03999996    2.67000008
   18.35777855  102.81800079    3.05999994    2.66000009
   18.36111069  107.97000122    3.30999994    2.67000008
   18.36694527  107.97000122    3.61999989    2.66000009
   18.37111092   97.82520294    4.05999994    2.66000009
   18.37444496  107.14499664    4.90999985    2.66000009
   18.37750053  105.55000305    4.90999985    2.55999994
   18.38083267  106.27899933    4.90999985    2.57999992
   18.38416672  107.82800293    4.90999985    2.57999992
   18.38805580  117.35199738    4.90999985    2.61999989
   18.39083290  108.01999664    4.90999985    2.61999989
   18.39138794  110.82599640    4.90999985    2.61999989
   18.39472198  112.80699921    4.90999985    2.59999990
   18.39805603  106.58000183    4.90999985    2.64000010
   18.40111160  114.83799744    4.90999985    2.64000010
   18.40444374  108.47499847    4.90999985    2.57999992
   18.40972137  108.47499847    4.90999985    2.64000010
   18.41388893  114.89399719    4.90999985    2.61999989
   18.41722107  105.76599884    4.90999985    2.59999990
   18.42055511  106.29900360    4.90999985    2.59999990
   18.42361069  108.87400055    4.90999985    2.57999992
   18.42416573  114.69100189    4.90999985    2.57999992
   18.42722130  119.37599945    4.90999985    2.55999994
   18.43027687  121.14800262    4.90999985    2.57999992
   18.43361092  113.65299988    4.90999985    2.50000000
   18.43694305  122.10500336    4.90999985    2.59999990
   18.43999863  119.39299774    4.90999985    2.55999994
   18.44333267  112.54000092    4.90999985    2.57999992
   18.44638824  121.78900146    4.90999985    2.51999998
   18.45277786  121.78900146    4.90999985    2.40000010
   18.45694542  105.15799713    4.90999985    2.42000008
   18.45750046  112.10099792    4.90999985    2.42000008
   18.46055603  120.84700012    4.90999985    2.42000008
   18.46361160  116.48899841    4.90999985    2.32999992
   18.46694565  211.66799927    4.90999985    2.19000006
   18.47027779  326.54699707    4.90999985    1.88000000
   18.47333336  133.49499512    4.90999985    1.85000002
   18.47666740  109.52600098    4.90999985    2.36999989
   18.48000145  143.03300476    4.90999985    2.09999990
   18.48305511  129.10800171    4.90999985    2.28999996
   18.48638916  121.00800323    4.90999985    2.40000010
   18.48972321  125.45099640    4.90999985    2.30999994
   18.49083328  122.03399658    4.90999985    2.32999992
   18.49555588  122.03399658    4.90999985    2.30999994
   18.49972153  106.69300079    4.90999985    2.42000008
   18.50277710  109.36599731    4.90999985    2.48000002
   18.50611115  109.74900055    4.90999985    2.51999998
   18.50944519  115.52999878    4.90999985    2.53999996
   18.51250076  119.02899933    4.90999985    2.46000004
   18.51583290  114.28500366    4.90999985    2.42000008
   18.51916695  109.80100250    4.90999985    2.36999989
   18.52222252  113.93599701    4.90999985    2.32999992
   18.52416611  101.97200012    4.90999985    2.36999989
   18.52583313  107.96800232    4.90999985    2.36999989
   18.52888870  104.83399963    4.90999985    2.40000010
   18.53222275  117.24299622    4.90999985    2.40000010
   18.53833199  117.24299622    4.90999985    2.42000008
   18.54249954  111.80500031    4.90999985    2.23000002
   18.54583359  112.56999969    4.90999985    2.28999996
   18.54888916  129.94700623    4.90999985    2.26999998
   18.55222130  166.35000610    4.90999985    2.03999996
   18.55555534  201.65699768    4.90999985    1.89999998
   18.55749893  262.42001343    4.90999985    1.89999998
   18.55916595   81.92710114    4.90999985    1.80999994
   18.56222153  130.29400635    4.90999985    1.75000000
   18.56555557   -1.00000000    4.90999985    1.75000000
   18.56888962   -1.00000000    4.90999985    1.60000002
   18.57194519   86.51149750    4.90999985    1.48000002
   18.57527924  273.45901489    4.90999985    1.78999996
   18.58111191  273.45901489    4.90999985    1.96000004
   18.58527756  231.00100708    4.90999985    1.85000002
   18.58861160  156.81199646    4.90999985    1.85000002
   18.59083366  181.97999573    4.90999985    1.98000002
   18.59222221  132.84599304    4.90999985    1.98000002
   18.59527779  142.25799561    4.90999985    2.05999994
   18.59861183  109.20400238    4.90999985    2.09999990
   18.60194397  119.29199982    4.90999985    2.30999994
   18.60499954  124.17199707    4.90999985    2.57999992
   18.60833359  114.29799652    4.90999985    2.55999994
   18.61138916  110.32800293    4.90999985    2.57999992
   18.61472321  110.23699951    4.90999985    2.53999996
   18.61805534  110.34500122    4.90999985    2.55999994
   18.64055634  114.90200043    4.90999985    2.61999989
   18.64111137  105.76399994    4.90999985    2.59999990
   18.64138794  110.69000244    4.90999985    2.59999990
   18.64472198  109.95700073    4.90999985    2.55999994
   18.64805603  109.08100128    4.90999985    2.51999998
   18.65111160  113.99400330    4.90999985    2.53999996
   18.65444374  105.70600128    4.90999985    2.50000000
   18.65777779  110.33200073    4.90999985    2.55999994
   18.66083336   99.13279724    4.90999985    2.48000002
   18.66694450   99.13279724    4.90999985    2.50000000
   18.67111015  134.33999634    4.90999985    2.44000006
   18.67444420  141.83299255    4.90999985    2.07999992
   18.67472076  133.05000305    4.90999985    2.07999992
   18.67777634  128.53199768    4.90999985    1.96000004
   18.68111038  118.05899811    4.90999985    1.94000006
   18.68416595   -1.00000000    4.90999985    1.50000000
   18.68750000   -1.00000000    4.90999985    1.48000002
   18.69083214   -1.00000000    4.90999985    1.23000002
   18.69388771   -1.00000000    4.90999985    0.86000001
   18.69722176   -1.00000000    4.90999985    0.73000002
   18.70027924   -1.00000000    4.90999985    0.70999998
   18.70361137   -1.00000000    4.90999985    0.50000000
   18.71389008   -1.00000000    4.90999985    0.30000001
   18.71722221   -1.00000000    4.90999985    0.55000001
   18.72027779   -1.00000000    4.90999985    0.70999998
   18.72361183   -1.00000000    4.90999985    0.95999998
   18.72694588   -1.00000000    4.90999985    1.23000002
   18.73000145   -1.00000000    4.90999985    1.11000001
   18.73333359   -1.00000000    4.90999985    0.79000002
   18.73638916   -1.00000000    4.90999985    0.51999998
   18.73972321   -1.00000000    4.90999985    0.51999998
   18.74333382   -1.00000000    4.90999985    0.89999998
   18.74666786   -1.00000000    4.90999985    0.92000002
   18.75666618   -1.00000000    4.90999985    0.83999997
   18.76000023   -1.00000000    4.90999985    0.79000002
   18.76333427   -1.00000000    4.90999985    0.76999998
   18.76638794   -1.00000000    4.90999985    0.55000001
   18.76972198   -1.00000000    4.90999985    0.63000000
   18.77277756   -1.00000000    4.90999985    0.55000001
   18.77638817   -1.00000000    4.90999985    0.69000000
   18.77972221   -1.00000000    4.90999985    0.50000000
   18.78277779   -1.00000000    4.90999985    0.44000000
   18.78610992   -1.00000000    4.90999985    0.52999997
   18.78916550   -1.00000000    4.90999985    0.64999998
   18.79972076   -1.00000000    4.90999985    0.51999998
   18.80277634   -1.00000000    4.90999985    0.50000000
   18.80611038   -1.00000000    4.90999985    0.19000000
   18.80972099   -1.00000000    4.90999985    0.28000000
   18.81305504   -1.00000000    4.90999985    0.34000000
   18.81611061   -1.00000000    4.90999985    0.47999999
   18.81944466   -1.00000000    4.90999985    0.94000000
   18.82250023   -1.00000000    4.90999985    1.11000001
   18.82583427   -1.00000000    4.90999985    1.26999998
   18.82916832   -1.00000000    4.90999985    1.19000006
   18.83222389   -1.00000000    4.90999985    1.48000002
   18.83833313   -1.00000000    4.90999985    1.61000001
   18.84250069  117.18800354    4.90999985    1.66999996
   18.84583473  210.61999512    4.90999985    1.78999996
   18.84889030  139.37100220    4.90999985    1.85000002
   18.85222244  186.86700439    4.90999985    1.80999994
   18.85527802  144.08000183    4.90999985    1.91999996
   18.85861206  128.94500732    4.90999985    2.15000010
   18.86194420  126.05999756    4.90999985    2.28999996
   18.86499977  124.48200226    4.90999985    2.36999989
   18.86833382  124.23000336    4.90999985    2.32999992
   18.87166595  115.24099731    4.90999985    2.25000000
   18.87472153  111.29799652    4.90999985    2.28999996
   18.87527847  109.68800354    4.90999985    2.28999996
   18.88111115  109.68800354    4.90999985    2.36999989
   18.88527679  103.90799713    4.90999985    2.36999989
   18.88861084  111.35600281    4.90999985    2.36999989
   18.89166641  111.81900024    4.90999985    2.44000006
   18.89500046  114.45899963    4.90999985    2.40000010
   18.89833260  112.52899933    4.90999985    2.42000008
   18.90138817  111.33100128    4.90999985    2.40000010
   18.90472221  110.11199951    4.90999985    2.42000008
   18.90805435  106.06999969    4.90999985    2.39000010
   18.90861130  108.14600372    4.90999985    2.39000010
   18.91166687  111.69400024    4.90999985    2.36999989
   18.91472244  118.99199677    4.90999985    2.36999989
   18.91805458  113.65799713    4.90999985    2.40000010
   18.92416573  113.65799713    4.90999985    2.44000006
   18.92805481  109.63200378    4.90999985    2.46000004
   18.93138885  114.53700256    4.90999985    2.40000010
   18.93472099  108.42099762    4.90999985    2.40000010
   18.93777657  105.12999725    4.90999985    2.39000010
   18.94111061  109.65399933    4.90999985    2.36999989
   18.94194412  103.47899628    4.90999985    2.36999989
   18.94472122  104.35099792    4.90999985    2.44000006
   18.94777679  108.47899628    4.90999985    2.51999998
   18.95111275  110.89399719    4.90999985    2.42000008
   18.95444489  114.56099701    4.90999985    2.42000008
   18.95750046  107.08999634    4.90999985    2.48000002
   18.96083450  131.52099609    4.90999985    2.42000008
   18.96694565  131.52099609    4.90999985    2.25000000
   18.97111130  117.98500061    4.90999985    2.40000010
   18.97416687  114.21900177    4.90999985    2.28999996
   18.97527885  112.11499786    4.90999985    2.42000008
   18.97805595  118.46299744    4.90999985    2.44000006
   18.98111153  102.65899658    4.90999985    2.44000006
   18.98444557  102.26100159    4.90999985    2.48000002
   18.98777771  109.25599670    4.90999985    2.44000006
   18.99083328  114.72299957    4.90999985    2.39000010
   18.99416733  168.20799255    4.90999985    2.28999996
   18.99722290  260.90200806    4.90999985    1.85000002
   19.00055504  147.00399780    4.90999985    1.85000002
   19.00388908  131.11599731    4.90999985    2.09999990
   19.00972176  131.11599731    4.90999985    2.05999994
   19.01388931  134.67199707    4.90999985    1.83000004
   19.01722145  124.09300232    4.90999985    2.21000004
   19.02027702  134.91799927    4.90999985    2.19000006
   19.02361107  119.11499786    4.90999985    2.11999989
   19.02666664  116.27200317    4.90999985    2.09999990
   19.03000069  128.22799683    4.90999985    2.28999996
   19.03333282  105.65399933    4.90999985    2.28999996
   19.03638840  119.34100342    4.90999985    2.17000008
   19.03972244  124.18099976    4.90999985    2.17000008
   19.04194450  118.85900116    4.90999985    2.21000004
   19.04333305  124.53399658    4.90999985    2.17000008
   19.04638863  134.57800293    4.90999985    2.17000008
   19.05249977  134.57800293    4.90999985    2.17000008
   19.05666542  104.88600159    4.90999985    2.21000004
   19.05999947  106.81700134    4.90999985    2.23000002
   19.06305504  120.38800049    4.90999985    2.25000000
   19.06638718  137.56700134    4.90999985    2.19000006
   19.06972313  114.05999756    4.90999985    2.17000008
   19.07277870  116.12599945    4.90999985    2.19000006
   19.07527924  115.00000000    4.90999985    2.17000008
   19.07666779  139.66499329    4.90999985    2.13000011
   19.07972336  102.16699982    4.90999985    2.09999990
   19.08305550  130.94000244    4.90999985    2.21000004
   19.08638954  122.03199768    4.90999985    2.11999989
   19.08944511  114.92600250    4.90999985    2.23000002
   19.09555626  114.92600250    4.90999985    2.28999996
   19.09944534  116.91999817    4.90999985    2.28999996
   19.10277748  114.93699646    4.90999985    2.28999996
   19.10611153  115.24299622    4.90999985    2.30999994
   19.10861206  110.71199799    4.90999985    2.30999994
   19.10972214  114.13999939    4.90999985    2.32999992
   19.11277771  113.09400177    4.90999985    2.36999989
   19.11611176  104.76300049    4.90999985    2.36999989
   19.11944389  116.59899902    4.90999985    2.36999989
   19.12249947  108.78700256    4.90999985    2.36999989
   19.12583351  111.38099670    4.90999985    2.32999992
   19.12888908  104.09400177    4.90999985    2.32999992
   19.13222313  103.40200043    4.90999985    2.36999989
   19.13833237  103.40200043    4.90999985    2.36999989
   19.14249992   99.21700287    4.90999985    2.39000010
   19.14555550  106.67400360    4.90999985    2.36999989
   19.14888954  106.97200012    4.90999985    2.36999989
   19.15222168   97.59799957    4.90999985    2.36999989
   19.15527725  112.95300293    4.90999985    2.40000010
   19.15861130  113.07199860    4.90999985    2.34999990
   19.16166687  109.07099915    4.90999985    2.42000008
   19.16499901  110.85299683    4.90999985    2.42000008
   19.16833305  111.41600037    4.90999985    2.44000006
   19.17138863  108.41200256    4.90999985    2.40000010
   19.17472076  101.42900085    4.90999985    2.42000008
   19.17527771  105.42099762    4.90999985    2.42000008
   19.18111038  105.42099762    4.90999985    2.44000006
   19.18527603  106.93000031    4.90999985    2.44000006
   19.18861008  107.59400177    4.90999985    2.44000006
   19.19166565  105.91200256    4.90999985    2.46000004
   19.19499969  113.55100250    4.90999985    2.44000006
   19.19805527  110.97599792    4.90999985    2.39000010
   19.20138931  109.18599701    4.90999985    2.36999989
   19.20472336  117.95500183    4.90999985    2.30999994
   19.20777893  123.81199646    4.90999985    2.36999989
   19.20861244  107.44400024    4.90999985    2.36999989
   19.21138954  122.54100037    4.90999985    2.28999996
   19.21444511  122.25399780    4.90999985    2.21000004
   19.21777916  117.74099731    4.90999985    2.25000000
   19.22389030  117.74099731    4.90999985    2.21000004
   19.22805595  146.08000183    4.90999985    2.25000000
   19.23139000  135.94900513    4.90999985    2.15000010
   19.23444557  104.47599792    4.90999985    2.17000008
   19.23777771  120.30300140    4.90999985    2.28999996
   19.24111176  142.32299805    4.90999985    2.25000000
   19.24194527  135.49000549    4.90999985    2.21000004
   19.24472237  134.06399536    4.90999985    2.17000008
   19.24777794  134.28900146    4.90999985    2.17000008
   19.25111198  114.16000366    4.90999985    2.13000011
   19.25444412  110.80100250    4.90999985    2.25000000
   19.25749969  120.00399780    4.90999985    2.23000002
   19.26083374  132.46099854    4.90999985    2.25000000
   19.26694489  132.46099854    4.90999985    2.03999996
   19.27083397  131.84599304    4.90999985    2.15000010
   19.27416611  146.26300049    4.90999985    2.13000011
   19.27527809  156.70100403    4.90999985    2.13000011
   19.27777672  212.53900146    4.90999985    2.09999990
   19.28083229  330.32501221    4.90999985    1.96000004
   19.28416634  293.08599854    4.90999985    1.85000002
   19.28750038  125.93800354    4.90999985    1.80999994
   19.29055595   -1.00000000    4.90999985    1.69000006
   19.29388809  146.69200134    4.90999985    1.78999996
   19.29722214  116.10900116    4.90999985    1.78999996
   19.30027771   -1.00000000    4.90999985    1.66999996
   19.30360985   -1.00000000    4.90999985    1.53999996
   19.31388855   -1.00000000    4.90999985    0.98000002
   19.31694603   -1.00000000    4.90999985    0.89999998
   19.32027817   -1.00000000    4.90999985    0.61000001
   19.32333374   -1.00000000    4.90999985    0.52999997
   19.32666779   -1.00000000    4.90999985    0.47999999
   19.33000183   -1.00000000    4.90999985    0.46000001
   19.33305550   -1.00000000    4.90999985    0.46000001
   19.33638954   -1.00000000    4.90999985    0.58999997
   19.33972359   -1.00000000    4.90999985    0.73000002
   19.34333420   -1.00000000    4.90999985    0.76999998
   19.34638977   -1.00000000    4.90999985    0.80000001
   19.35666656   -1.00000000    4.90999985    1.11000001
   19.35972214   -1.00000000    4.90999985    1.11000001
   19.36305618   -1.00000000    4.90999985    1.16999996
   19.36638832   -1.00000000    4.90999985    1.25000000
   19.36944389   -1.00000000    4.90999985    1.19000006
   19.37277794   -1.00000000    4.90999985    1.21000004
   19.37638855   -1.00000000    4.90999985    1.38000000
   19.37944412   -1.00000000    4.90999985    1.41999996
   19.38277817   -1.00000000    4.90999985    1.36000001
   19.38611031   -1.00000000    4.90999985    1.39999998
   19.38916588   -1.00000000    4.90999985    1.50000000
   19.39527702   -1.00000000    4.90999985    1.51999998
   19.39944458   -1.00000000    4.90999985    1.48000002
   19.40277672   -1.00000000    4.90999985    1.44000006
   19.40583229   -1.00000000    4.90999985    1.34000003
   19.40972137   -1.00000000    4.90999985    1.26999998
   19.41277695   -1.00000000    4.90999985    1.28999996
   19.41611099   -1.00000000    4.90999985    1.36000001
   19.41944313   -1.00000000    4.90999985    1.39999998
   19.42249870   -1.00000000    4.90999985    1.46000004
   19.42583275   -1.00000000    4.90999985    1.55999994
   19.42888832   -1.00000000    4.90999985    1.55999994
   19.43222237   -1.00000000    4.90999985    1.51999998
   19.43833160   -1.00000000    4.90999985    1.63000000
   19.44222069   -1.00000000   -1.00000000   -1.00000000
   19.44555473  146.38499451    4.90999985    1.69000006
   19.44888878  283.11801147    4.90999985    1.71000004
   19.45194435  110.76100159    4.90999985    1.75000000
   19.45527840  288.05300903    4.90999985    1.76999998
   19.45861244  346.73800659    4.90999985    1.80999994
   19.46166801  135.00599670    4.90999985    1.83000004
   19.46500015  304.36499023    4.90999985    1.76999998
   19.46805573  264.33599854    4.90999985    1.76999998
   19.47138977  245.50900269    4.90999985    1.80999994
   19.47472191  311.37899780    4.90999985    1.80999994
   19.47527885  310.68701172    4.90999985    1.80999994
   19.48111153  310.68701172    4.90999985    1.78999996
   19.48527718  185.67900085    4.90999985    1.75000000
   19.48833275  187.18099976    4.90999985    1.73000002
   19.49166679   78.43389893    4.90999985    1.71000004
   19.49500084   95.93049622    4.90999985    1.73000002
   19.49833298   -1.00000000    4.90999985    1.71000004
   19.50138855   -1.00000000    4.90999985    1.51999998
   19.50472260   -1.00000000    4.90999985    1.28999996
   19.50777817   -1.00000000    4.90999985    1.23000002
   19.51138878   -1.00000000    4.90999985    0.98000002
   19.51444435   -1.00000000    4.90999985    0.95999998
   19.51777840   -1.00000000    4.90999985    0.81999999
   19.52805519   -1.00000000    4.90999985    1.00000000
   19.53111076   -1.00000000    4.90999985    1.01999998
   19.53444481   -1.00000000    4.90999985    1.16999996
   19.53777695   -1.00000000    4.90999985    1.34000003
   19.54083252   -1.00000000    4.90999985    1.30999994
   19.54444313   -1.00000000    4.90999985    1.38000000
   19.54749870   -1.00000000    4.90999985    1.60000002
   19.55083275   23.57019997    4.90999985    1.60000002
   19.55416679   60.78519821    4.90999985    1.63000000
   19.55722237  101.03600311    4.90999985    1.63000000
   19.56055450   88.84420013    4.90999985    1.64999998
   19.56666756   88.84420013    4.90999985    1.78999996
   19.57083511   87.38659668    4.90999985    1.76999998
   19.57416725   -1.00000000    4.90999985    1.63000000
   19.57527924   23.57019997    4.90999985    1.61000001
   19.57777786   23.57019997    4.90999985    1.66999996
   19.58111191   -1.00000000    4.90999985    1.73000002
   19.58416748  182.72900391    4.90999985    1.63000000
   19.58750153  231.43600464    4.90999985    1.73000002
   19.59083366  353.37200928    4.90999985    1.86000001
   19.59388924  140.05099487    4.90999985    1.98000002
   19.59722328  155.50599670    4.90999985    2.05999994
   19.60055542  153.28500366    4.90999985    2.09999990
   19.60361099  143.61799622    4.90999985    2.13000011
   19.60972214  143.61799622    4.90999985    2.15000010
   19.61361122  144.70399475    4.90999985    2.21000004
   19.61694527  138.30499268    4.90999985    2.26999998
   19.62027740  138.83799744    4.90999985    2.25000000
   19.62333298  132.40199280    4.90999985    2.30999994
   19.62666702  143.54699707    4.90999985    2.28999996
   19.63000107  168.60200500    4.90999985    2.25000000
   19.63305473  140.50000000    4.90999985    2.21000004
   19.63638878  134.33099365    4.90999985    2.28999996
   19.63944435  122.87799835    4.90999985    2.32999992
   19.65805435  126.42099762    4.90999985    2.34999990
   19.66194344  126.42099762    4.90999985    2.32999992
   19.66611099  128.84700012    4.90999985    2.21000004
   19.66944313  153.13400269    4.90999985    2.13000011
   19.67277718  119.08899689    4.90999985    2.09999990
   19.67583275  138.70100403    4.90999985    2.28999996
   19.67916679  131.98300171    4.90999985    2.32999992
   19.68249893  107.16699982    4.90999985    2.28999996
   19.68555450  121.84700012    4.90999985    2.36999989
   19.68888855  103.30000305    4.90999985    2.40000010
   19.69111061  113.29799652    4.90999985    2.50000000
   19.69249916  108.79499817    4.90999985    2.46000004
   19.69583321  110.84300232    4.90999985    2.44000006
   19.69888878  105.37999725    4.90999985    2.48000002
   19.70499992  105.37999725    4.90999985    2.48000002
   19.70916748  114.04499817    4.90999985    2.48000002
   19.71222305  103.57900238    4.90999985    2.48000002
   19.71555710  112.12300110    4.90999985    2.51999998
   19.71861076  115.64399719    4.90999985    2.50000000
   19.72194481  103.31400299    4.90999985    2.50000000
   19.72444534  119.47299957    4.90999985    2.51999998
   19.72555542  112.43699646    4.90999985    2.51999998
   19.72888947  111.76999664    4.90999985    2.50000000
   19.73194504  113.75499725    4.90999985    2.48000002
   19.73527718  124.03399658    4.90999985    2.51999998
   19.73833275  107.55300140    4.90999985    2.53999996
   19.74166679  105.44899750    4.46999979    2.53999996
   19.74777794  105.44899750    4.07999992    2.55999994
   19.75194359  108.48300171    4.05999994    2.53999996
   19.75499916  100.81199646    4.21999979    2.53999996
   19.75777817  104.52300262    4.40999985    2.53999996
   19.75861168  105.95400238    4.40999985    2.53999996
   19.76194382  109.69200134    4.80999994    2.53999996
   19.76499939  107.55699921    4.90999985    2.53999996
   19.76833344  103.11799622    4.90999985    2.51999998
   19.77138901  128.66299438    4.90999985    2.48000002
   19.77472115  126.85900116    4.90999985    2.36999989
   19.77805519  137.67300415    4.90999985    2.32999992
   19.78111076  102.38600159    4.90999985    2.17000008
   19.78444481  122.84300232    4.90999985    2.39000010
   19.79055595  122.84300232    4.90999985    2.32999992
   19.79472160  121.58999634    4.90999985    2.32999992
   19.79805565  117.24800110    4.90999985    2.30999994
   19.80111122  117.67800140    4.90999985    2.32999992
   19.80444336  124.16500092    4.90999985    2.36999989
   19.80777740  109.54900360    4.90999985    2.39000010
   19.81083298  112.29000092    4.90999985    2.46000004
   19.81416512  118.37300110    4.90999985    2.46000004
   19.81722260  117.05000305    4.90999985    2.48000002
   19.82055664  110.66899872    4.90999985    2.48000002
   19.82389069  113.03700256    4.90999985    2.46000004
   19.82555580  117.60900116    4.90999985    2.44000006
   19.82750130  115.33499908    4.90999985    2.44000006
   19.83333397  115.33499908    4.90999985    2.48000002
   19.83750153  122.94899750    4.90999985    2.44000006
   19.84083366  130.43400574    4.90999985    2.36999989
   19.84388924  131.42100525    4.90999985    2.21000004
   19.84722328  178.78999329    4.90999985    2.01999998
   19.85055542  337.11401367    4.90999985    1.96000004
   19.85361099  267.55300903    4.90999985    1.76999998
   19.85694504  162.11199951    4.90999985    1.89999998
   19.85888863  206.33000183    4.90999985    1.96000004
   19.86055565  131.93299866    4.90999985    1.89999998
   19.86361122  114.03199768    4.90999985    2.00000000
   19.86694527  142.25100708    4.90999985    2.19000006
   19.87027740  133.65499878    4.90999985    2.13000011
   19.87638855  133.65499878    4.90999985    2.09999990
   19.88027763  182.58799744    4.90999985    1.96000004
   19.88361168  214.91999817    4.90999985    1.94000006
   19.88694382  308.70901489    4.90999985    1.80999994
   19.88999939  110.13200378    4.90999985    1.80999994
   19.89249992  131.78999329    4.90999985    2.17000008
   19.89388847  122.34300232    4.90999985    2.25000000
   19.89694405  130.18499756    4.90999985    2.28999996
   19.90027809  149.16299438    4.90999985    2.23000002
   19.90333366  215.25799561    4.90999985    2.17000008
   19.90666580  358.06201172    4.90999985    1.94000006
   19.90999985   -1.00000000    4.90999985    1.69000006
   19.91305542   -1.00000000    4.90999985    1.69000006
   19.91916656   -1.00000000    4.90999985    1.66999996
   19.92333221   -1.00000000    4.90999985    1.64999998
   19.92666626   -1.00000000    4.90999985    1.34000003
   19.93000031   -1.00000000    4.90999985    1.07000005
   19.93333244   -1.00000000    4.90999985    0.98000002
   19.93638802   -1.00000000    4.90999985    1.19000006
   19.93972206   -1.00000000    4.90999985    1.26999998
   19.94277763   -1.00000000    4.90999985    1.21000004
   19.94610977   -1.00000000    4.90999985    1.05999994
   19.94944382   -1.00000000    4.90999985    1.16999996
   19.95250130   -1.00000000    4.90999985    1.05999994
   19.95583344   29.61240005    4.90999985    1.44000006
   19.96194458   29.61240005    4.90999985    1.63000000
   19.96611214   99.74220276    4.90999985    1.66999996
   19.96944427  513.87597656    4.90999985    1.73000002
   19.97138977  419.37600708    4.90999985    1.83000004
   19.97249985  402.78900146    4.90999985    1.86000001
   19.97389030  371.67498779    4.90999985    1.91999996
   19.97527885  406.48699951    4.90999985    1.91999996
   19.97666740  354.29800415    4.90999985    1.89999998
   19.97805595  398.78399658    4.90999985    1.89999998
   19.97944450  421.64898682    4.90999985    1.89999998
   19.98083305  361.41598511    4.90999985    1.86000001
   19.98222351  368.37500000    4.90999985    1.86000001
   19.98361206  463.77398682    4.90999985    1.86000001
   19.98500061  439.01098633    4.90999985    1.86000001
   19.98638916  456.73699951    4.90999985    1.85000002
   19.98777771  342.81298828    4.90999985    1.83000004
   19.98805618   -1.00000000    4.90999985    1.19000006
   19.98805618   -1.00000000    4.90999985    1.26999998
   19.98805618   -1.00000000    4.90999985    1.21000004
   19.98805618   -1.00000000    4.90999985    1.05999994
   19.98805618   -1.00000000    4.90999985    1.16999996
   19.98833275   -1.00000000    4.90999985    1.05999994
   19.98833275   29.61240005    4.90999985    1.44000006
   19.98833275   99.74220276    4.90999985    1.66999996
   19.98833275  513.87597656    4.90999985    1.73000002
   19.98888969  169.53599548    4.90999985    1.80999994
   19.99222183   84.42269897    4.90999985    1.71000004
   19.99555588   -1.00000000    4.90999985    1.58000004
   19.99861145   -1.00000000    4.90999985    1.36000001
   20.00194359   -1.00000000    4.90999985    1.26999998
   20.01277733   -1.00000000    4.90999985    1.00000000
   20.01611137   -1.00000000    4.90999985    0.95999998
   20.01916695   -1.00000000    4.90999985    0.92000002
   20.02277756   -1.00000000    4.90999985    0.86000001
   20.02583313   -1.00000000    4.90999985    0.88000000
   20.02916718   -1.00000000    4.90999985    0.92000002
   20.03249931   -1.00000000    4.90999985    0.94000000
   20.03555489   -1.00000000    4.90999985    1.03999996
   20.03888893   -1.00000000    4.90999985    1.09000003
   20.04194450   -1.00000000    4.90999985    1.03999996
   20.04527664   -1.00000000    4.90999985    0.92000002
   20.05555534   -1.00000000    4.90999985    1.14999998
   20.05888748   -1.00000000    4.90999985    1.16999996
   20.06194305   -1.00000000    4.90999985    1.16999996
   20.06527710   -1.00000000    4.90999985    1.13000000
   20.06861115   -1.00000000    4.90999985    1.09000003
   20.07166672   -1.00000000    4.90999985    1.09000003
   20.07500076   -1.00000000    4.90999985    0.86000001
   20.07833481   -1.00000000    4.90999985    0.89999998
   20.08139038   -1.00000000    4.90999985    1.03999996
   20.08472252   -1.00000000    4.90999985    1.14999998
   20.08777809   -1.00000000    4.90999985    1.21000004
   20.09833336   -1.00000000    4.90999985    1.25000000
   20.10166740   -1.00000000    4.90999985    1.23000002
   20.10499954   -1.00000000    4.90999985    1.23000002
   20.10805511   -1.00000000    4.90999985    1.36000001
   20.11138916   -1.00000000    4.90999985    1.39999998
   20.11472321   -1.00000000    4.90999985    1.46000004
   20.11777878   -1.00000000    4.90999985    1.58000004
   20.12111092   -1.00000000    4.90999985    1.53999996
   20.12472153   -1.00000000    4.90999985    1.48000002
   20.12777710   -1.00000000    4.90999985    1.46000004
   20.13111115   -1.00000000    4.90999985    1.48000002
   20.14138794   -1.00000000    4.90999985    1.71000004
   20.14444351   -1.00000000    4.90999985    1.75000000
   20.14777756   -1.00000000    4.90999985    1.76999998
   20.15111160   -1.00000000    4.90999985    1.76999998
   20.15416718   -1.00000000    4.90999985    1.78999996
   20.15777779   -1.00000000    4.90999985    1.76999998
   20.16083336   -1.00000000    4.90999985    1.76999998
   20.16416550   -1.00000000    4.90999985    1.78999996
   20.16749954   -1.00000000    4.90999985    1.76999998
   20.17055511   -1.00000000    4.90999985    1.75000000
   20.17388916   -1.00000000    4.90999985    1.75000000
   20.18416595   -1.00000000    4.90999985    1.80999994
   20.18750000   -1.00000000    4.90999985    1.83000004
