    HOUR (UT)   FLARE FACTOR    SKY TESTER    SUN TESTER
   12.11000061   -1.00000000   -1.00000000   -1.00000000
   12.13166714  195.83200073    4.57999992    1.89999998
   12.13611126  224.89100647    3.99000001    1.89999998
   12.14111137   -1.00000000    3.28999996    1.89999998
   12.14444447   -1.00000000    2.80999994    1.89999998
   12.14750004  151.42100525    2.50000000    1.89999998
   12.15083313  151.18800354    2.15000010    1.91999996
   12.15388870  152.69000244    1.86000001    1.91999996
   12.15722179  159.73899841    1.76999998    1.91999996
   12.16055489  148.89700317    1.71000004    1.91999996
   12.16361046  130.10499573    1.66999996    1.91999996
   12.16499996  142.21499634    1.48000002    1.91999996
   12.16750050  142.80700684    1.33000004    1.94000006
   12.17055607  163.77799988    1.23000002    1.91999996
   12.17388916  156.81300354    1.16999996    1.94000006
   12.17694473  150.29699707    1.14999998    1.91999996
   12.18027782  145.44500732    1.11000001    1.94000006
   12.18361092  152.81300354    1.07000005    1.94000006
   12.18666649  151.86399841    1.03999996    1.94000006
   12.19000053  144.67300415    1.00000000    1.94000006
   12.19333363  148.93800354    0.98000002    1.94000006
   12.19638920  147.70599365    0.95999998    1.96000004
   12.19833374  141.30499268    0.95999998    1.94000006
   12.20027733  136.68800354    0.95999998    1.96000004
   12.20361137  144.05200195    0.92000002    1.96000004
   12.20694447  142.50300598    0.92000002    1.96000004
   12.21027756  133.90899658    0.92000002    1.96000004
   12.21333313  133.69200134    0.92000002    1.94000006
   12.21666622  151.11199951    0.89999998    1.96000004
   12.21972179  141.15199280    0.89999998    1.96000004
   12.22305489  151.48699951    0.89999998    1.96000004
   12.22638798  142.69299316    0.89999998    1.98000002
   12.22972202  156.55099487    0.89999998    1.96000004
   12.23166656  149.69200134    0.89999998    1.96000004
   12.23333359  153.77299500    0.89999998    1.96000004
   12.23638916  140.70199585    0.89999998    1.96000004
   12.23972225  133.94599915    0.88000000    1.96000004
   12.24277782  142.44999695    0.88000000    1.98000002
   12.24611092  150.83799744    0.88000000    1.98000002
   12.24944496  155.14399719    0.88000000    1.98000002
   12.25249958  135.79299927    0.88000000    1.98000002
   12.25583363  148.65800476    0.88000000    1.98000002
   12.25916672  156.24099731    0.86000001    2.00000000
   12.26222229  131.13900757    0.86000001    2.00000000
   12.26500034  152.38299561    0.88000000    2.00000000
   12.26611137  148.83799744    0.88000000    2.00000000
   12.26916599  163.60499573    0.86000001    2.00000000
   12.27250004  143.95300293    0.86000001    2.00000000
   12.27583313  150.51699829    0.86000001    2.00000000
   12.27888870  146.64100647    0.86000001    2.00000000
   12.28222179  157.14900208    0.86000001    2.00000000
   12.28527832  139.37800598    0.86000001    2.00000000
   12.28861141  151.45500183    0.83999997    2.00000000
   12.29194450  147.93800354    0.86000001    2.00000000
   12.29500008  160.88600159    0.86000001    2.00000000
   12.29833412  150.22099304    0.86000001    2.00000000
   12.29888916  178.25000000    0.86000001    2.00000000
   12.30194473  142.95700073    0.83999997    2.01999998
   12.30527782  140.04200745    0.83999997    2.01999998
   12.30861092  148.26899719    0.83999997    2.01999998
   12.31166649  140.17999268    0.81999999    2.01999998
   12.31500053  146.30700684    0.81999999    2.03999996
   12.31805515  154.56100464    0.81999999    2.03999996
   12.32138920  150.47000122    0.81999999    2.03999996
   12.32472229  149.11599731    0.81999999    2.01999998
   12.32777786  151.67300415    0.81999999    2.03999996
   12.33111095  167.58700562    0.81999999    2.03999996
   12.33166695  150.78599548    0.81999999    2.03999996
   12.33472157  151.12100220    0.81999999    2.03999996
   12.33777714  151.12300110    0.81999999    2.03999996
   12.34138870  155.77000427    0.81999999    2.03999996
   12.34444427  151.63400269    0.81999999    2.03999996
   12.34777737  161.56300354    0.81999999    2.03999996
   12.35083389  154.41999817    0.81999999    2.03999996
   12.35416698  147.21499634    0.81999999    2.05999994
   12.35750008  147.61799622    0.80000001    2.05999994
   12.36055565  140.95899963    0.80000001    2.05999994
   12.36388969  151.72099304    0.80000001    2.05999994
   12.36500072  149.63600159    0.80000001    2.05999994
   12.36750031  150.32099915    0.80000001    2.05999994
   12.37055588  145.60499573    0.80000001    2.05999994
   12.37388897  155.65699768    0.80000001    2.05999994
   12.37722206  150.53100586    0.80000001    2.05999994
   12.38027763  152.93800354    0.80000001    2.07999992
   12.38361073  151.18499756    0.80000001    2.05999994
   12.38666630  141.73399353    0.80000001    2.07999992
   12.39000034  149.25199890    0.80000001    2.07999992
   12.39333344  145.94999695    0.80000001    2.07999992
   12.39638901  149.70599365    0.79000002    2.07999992
   12.39833355  147.23100281    0.79000002    2.07999992
   12.40027714  157.76199341    0.79000002    2.07999992
   12.40333271  150.73599243    0.80000001    2.07999992
   12.40666676  151.29899597    0.79000002    2.07999992
   12.40999985  150.15400696    0.79000002    2.07999992
   12.41305542  152.73399353    0.79000002    2.07999992
   12.41638851  147.59399414    0.79000002    2.07999992
   12.41972256  153.81599426    0.79000002    2.09999990
   12.42277813  156.31500244    0.79000002    2.09999990
   12.42611122  151.79200745    0.79000002    2.09999990
   12.42944431  146.22999573    0.79000002    2.09999990
   12.43166733  145.13699341    0.79000002    2.09999990
   12.43305588  144.86999512    0.79000002    2.09999990
   12.43611145  140.97599792    0.79000002    2.09999990
   12.43944454  142.20300293    0.79000002    2.09999990
   12.44277763  138.07400513    0.79000002    2.09999990
   12.44583321  145.72099304    0.79000002    2.09999990
   12.44916630  131.88699341    0.79000002    2.09999990
   12.45249939  142.65100098    0.79000002    2.09999990
   12.45555496  140.98599243    0.80000001    2.11999989
   12.45888901  138.98699951    0.80000001    2.11999989
   12.46194458  139.41700745    0.83999997    2.11999989
   12.46527767  143.12600708    0.89999998    2.11999989
   12.46583271  149.77499390    0.89999998    2.11999989
   12.46916580  141.50100708    0.95999998    2.11999989
   12.47249985  139.21800232    1.03999996    2.11999989
   12.47555542  139.64100647    1.03999996    2.11999989
   12.47888851  144.79299927    1.16999996    2.11999989
   12.48194408  142.27699280    1.28999996    2.13000011
   12.48527813  142.95100403    1.28999996    2.13000011
   12.48861122  151.88200378    1.69000006    2.11999989
   12.49166679  165.27900696    1.69000006    2.11999989
   12.49499989  142.63999939    1.69000006    2.11999989
   12.49833393  145.04299927    1.73000002    2.11999989
   12.49888897  142.72300720    1.73000002    2.11999989
   12.50194454  138.21800232    1.80999994    2.13000011
   12.50527763  136.36000061    1.80999994    2.13000011
   12.50833321  148.21800232    1.85000002    2.13000011
   12.51166630  142.82299805    1.88000000    2.13000011
   12.51500034  146.47700500    1.88000000    2.13000011
   12.51805496  145.82800293    1.86000001    2.11999989
   12.52138901  187.81700134    1.85000002    2.11999989
   12.52472210  180.26199341    1.83000004    2.13000011
   12.52777767  169.97700500    1.78999996    2.13000011
   12.53111076  167.50799561    1.78999996    2.13000011
   12.53222179  166.52900696    1.75000000    2.13000011
   12.53472233  221.23300171    1.69000006    2.15000010
   12.53805637  167.83500671    1.69000006    2.15000010
   12.54111195  203.51199341    1.63000000    2.15000010
   12.54444504  166.11900330    1.61000001    2.15000010
   12.54777813  151.48599243    1.61000001    2.15000010
   12.55083370  192.00300598    1.60000002    2.15000010
   12.55416679  176.53100586    1.55999994    2.15000010
   12.55749989  166.83799744    1.50000000    2.15000010
   12.56055546  150.90600586    1.41999996    2.15000010
   12.56388950  145.44799805    1.41999996    2.15000010
   12.56555557  157.25900269    1.34000003    2.15000010
   12.56750011  165.56599426    1.34000003    2.15000010
   12.57083321  162.39500427    1.26999998    2.17000008
   12.57388878  154.23300171    1.19000006    2.17000008
   12.57722187  149.66499329    1.09000003    2.17000008
   12.58055592  162.45799255    1.01999998    2.17000008
   12.58361053  162.47700500    0.95999998    2.17000008
   12.58694458  161.48100281    0.92000002    2.17000008
   12.59027767  173.66999817    0.92000002    2.17000008
   12.59333324  152.20599365    0.88000000    2.17000008
   12.59666634  191.23399353    0.86000001    2.17000008
   12.59888840  189.83999634    0.83999997    2.17000008
   12.60027790  193.37199402    0.83999997    2.17000008
   12.60361195  188.88499451    0.81999999    2.17000008
   12.60666752  241.33200073    0.81999999    2.17000008
   12.61000061  250.60899353    0.81999999    2.19000006
   12.61333370  215.01899719    0.80000001    2.19000006
   12.61638927  259.27600098    0.79000002    2.19000006
   12.61972237  275.63101196    0.79000002    2.19000006
   12.62305546  244.58799744    0.80000001    2.19000006
   12.62611103  214.00100708    0.79000002    2.19000006
   12.62944412  232.69599915    0.79000002    2.19000006
   12.63222218  256.76501465    0.76999998    2.21000004
   12.63305569  197.68699646    0.76999998    2.21000004
   12.63638878  182.19400024    0.79000002    2.19000006
   12.63944435  193.47999573    0.76999998    2.21000004
   12.64277744  152.72200012    0.75000000    2.19000006
   12.64611053  131.78199768    0.75000000    2.19000006
   12.64916611  138.33700562    0.73000002    2.21000004
   12.65249920  132.70599365    0.73000002    2.21000004
   12.65583324  139.62600708    0.73000002    2.21000004
   12.65888882  131.14999390    0.73000002    2.21000004
   12.66222191  140.58500671    0.73000002    2.21000004
   12.66555500  143.68099976    0.73000002    2.21000004
   12.66583252  151.74000549    0.73000002    2.21000004
   12.66916656  145.94099426    0.73000002    2.21000004
   12.67222214  149.96000671    0.70999998    2.21000004
   12.67555618  142.80200195    0.70999998    2.21000004
   12.67888927  143.12500000    0.69000000    2.21000004
   12.68194485  152.45899963    0.69000000    2.21000004
   12.68527794  164.09800720    0.69000000    2.21000004
   12.68861103  140.20799255    0.69000000    2.21000004
   12.69166660  146.00999451    0.69000000    2.21000004
   12.69499969  137.06900024    0.70999998    2.23000002
   12.69805527  160.53799438    0.69000000    2.23000002
   12.69888878  163.63400269    0.69000000    2.23000002
   12.70166683  143.45599365    0.69000000    2.23000002
   12.70499992  161.79200745    0.69000000    2.23000002
   12.70833302  167.54299927    0.69000000    2.23000002
   12.71138859  169.05900574    0.69000000    2.23000002
   12.71472168  169.31199646    0.69000000    2.23000002
   12.71777725  162.53799438    0.69000000    2.23000002
   12.72111034  159.22599792    0.69000000    2.23000002
   12.72444439  133.94799805    0.69000000    2.23000002
   12.72749996  159.83200073    0.69000000    2.23000002
   12.73083305  174.12899780    0.69000000    2.23000002
   12.73222160  163.08200073    0.69000000    2.23000002
   12.73444462  174.26899719    0.69000000    2.25000000
   12.73777771  156.39100647    0.69000000    2.23000002
   12.74083328  166.89300537    0.69000000    2.23000002
   12.74416733  161.04200745    0.70999998    2.25000000
   12.74750042  164.93499756    0.70999998    2.23000002
   12.75055599  176.83999634    0.70999998    2.25000000
   12.75388908  171.38999939    0.73000002    2.25000000
   12.75722218  148.76899719    0.73000002    2.25000000
   12.76027775  157.21899414    0.73000002    2.25000000
   12.76361084  150.44999695    0.73000002    2.25000000
   12.76555538  145.98599243    0.73000002    2.25000000
   12.76749992  154.03700256    0.73000002    2.25000000
   12.77083302  153.82200623    0.73000002    2.25000000
   12.77388859  142.36700439    0.73000002    2.25000000
   12.77722168  143.60600281    0.73000002    2.25000000
   12.78027725  154.15299988    0.75000000    2.25000000
   12.78361130  159.05900574    0.76999998    2.25000000
   12.78694534  148.85400391    0.76999998    2.25000000
   12.79000092  171.40600586    0.80000001    2.25000000
   12.79333401  139.53100586    0.83999997    2.25000000
   12.79666710  145.93800354    0.86000001    2.26999998
   12.79888916  146.11500549    0.86000001    2.26999998
   12.80000019  138.72300720    0.86000001    2.26999998
   12.80333328  142.92500305    0.86000001    2.26999998
   12.80666733  149.15600586    0.88000000    2.26999998
   12.80972195  154.74299622    0.89999998    2.26999998
   12.81305599  152.37800598    0.98000002    2.26999998
   12.81638908  148.86399841    0.98000002    2.26999998
   12.81944466  155.52600098    1.05999994    2.26999998
   12.82277775  156.61799622    1.09000003    2.26999998
   12.82583332  150.13299561    1.13000000    2.26999998
   12.82916641  156.32600403    1.14999998    2.26999998
   12.83222198  161.19999695    1.13000000    2.26999998
   12.83277798  149.02099609    1.14999998    2.26999998
   12.83611107  151.05400085    1.21000004    2.26999998
   12.83944416  163.06399536    1.23000002    2.26999998
   12.84249973  143.71400452    1.23000002    2.26999998
   12.84583282  162.33900452    1.25000000    2.26999998
   12.84944439  161.50199890    1.25000000    2.26999998
   12.85249996  150.62800598    1.26999998    2.28999996
   12.85583401  158.53900146    1.28999996    2.26999998
   12.85888958  148.40400696    1.30999994    2.28999996
   12.86222267  160.87399292    1.30999994    2.26999998
   12.86555576  149.16499329    1.28999996    2.26999998
   12.86583328  158.17900085    1.28999996    2.26999998
   12.86916637  164.67199707    1.23000002    2.28999996
   12.87250042  157.44200134    1.23000002    2.28999996
   12.87555599  155.99699402    1.14999998    2.28999996
   12.87888908  156.74699402    1.00000000    2.30999994
   12.88194466  162.45100403    1.00000000    2.28999996
   12.88527775  162.93699646    1.00000000    2.28999996
   12.88861084  142.14199829    1.00000000    2.30999994
   12.89166641  156.13699341    0.98000002    2.28999996
   12.89499950  151.26400757    0.94000000    2.28999996
   12.89833355  141.74200439    0.88000000    2.28999996
   12.89888859  140.41700745    0.88000000    2.28999996
   12.90166664  151.83399963    0.88000000    2.28999996
   12.90499973  145.78100586    0.81999999    2.28999996
   12.90833282  149.43099976    0.80000001    2.28999996
   12.91138840  165.06100464    0.79000002    2.30999994
   12.91472149  148.02799988    0.76999998    2.30999994
   12.91805553  152.10299683    0.75000000    2.30999994
   12.92111111  143.85400391    0.73000002    2.30999994
   12.92444515  145.27499390    0.73000002    2.30999994
   12.92750072  143.44200134    0.73000002    2.30999994
   12.93083382  177.52499390    0.70999998    2.30999994
   12.93222237  150.97399902    0.70999998    2.30999994
   12.93444443  160.08399963    0.70999998    2.30999994
   12.93777752  145.56100464    0.70999998    2.30999994
   12.94111156  152.90199280    0.70999998    2.30999994
   12.94416714  172.81500244    0.69000000    2.30999994
   12.94750023  159.03900146    0.67000002    2.30999994
   12.95055580  172.99400330    0.67000002    2.30999994
   12.95388889  172.13000488    0.67000002    2.30999994
   12.95722198  171.95300293    0.64999998    2.30999994
   12.96027756  140.94000244    0.67000002    2.32999992
   12.96361065  165.46800232    0.64999998    2.30999994
   12.96555519  140.42199707    0.64999998    2.30999994
   12.96722221  161.34199524    0.64999998    2.30999994
   12.97055531  145.62199402    0.64999998    2.32999992
   12.97388840  143.82699585    0.64999998    2.32999992
   12.97694397  160.64900208    0.64999998    2.32999992
   12.98027706  164.26699829    0.63000000    2.32999992
   12.98361111  156.65199280    0.63000000    2.32999992
   12.98666668  142.20300293    0.63000000    2.32999992
   12.99000072  157.76699829    0.63000000    2.32999992
   12.99305534  147.72799683    0.63000000    2.32999992
   12.99638939  147.30799866    0.63000000    2.32999992
   12.99888897  145.57699585    0.63000000    2.32999992
   13.00000000  148.58200073    0.63000000    2.32999992
   13.00333309  144.49899292    0.63000000    2.32999992
   13.00666714  135.32600403    0.63000000    2.32999992
   13.00972176  159.72700500    0.63000000    2.32999992
   13.01305580  161.12699890    0.63000000    2.32999992
   13.01638889  151.19799805    0.63000000    2.32999992
   13.01944447  141.30400085    0.63000000    2.32999992
   13.02277756  193.26699829    0.63000000    2.32999992
   13.02583313  150.33599854    0.63000000    2.32999992
   13.02916622  150.26199341    0.61000001    2.32999992
   13.03222179  157.65600586    0.61000001    2.32999992
   13.03277779  161.87199402    0.61000001    2.32999992
   13.03611183  152.48500061    0.63000000    2.32999992
   13.03944492  153.93200684    0.63000000    2.32999992
   13.04250050  178.52200317    0.63000000    2.34999990
   13.04583359  174.84300232    0.63000000    2.34999990
   13.04916668  164.32699585    0.63000000    2.34999990
   13.05222225  142.96800232    0.63000000    2.34999990
   13.05555534  158.33099365    0.63000000    2.34999990
   13.05861092  163.19900513    0.63000000    2.34999990
   13.06194496  149.19299316    0.64999998    2.34999990
   13.06527805  165.44999695    0.63000000    2.34999990
   13.06583309  166.82000732    0.64999998    2.34999990
   13.06916618  159.19400024    0.63000000    2.34999990
   13.07222176  148.14100647    0.63000000    2.34999990
   13.07555580  157.23899841    0.63000000    2.34999990
   13.07861137  156.65400696    0.63000000    2.34999990
   13.08194447  152.95799255    0.63000000    2.34999990
   13.08527756  164.61000061    0.63000000    2.34999990
   13.08833313  143.37300110    0.70999998    2.36999989
   13.09166622  151.55999756    0.75000000    2.36999989
   13.09499931  143.99600220    0.76999998    2.34999990
   13.09805489  144.70599365    0.79000002    2.34999990
   13.09916592  143.90400696    0.80000001    2.34999990
   13.10194492  146.32299805    0.80000001    2.34999990
   13.10500050  150.88200378    0.80000001    2.34999990
   13.10833359  150.76499939    0.80000001    2.36999989
   13.11138916  156.23399353    0.80000001    2.36999989
   13.11472225  141.50000000    0.80000001    2.36999989
   13.11805534  157.31700134    0.80000001    2.36999989
   13.12111092  147.55299377    0.80000001    2.36999989
   13.12444496  148.05799866    0.81999999    2.36999989
   13.12777805  142.47099304    0.81999999    2.36999989
   13.13083363  143.52400208    0.81999999    2.36999989
   13.14833355  148.57699585    0.81999999    2.36999989
   13.15083313  143.96899414    0.81999999    2.36999989
   13.15388870  142.28799438    0.81999999    2.36999989
   13.15722179  146.97200012    0.81999999    2.36999989
   13.16055489  145.95700073    0.86000001    2.36999989
   13.16388893  146.89999390    0.94000000    2.36999989
   13.16722298  146.19099426    1.03999996    2.36999989
   13.17027855  149.67999268    1.03999996    2.36999989
   13.17361164  145.72900391    1.66999996    2.39000010
   13.17666721  142.30799866    2.78999996    2.39000010
   13.18000031  143.31700134    3.41000009    2.39000010
   13.18166733  148.07099915    3.50000000    2.39000010
   13.18361092  147.25100708    3.70000005    2.36999989
   13.18694496  143.55799866    3.97000003    2.32999992
   13.19027805  145.70899963    4.26999998    2.34999990
   13.19333363  153.23899841    4.36999989    2.36999989
   13.19666672  137.98800659    4.36999989    2.39000010
   13.19999981  142.81599426    4.32999992    2.39000010
   13.20305538  148.00700378    4.28999996    2.39000010
   13.20638847  144.05900574    4.28999996    2.39000010
   13.20944405  137.95599365    4.26000023    2.34999990
   13.21277714  141.76300049    4.23999977    2.36999989
   13.21500015  149.04100037    4.26000023    2.34999990
   13.21638870  144.76899719    4.26999998    2.34999990
   13.21972179  145.36900330    4.40999985    2.36999989
   13.22305489  136.36099243    4.57999992    2.36999989
   13.22611046  143.83200073    4.78000021    2.36999989
   13.22944355  145.80900574    4.90999985    2.36999989
   13.23277760  141.79299927    4.90999985    2.36999989
   13.23583317  149.90400696    4.90999985    2.39000010
   13.23916721  144.18499756    4.84999990    2.39000010
   13.24250031  143.46899414    4.76000023    2.36999989
   13.24555588  153.35899353    4.73999977    2.36999989
   13.24833393  147.35499573    4.76000023    2.34999990
   13.24916649  140.08700562    4.80000019    2.36999989
   13.25249958  132.56900024    4.86999989    2.36999989
   13.25583363  139.15600586    4.90999985    2.36999989
   13.25888920  145.95300293    4.90999985    2.36999989
   13.26222229  138.80599976    4.90999985    2.36999989
   13.26555538  135.66400146    4.90999985    2.36999989
   13.26861095  136.23599243    4.90999985    2.36999989
   13.27194405  148.03300476    4.90999985    2.36999989
   13.27499962  145.00500488    4.90999985    2.36999989
   13.27833271  148.85600281    4.90999985    2.36999989
   13.28166676  154.40100098    4.90999985    2.36999989
   13.28194427  155.80499268    4.90999985    2.36999989
   13.28527832  146.87600708    4.90999985    2.36999989
   13.28861141  148.89300537    4.90999985    2.39000010
   13.29166698  139.21899414    4.90999985    2.39000010
   13.29500008  138.65400696    4.86999989    2.32999992
   13.29833412  144.31799316    4.61999989    2.39000010
   13.30138874  161.32699585    4.51000023    2.32999992
   13.30472279  158.09100342    4.44999981    2.32999992
   13.30777836  143.73300171    4.48999977    2.39000010
   13.31111145  156.91799927    4.32999992    2.39000010
   13.31444454  142.71299744    4.15999985    2.40000010
   13.31500053  132.93299866    4.09999990    2.39000010
   13.31805515  151.69099426    3.80999994    2.39000010
   13.32111073  135.74800110    3.43000007    2.40000010
   13.32444477  142.18899536    3.01999998    2.40000010
   13.32777786  144.90199280    2.64000010    2.40000010
   13.33083344  141.19299316    2.32999992    2.40000010
   13.33416653  146.54100037    2.13000011    2.40000010
   13.33722210  142.19200134    2.01999998    2.40000010
   13.34055519  139.56500244    2.00000000    2.40000010
   13.34388828  131.79800415    4.90999985    2.40000010
   13.34694386  138.00500488    4.90999985    2.40000010
   13.34833336  138.25999451    4.90999985    2.40000010
   13.35083389  140.47999573    4.90999985    2.40000010
   13.35388947  137.63699341    4.90999985    2.40000010
   13.35722256  142.33700562    4.90999985    2.40000010
   13.36027813  149.46499634    4.90999985    2.40000010
   13.36361122  138.53100586    4.90999985    2.40000010
   13.36694431  142.90499878    4.90999985    2.40000010
   13.36999989  138.22500610    4.90999985    2.40000010
   13.37333393  147.67599487    4.90999985    2.40000010
   13.37666702  132.51199341    4.90999985    2.40000010
   13.37972260  142.76800537    4.90999985    2.40000010
   13.38166714  139.95599365    4.90999985    2.42000008
   13.38361073  154.45700073    4.90999985    2.40000010
   13.38666630  137.19200134    4.90999985    2.40000010
   13.39000034  131.23800659    4.90999985    2.40000010
   13.49583340   -1.00000000   -1.00000000   -1.00000000
   13.59777737   -1.00000000   -1.00000000   -1.00000000
   13.69861126   -1.00000000   -1.00000000   -1.00000000
   13.74972248   89.60540009    0.00000000    0.00000000
   13.75305557  143.87199402    4.90999985    2.23000002
   13.75638866  130.66099548    4.90999985    2.23000002
   13.75944424  130.07899475    4.90999985    2.23000002
   13.76277733  142.32800293    4.90999985    2.23000002
   13.76944447  142.32800293    4.90999985    2.23000002
   13.77361107  168.83099365    4.90999985    2.23000002
   13.77694416  152.24000549    4.90999985    2.23000002
   13.77999973  150.20300293    4.90999985    2.26999998
   13.78249931  169.48300171    4.90999985    2.28999996
   13.78388977  123.67500305    4.90999985    2.28999996
   13.78694534  143.29600525    4.90999985    2.19000006
   13.79027843   49.89509964    4.90999985    1.71000004
   13.79361153   30.70610046    4.90999985    1.61000001
   13.79666710   -1.00000000    4.90999985    1.58000004
   13.80000019   -1.00000000    4.90999985    1.46000004
   13.80333328   94.47799683    4.90999985    1.44000006
   13.80638885  346.67999268    4.90999985    1.60000002
   13.81222248  346.67999268    4.90999985    1.80999994
   13.81638908  241.17100525    4.90999985    1.91999996
   13.81972218  218.14300537    4.90999985    1.91999996
   13.82305527  201.54100037    4.90999985    1.96000004
   13.82611084  165.99899292    4.90999985    1.94000006
   13.82944393  159.64900208    4.90999985    2.07999992
   13.83249950  158.04800415    4.90999985    2.11999989
   13.83583260  153.16000366    4.90999985    2.23000002
   13.83916664  166.69099426    4.90999985    2.17000008
   13.84222221  168.36000061    4.90999985    2.07999992
   13.84555531  167.49499512    4.90999985    2.11999989
   13.84888840  147.21499634    4.90999985    2.17000008
   13.84916592  143.99699402    4.90999985    2.17000008
   13.85527802  143.99699402    4.90999985    2.13000011
   13.85944462  203.47500610    4.90999985    1.88000000
   13.86250019  191.46200562    4.90999985    1.94000006
   13.86583328  189.20199585    4.90999985    1.94000006
   13.86888885  256.42098999    4.90999985    1.91999996
   13.87222195  232.64500427    4.90999985    1.94000006
   13.87555599  197.64799500    4.90999985    2.01999998
   13.87861156  157.47200012    4.90999985    2.05999994
   13.88194466  170.25700378    4.90999985    2.17000008
   13.88249969  161.05299377    4.90999985    2.15000010
   13.88555527  166.42700195    4.90999985    2.15000010
   13.88888836  124.06700134    4.90999985    2.25000000
   13.89194393  154.95500183    4.90999985    2.30999994
   13.89805508  154.95500183    4.90999985    2.39000010
   13.90222168  122.81999969    4.90999985    2.46000004
   13.90527725  132.95799255    4.90999985    2.42000008
   13.90861034  127.58300018    4.90999985    2.48000002
   13.91194439  123.12699890    4.90999985    2.51999998
   13.91499996  126.66899872    4.90999985    2.53999996
   13.91583252  122.01200104    4.88999987    2.53999996
   13.91888905  120.42600250    4.17999983    2.51999998
   13.92222214  120.01100159    3.57999992    2.53999996
   13.92555618  122.39700317    3.00000000    2.50000000
   13.92861176  121.58699799    2.48000002    2.51999998
   13.93194485  122.66600037    1.86000001    2.50000000
   13.93500042  127.76200104    4.90999985    2.50000000
   13.94083309  127.76200104    4.90999985    2.51999998
   13.94499969  121.52400208    4.90999985    2.51999998
   13.94833374  128.33799744    4.88999987    2.51999998
   13.94916630  121.48899841    4.84999990    2.51999998
   13.95194435  123.18599701    4.80999994    2.51999998
   13.95527744  115.64499664    4.71999979    2.51999998
   13.95833302  115.82900238    4.73999977    2.51999998
   13.96166611  117.18299866    4.69999981    2.50000000
   13.96500015  119.09300232    4.69999981    2.51999998
   13.96805477  118.47499847    4.69999981    2.51999998
   13.97138882  114.86499786    4.80000019    2.51999998
   13.97472191  122.20400238    4.90999985    2.51999998
   13.97777748  119.63200378    4.90999985    2.51999998
   13.98361111  119.63200378    4.90999985    2.51999998
   13.98777771  115.31900024    4.90999985    2.46000004
   13.99111176  128.60699463    4.90999985    2.46000004
   13.99444485  118.82599640    4.90999985    2.46000004
   13.99750042  124.71199799    4.90999985    2.51999998
   14.00083351  124.15699768    4.90999985    2.53999996
   14.00388908  122.58499908    4.90999985    2.51999998
   14.00722218  106.69899750    4.90999985    2.48000002
   14.01055527  117.12699890    4.90999985    2.50000000
   14.01361084  114.78199768    4.90999985    2.50000000
   14.01611137  111.98000336    4.90999985    2.51999998
   14.01722240  121.79900360    4.90999985    2.51999998
   14.02055550  121.60399628    4.90999985    2.51999998
   14.02666664  121.60399628    4.90999985    2.53999996
   14.03083324  114.46499634    4.90999985    2.53999996
   14.03388977  113.13300323    4.90999985    2.51999998
   14.03722286  114.97799683    4.90999985    2.53999996
   14.04027843  119.55400085    4.90999985    2.51999998
   14.04361153  115.26100159    4.90999985    2.51999998
   14.04694462  112.88800049    4.90999985    2.53999996
   14.04916668  116.26100159    4.90999985    2.51999998
   14.05055618  116.46900177    4.90999985    2.53999996
   14.05388927  117.08300018    4.90999985    2.51999998
   14.05694485  112.82800293    4.90999985    2.48000002
   14.06027794  116.50499725    4.90999985    2.51999998
   14.06361103  117.30799866    4.90999985    2.51999998
   14.06944466  117.30799866    4.90999985    2.46000004
   14.07361126  112.47499847    4.84999990    2.53999996
   14.07666683  107.80300140    4.67999983    2.53999996
   14.07999992  115.31600189    4.59999990    2.53999996
   14.08277798  107.92299652    4.53000021    2.53999996
   14.08361053  113.92600250    4.55999994    2.53999996
   14.08694458  121.36499786    4.53000021    2.53999996
   14.09000015  117.12699890    4.55999994    2.53999996
   14.09333324  111.55500031    4.46999979    2.53999996
   14.09666634  112.04299927    4.53000021    2.53999996
   14.09972191  111.82900238    4.51000023    2.53999996
   14.10305595  110.06600189    4.48999977    2.53999996
   14.10638905  113.60199738    4.44999981    2.53999996
   14.11222267  113.60199738    4.61999989    2.53999996
   14.11638927  118.69599915    4.57999992    2.53999996
   14.11972237  118.08100128    4.71999979    2.53999996
   14.12277794  112.59100342    4.65999985    2.53999996
   14.12611103  109.76599884    4.69999981    2.53999996
   14.12944412  115.47499847    4.69999981    2.53999996
   14.13249969  114.26899719    4.71999979    2.55999994
   14.13583279  116.12599945    4.78000021    2.53999996
   14.13888836  112.16899872    4.71999979    2.53999996
   14.14222240  108.01100159    4.67999983    2.53999996
   14.14555550  115.16999817    4.90999985    2.53999996
   14.14861107  107.85600281    4.90999985    2.53999996
   14.14944458  107.26100159    4.90999985    2.53999996
   14.15499973  107.26100159    4.90999985    2.53999996
   14.15916634  105.41400146    4.86999989    2.53999996
   14.16249943  115.33300018    4.80000019    2.53999996
   14.16583252  112.95300293    4.80999994    2.53999996
   14.16888905  115.99299622    4.90999985    2.53999996
   14.17222214  113.72599792    4.90999985    2.53999996
   14.17555618  111.87699890    4.90999985    2.53999996
   14.17861176  109.40699768    4.90999985    2.53999996
   14.18194485  117.66300201    4.90999985    2.51999998
   14.18277836  113.03099823    4.90999985    2.51999998
   14.18555546  114.66000366    4.90999985    2.51999998
   14.18888855  112.96199799    4.90999985    2.51999998
   14.19222260  108.53600311    4.90999985    2.51999998
   14.19805527  108.53600311    4.90999985    2.51999998
   14.20194435  110.60600281    4.90999985    2.53999996
   14.20527744  114.01499939    4.90999985    2.53999996
   14.20861053  114.46700287    4.90999985    2.55999994
   14.21166611  112.95899963    4.90999985    2.53999996
   14.21500015  114.63800049    4.90999985    2.55999994
   14.21611118  111.02700043    4.90999985    2.55999994
   14.21861076  110.70300293    4.90999985    2.53999996
   14.22194386  122.84999847    4.90999985    2.53999996
   14.22527695  114.76699829    4.80999994    2.53999996
   14.22833252  112.44499969    4.84999990    2.53999996
   14.23166656  112.02200317    4.76000023    2.53999996
   14.23472214  112.59799957    4.71999979    2.55999994
   14.24083328  112.59799957    4.80999994    2.53999996
   14.24499989  118.98899841    4.71999979    2.55999994
   14.24805546  129.58999634    4.80000019    2.55999994
   14.24944496  127.30100250    4.82999992    2.55999994
   14.25166702  118.32599640    4.73999977    2.55999994
   14.25500011  125.18800354    4.80000019    2.55999994
   14.25833321  114.20800018    4.73999977    2.53999996
   14.26138878  124.33399963    4.76000023    2.55999994
   14.26472187  121.92299652    4.78000021    2.55999994
   14.26805496  115.77100372    4.80999994    2.55999994
   14.27111053  125.77600098    4.84999990    2.53999996
   14.27444458  123.65599823    4.78000021    2.55999994
   14.27750015  119.72000122    4.90999985    2.53999996
   14.28361130  119.72000122    4.90999985    2.55999994
   14.28777790  118.11799622    4.90999985    2.55999994
   14.29083347  116.72000122    4.90999985    2.55999994
   14.29416752  112.33000183    4.90999985    2.55999994
   14.29750061  112.91600037    4.90999985    2.55999994
   14.30055618  108.75399780    4.90999985    2.55999994
   14.30388927  118.69100189    4.90999985    2.55999994
   14.30722237  120.87300110    4.90999985    2.55999994
   14.31027794  115.88400269    4.90999985    2.55999994
   14.31361103  117.59300232    4.90999985    2.55999994
   14.31611156  110.22100067    4.90999985    2.55999994
   14.31722260  121.43900299    4.90999985    2.55999994
   14.32055569  117.44200134    4.90999985    2.55999994
   14.32638836  117.44200134    4.88999987    2.55999994
   14.33055592  113.94999695    4.90999985    2.55999994
   14.33388901  118.81099701    4.90999985    2.55999994
   14.33694458  120.92299652    4.90999985    2.55999994
   14.34027767  121.11299896    4.90999985    2.55999994
   14.34388828  114.79499817    4.90999985    2.55999994
   14.34722233  118.04000092    4.90999985    2.55999994
   14.34944439  117.02500153    4.90999985    2.55999994
   14.35083389  114.22000122    4.90999985    2.55999994
   14.35416698  112.38500214    4.88999987    2.57999992
   14.35750008  123.10199738    4.90999985    2.55999994
   14.36055565  121.54199982    4.90999985    2.57999992
   14.36388969  110.41899872    4.90999985    2.55999994
   14.36944485  110.41899872    4.90999985    2.55999994
   14.37333393  117.48200226    4.90999985    2.55999994
   14.37666702  116.04599762    4.90999985    2.55999994
   14.38000011  114.43499756    4.90999985    2.55999994
   14.38277817  116.17900085    4.90999985    2.57999992
   14.38333321  121.50599670    4.90999985    2.55999994
   14.38666630  120.33300018    4.90999985    2.55999994
   14.38972187  113.98899841    4.90999985    2.55999994
   14.39305496  115.54900360    4.90999985    2.55999994
   14.39638901  118.38899994    4.90999985    2.55999994
   14.39944458  114.18099976    4.90999985    2.55999994
   14.40277767  121.86699677    4.90999985    2.55999994
   14.40611076  114.66400146    4.90999985    2.57999992
   14.41222191  114.66400146    4.90999985    2.55999994
   14.41638851  122.13600159    4.90999985    2.55999994
   14.41944504  120.55500031    4.90999985    2.55999994
   14.42277813  118.99400330    4.90999985    2.57999992
   14.42583370  107.02999878    4.90999985    2.55999994
   14.42916679  125.42199707    4.90999985    2.57999992
   14.43249989  119.15000153    4.90999985    2.57999992
   14.43555546  118.55599976    4.90999985    2.57999992
   14.43888855  113.59999847    4.90999985    2.55999994
   14.44222260  109.59200287    4.90999985    2.57999992
   14.44527817  121.23200226    4.90999985    2.57999992
   14.44861126  126.13099670    4.90999985    2.57999992
   14.44944477  119.00800323    4.90999985    2.57999992
   14.45499992  119.00800323    4.90999985    2.55999994
   14.45916653  122.68499756    4.90999985    2.57999992
   14.46249962  123.74299622    4.90999985    2.57999992
   14.46555519  112.33799744    4.90999985    2.57999992
   14.46888828  121.67800140    4.90999985    2.57999992
   14.47194386  127.94999695    4.90999985    2.57999992
   14.47527695  113.15100098    4.90999985    2.57999992
   14.47861099  117.45600128    4.90999985    2.57999992
   14.48166656  108.21900177    4.90999985    2.57999992
   14.48277760  118.33699799    4.90999985    2.57999992
   14.48527813  112.48500061    4.90999985    2.57999992
   14.48861122  109.16500092    4.90999985    2.57999992
   14.49194431  122.11499786    4.90999985    2.57999992
   14.49777794  122.11499786    4.90999985    2.59999990
   14.50194454  116.63700104    4.90999985    2.57999992
   14.50527763  121.19999695    4.90999985    2.57999992
   14.50861073  117.06600189    4.90999985    2.57999992
   14.51166630  122.41999817    4.90999985    2.57999992
   14.51500034  124.33300018    4.90999985    2.57999992
   14.51611137  114.59799957    4.90999985    2.57999992
   14.51861095  114.85299683    4.90999985    2.57999992
   14.52194405  117.81700134    4.90999985    2.59999990
   14.52527714  116.87899780    4.90999985    2.57999992
   14.52833271  116.03099823    4.90999985    2.57999992
   14.53166676  104.50399780    4.90999985    2.59999990
   14.53472233  117.73500061    4.90999985    2.57999992
   14.54083347  117.73500061    4.90999985    2.57999992
   14.54472256  104.41799927    4.90999985    2.57999992
   14.54805565  107.07199860    4.90999985    2.57999992
   14.54944515  111.98500061    4.90999985    2.55999994
   14.55166721  118.19400024    4.90999985    2.57999992
   14.55500031  103.45400238    4.90999985    2.57999992
   14.55833340  117.44599915    4.90999985    2.59999990
   14.56138897  109.95700073    4.90999985    2.59999990
   14.56472206  110.48799896    4.90999985    2.57999992
   14.56777763  105.54599762    4.90999985    2.59999990
   14.57111073  103.51799774    4.90999985    2.57999992
   14.57444477  109.61900330    4.90999985    2.57999992
   14.57750034  114.20800018    4.90999985    2.57999992
   14.58361053  114.20800018    4.90999985    2.59999990
   14.58777714  118.09700012    4.90999985    2.57999992
   14.59083271  113.71299744    4.90999985    2.59999990
   14.59416676  118.41600037    4.90999985    2.57999992
   14.59722233  118.09700012    4.90999985    2.59999990
   14.60055637  117.56199646    4.90999985    2.59999990
   14.60388947  111.78299713    4.90999985    2.57999992
   14.60694504  119.79399872    4.90999985    2.57999992
   14.61027813  115.43000031    4.90999985    2.59999990
   14.61361122  105.30200195    4.90999985    2.57999992
   14.61611176  116.75299835    4.90999985    2.57999992
   14.61694431  111.62300110    4.90999985    2.57999992
   14.62027836  111.82599640    4.90999985    2.59999990
   14.62638855  111.82599640    4.90999985    2.59999990
   14.63055611  107.52300262    4.90999985    2.57999992
   14.63361073  106.21099854    4.90999985    2.59999990
   14.63694477  111.27600098    4.90999985    2.59999990
   14.64027786  113.24600220    4.90999985    2.57999992
   14.64333344  104.77799988    4.90999985    2.57999992
   14.64666653  109.76100159    4.90999985    2.59999990
   14.64944458  117.27799988    4.90999985    2.59999990
   14.65027714  116.19499969    4.90999985    2.57999992
   14.65361118  122.74400330    4.90999985    2.59999990
   14.65694427  119.33399963    4.90999985    2.57999992
   14.65999985  117.56099701    4.90999985    2.57999992
   14.66333294  114.32099915    4.90999985    2.57999992
   14.66916656  114.32099915    4.90999985    2.59999990
   14.67333412  108.20400238    4.90999985    2.59999990
   14.67666721  114.66500092    4.90999985    2.59999990
   14.67972279  115.08799744    4.90999985    2.59999990
   14.68277836  110.48400116    4.90999985    2.57999992
   14.68333340  110.91200256    4.90999985    2.57999992
   14.68666649  104.77300262    4.90999985    2.59999990
   14.69000053  108.82399750    4.90999985    2.57999992
   14.69305515  110.26300049    4.90999985    2.59999990
   14.69638920  111.20300293    4.90999985    2.59999990
   14.69972229  117.36599731    4.90999985    2.59999990
   14.70277786  110.04900360    4.90999985    2.59999990
   14.70611095  116.08999634    4.90999985    2.57999992
   14.71222210  116.08999634    4.90999985    2.59999990
   14.71611118  113.62599945    4.90999985    2.59999990
   14.71944427  119.71900177    4.90999985    2.59999990
   14.72277737  102.41400146    4.90999985    2.61999989
   14.72583294  109.37500000    4.90999985    2.57999992
   14.72916603  110.09100342    4.90999985    2.59999990
   14.73222160  110.35299683    4.90999985    2.61999989
   14.73555565  106.56900024    4.90999985    2.59999990
   14.73888874  110.69799805    4.90999985    2.57999992
   14.74194431  106.03700256    4.90999985    2.59999990
   14.74527836  100.08899689    4.90999985    2.59999990
   14.74861145  103.44100189    4.90999985    2.61999989
   14.74944496  107.71499634    4.90999985    2.59999990
   14.76999950  107.71499634    4.90999985    2.59999990
   14.77416611  113.97599792    4.90999985    2.59999990
   14.77750015  117.12400055    4.90999985    2.59999990
   14.78055573  103.09100342    4.90999985    2.61999989
   14.78277779  109.93000031    4.90999985    2.59999990
   14.78416729  102.64199829    4.90999985    2.59999990
   14.78750038  110.33200073    4.90999985    2.59999990
   14.79083347  110.94799805    4.90999985    2.61999989
   14.79388905  108.00199890    4.90999985    2.59999990
   14.79722309  106.59200287    4.90999985    2.59999990
   14.80055618  105.70099640    4.90999985    2.61999989
   14.80361176  101.72599792    4.90999985    2.61999989
   14.80694485  104.97299957    4.90999985    2.61999989
   14.81277752  104.97299957    4.90999985    2.61999989
   14.81694412  110.38099670    4.90999985    2.59999990
   14.82027817  113.40899658    4.90999985    2.59999990
   14.82333374  111.60299683    4.90999985    2.59999990
   14.82666683  113.15200043    4.90999985    2.61999989
   14.82999992  111.18199921    4.90999985    2.61999989
   14.83305550  114.02100372    4.90999985    2.61999989
   14.83638859  112.99500275    4.90999985    2.59999990
   14.83944416  124.15299988    4.90999985    2.59999990
   14.84277725  115.61799622    4.90999985    2.59999990
   14.84611034  112.33399963    4.90999985    2.59999990
   14.84916592  108.12799835    4.90999985    2.59999990
   14.84972191  106.63300323    4.90999985    2.59999990
   14.85583401  106.63300323    4.90999985    2.61999989
   14.85972214  117.64900208    4.90999985    2.59999990
   14.86305618  110.30699921    4.90999985    2.61999989
   14.86638927  111.39399719    4.90999985    2.59999990
   14.86944485  111.53299713    4.90999985    2.61999989
   14.87277794  109.87200165    4.90999985    2.61999989
   14.87583351  109.89499664    4.90999985    2.59999990
   14.87916660   99.87460327    4.90999985    2.61999989
   14.88249969  113.01000214    4.90999985    2.59999990
   14.88305569  110.45200348    4.90999985    2.59999990
   14.88611126  118.73600006    4.90999985    2.61999989
   14.88944435  110.20700073    4.90999985    2.59999990
   14.89249992  111.49500275    4.90999985    2.61999989
   14.89861107  111.49500275    4.90999985    2.61999989
   14.90277767  106.23600006    4.90999985    2.61999989
   14.90583324  101.04199982    4.90999985    2.61999989
   14.90916634  110.65799713    4.90999985    2.61999989
   14.91222191  106.76399994    4.90999985    2.61999989
   14.91555500  102.18900299    4.90999985    2.61999989
   14.91638851  101.30699921    4.90999985    2.61999989
   14.91916656  108.57700348    4.90999985    2.61999989
   14.92250061   98.80760193    4.90999985    2.61999989
   14.92555618  101.97100067    4.90999985    2.59999990
   14.92888927  110.81999969    4.90999985    2.61999989
   14.93194485  102.98600006    4.90999985    2.61999989
   14.93527794  102.41400146    4.90999985    2.61999989
   14.94138908  102.41400146    4.90999985    2.61999989
   14.94555569  108.61699677    4.90999985    2.61999989
   14.94861126   96.67500305    4.90999985    2.64000010
   14.94972229  107.90100098    4.90999985    2.61999989
   14.95249939  100.09300232    4.90999985    2.61999989
   14.95583344  110.53099823    4.90999985    2.61999989
   14.95888901  103.95300293    4.90999985    2.61999989
   14.96222210  102.52200317    4.90999985    2.61999989
   14.96527767   99.05809784    4.90999985    2.61999989
   14.96861076  106.13800049    4.90999985    2.61999989
   14.97194386  105.69499969    4.90999985    2.64000010
   14.97499943  101.39199829    4.90999985    2.64000010
   14.97833252  107.79799652    4.90999985    2.64000010
   14.98444462  107.79799652    4.90999985    2.61999989
   14.98833370  109.76100159    4.90999985    2.61999989
   14.99166679  102.98200226    4.90999985    2.61999989
   14.99499989  106.57800293    4.90999985    2.61999989
   14.99805546  105.67800140    4.90999985    2.61999989
   15.00138855  107.76999664    4.90999985    2.61999989
   15.00444412  105.28600311    4.90999985    2.61999989
   15.00777817  107.47499847    4.90999985    2.64000010
   15.01111126  104.61499786    4.90999985    2.64000010
   15.01416683  106.08200073    4.90999985    2.64000010
   15.01638889  100.21099854    4.90999985    2.61999989
   15.01777744  107.11499786    4.90999985    2.61999989
   15.02111053  109.97499847    4.90999985    2.61999989
   15.02722168  109.97499847    4.90999985    2.64000010
   15.03138828  107.38700104    4.90999985    2.61999989
   15.03444481   97.99220276    4.90999985    2.61999989
   15.03777790   97.57969666    4.90999985    2.64000010
   15.04083347  104.80899811    4.90999985    2.61999989
   15.04416752  104.82900238    4.90999985    2.61999989
   15.04750061   97.42890167    4.90999985    2.61999989
   15.04972267  103.79000092    4.90999985    2.61999989
   15.05111122  102.21800232    4.90999985    2.61999989
   15.05444431   94.78389740    4.90999985    2.61999989
   15.05749989  104.80100250    4.90999985    2.61999989
   15.06083393  106.72599792    4.90999985    2.61999989
   15.06388950  106.13700104    4.90999985    2.61999989
   15.06999969  106.13700104    4.90999985    2.61999989
   15.07416630  102.98999786    4.90999985    2.61999989
   15.07722187  105.52799988    4.90999985    2.64000010
   15.08055592  102.38999939    4.90999985    2.61999989
   15.08305550  104.59300232    4.90999985    2.64000010
   15.08416653  100.28900146    4.90999985    2.61999989
   15.08749962  105.77400208    4.90999985    2.61999989
   15.09055519   97.20809937    4.90999985    2.61999989
   15.09388828  102.67099762    4.90999985    2.61999989
   15.09694386  106.23500061    4.90999985    2.61999989
   15.10027790  106.34400177    4.90999985    2.61999989
   15.10361195  108.77400208    4.90999985    2.61999989
   15.10666752  102.65000153    4.90999985    2.61999989
   15.11277771  102.65000153    4.90999985    2.64000010
   15.11694431  105.25000000    4.90999985    2.61999989
   15.12027836   99.08860016    4.90999985    2.61999989
   15.12333393  100.41500092    4.90999985    2.64000010
   15.12666702  102.40699768    4.90999985    2.61999989
   15.13000011  104.51499939    4.90999985    2.61999989
   15.13305569  103.70400238    4.90999985    2.61999989
   15.13638878  101.24099731    4.90999985    2.61999989
   15.13944435  100.93199921    4.90999985    2.64000010
   15.14277744  104.23799896    4.90999985    2.61999989
   15.14611053   98.12770081    4.90999985    2.64000010
   15.14916611  100.27799988    4.90999985    2.61999989
   15.14972210  104.37300110    4.90999985    2.61999989
   15.15555477  104.37300110    4.90999985    2.61999989
   15.15972137  101.11599731    4.90999985    2.64000010
   15.16305542   97.83049774    4.90999985    2.64000010
   15.16638851  104.02799988    4.90999985    2.64000010
   15.16944504  102.53399658    4.90999985    2.61999989
   15.17277813   98.48239899    4.90999985    2.64000010
   15.17583370  108.21900177    4.90999985    2.64000010
   15.17916679  107.23300171    4.90999985    2.64000010
   15.18249989  103.41600037    4.90999985    2.64000010
   15.18305588  109.61199951    4.90999985    2.64000010
   15.18611145  109.78900146    4.90999985    2.61999989
   15.18944454  114.76599884    4.90999985    2.61999989
   15.19250011  104.82599640    4.90999985    2.61999989
   15.19861126  104.82599640    4.90999985    2.64000010
   15.20277786  131.17999268    4.90999985    2.64000010
   15.20583344  124.37699890    4.90999985    2.64000010
   15.20916653  103.19400024    4.90999985    2.66000009
   15.21222210  115.14099884    4.90999985    2.64000010
   15.21555519  101.88099670    4.90999985    2.64000010
   15.21638870  119.16200256    4.90999985    2.64000010
   15.21916580   98.48829651    4.90999985    2.64000010
   15.22249985   97.47709656    4.90999985    2.64000010
   15.22555542  102.37699890    4.90999985    2.61999989
   15.22888851  100.64700317    4.90999985    2.64000010
   15.23222160  103.53700256    4.90999985    2.64000010
   15.23527813  108.61799622    4.90999985    2.64000010
   15.24138927  108.61799622    4.90999985    2.64000010
   15.24555588  102.98999786    4.90999985    2.64000010
   15.24861145   97.40370178    4.90999985    2.64000010
   15.24972248  105.22200012    4.90999985    2.64000010
   15.25222206  104.50199890    4.90999985    2.64000010
   15.25555515  103.24800110    4.90999985    2.64000010
   15.25861073   98.41079712    4.90999985    2.64000010
   15.26194477  105.02300262    4.90999985    2.64000010
   15.26527786  110.38500214    4.90999985    2.64000010
   15.26833344  109.69300079    4.90999985    2.64000010
   15.27166653  106.75399780    4.90999985    2.64000010
   15.27472210  120.41999817    4.90999985    2.64000010
   15.27805519  102.98200226    4.90999985    2.64000010
   15.28416729  102.98200226    4.90999985    2.64000010
   15.28833389  106.75900269    4.90999985    2.64000010
   15.29166698  106.17500305    4.90999985    2.64000010
   15.29472256  114.83899689    4.90999985    2.64000010
   15.29805565  105.94799805    4.90999985    2.64000010
   15.30138874  113.09500122    4.90999985    2.64000010
   15.30444431  108.72599792    4.90999985    2.64000010
   15.30777836  104.47399902    4.90999985    2.64000010
   15.31083393  106.45400238    4.90999985    2.61999989
   15.31416702  105.87200165    4.90999985    2.64000010
   15.31638908  109.48100281    4.90999985    2.64000010
   15.31777763  106.58300018    4.90999985    2.64000010
   15.32111073  103.87200165    4.90999985    2.64000010
   15.32722187  103.87200165    4.90999985    2.64000010
   15.33111095  104.71099854    4.90999985    2.64000010
   15.33444405  104.73000336    4.90999985    2.64000010
   15.33777714  114.03500366    4.90999985    2.64000010
   15.34083271  105.52899933    4.90999985    2.64000010
   15.34416676  109.64299774    4.90999985    2.64000010
   15.34722233  106.95999908    4.90999985    2.64000010
   15.34972191  106.87699890    4.90999985    2.64000010
   15.35083389  105.85099792    4.90999985    2.66000009
   15.35416698  103.09400177    4.90999985    2.64000010
   15.35722256  106.48200226    4.90999985    2.64000010
   15.36055565  114.30200195    4.90999985    2.64000010
   15.36388969  110.86000061    4.90999985    2.64000010
   15.36999989  110.86000061    4.90999985    2.64000010
   15.37416649   99.70330048    4.90999985    2.64000010
   15.37722206  108.29799652    4.90999985    2.64000010
   15.38055611  107.08100128    4.90999985    2.64000010
   15.38333321   99.11900330    4.90999985    2.64000010
   15.38416672  104.37200165    4.90999985    2.64000010
   15.38749981  103.07900238    4.90999985    2.64000010
   15.39055538  107.84600067    4.90999985    2.66000009
   15.39388847  109.39700317    4.90999985    2.64000010
   15.39722252  112.68599701    4.90999985    2.64000010
   15.40027714  109.44100189    4.90999985    2.64000010
   15.40361118  102.52100372    4.90999985    2.61999989
   15.40694427  107.15299988    4.90999985    2.64000010
   15.41277695  107.15299988    4.90999985    2.64000010
   15.41694450  110.81600189    4.90999985    2.64000010
   15.42027855  107.12000275    4.90999985    2.64000010
   15.42333412  108.19999695    4.90999985    2.64000010
   15.42666721  104.55200195    4.90999985    2.64000010
   15.42972279  108.37799835    4.90999985    2.64000010
   15.43305588  106.46700287    4.90999985    2.64000010
   15.43638897  108.07099915    4.90999985    2.64000010
   15.43944454  106.78900146    4.90999985    2.64000010
   15.44277763  106.68699646    4.90999985    2.61999989
   15.44611073  105.63899994    4.90999985    2.64000010
   15.44916630  107.55799866    4.90999985    2.64000010
   15.44999981  105.67500305    4.90999985    2.61999989
   15.45555496  105.67500305    4.90999985    2.67000008
   15.45972157  105.32299805    4.90999985    2.64000010
   15.46305561  108.63600159    4.90999985    2.64000010
   15.46611118  106.94300079    4.90999985    2.64000010
   15.46944427  107.97100067    4.90999985    2.64000010
   15.47277737  103.07599640    4.90999985    2.64000010
   15.47583294  100.47899628    4.90999985    2.64000010
   15.47916603  102.78800201    4.90999985    2.64000010
   15.48222160  104.28500366    4.90999985    2.64000010
   15.48333359  107.69799805    4.90999985    2.64000010
   15.48583317  107.83200073    4.90999985    2.64000010
   15.48916721  104.55200195    4.90999985    2.64000010
   15.49222279  110.46099854    4.90999985    2.64000010
   15.49861145  110.46099854    4.90999985    2.64000010
   15.50249958  104.11599731    4.90999985    2.64000010
   15.50583363  108.22799683    4.90999985    2.64000010
   15.50916672  109.24299622    4.90999985    2.64000010
   15.51222229  110.49700165    4.90999985    2.64000010
   15.51555538  105.54000092    4.90999985    2.64000010
   15.51666641  110.96099854    4.90999985    2.66000009
   15.51916599  107.36000061    4.90999985    2.64000010
   15.52250004  104.16300201    4.90999985    2.64000010
   15.52555561  108.25099945    4.90999985    2.64000010
   15.52888870  104.22599792    4.90999985    2.64000010
   15.53222179  109.25199890    4.90999985    2.66000009
   15.53527832  110.88999939    4.90999985    2.66000009
   15.54138947  110.88999939    4.90999985    2.66000009
   15.54555607  106.76300049    4.90999985    2.64000010
   15.54861164  101.22599792    4.90999985    2.66000009
   15.55000019  109.86399841    4.90999985    2.64000010
   15.55222225  101.76000214    4.90999985    2.64000010
   15.55555534  104.49099731    4.90999985    2.66000009
   15.55861092  108.60199738    4.90999985    2.64000010
   15.56194496  106.41300201    4.90999985    2.66000009
   15.56527805  104.88899994    4.90999985    2.66000009
   15.56833363  105.54799652    4.90999985    2.64000010
   15.57166672  108.41799927    4.90999985    2.66000009
   15.57499981  105.23699951    4.90999985    2.64000010
   15.57805538  110.44799805    4.90999985    2.66000009
   15.58416653  110.44799805    4.90999985    2.64000010
   15.58833313  108.46399689    4.90999985    2.64000010
   15.59138870  108.28600311    4.90999985    2.66000009
   15.59472179  110.94999695    4.90999985    2.64000010
   15.59805489  136.52600098    4.90999985    2.64000010
   15.60111141  115.30799866    4.90999985    2.64000010
   15.60444450  122.97299957    4.90999985    2.64000010
   15.60777855  117.01999664    4.90999985    2.64000010
   15.61083412  117.61100006    4.90999985    2.64000010
   15.61416721  114.35800171    4.90999985    2.66000009
   15.61666679  116.77200317    4.90999985    2.64000010
   15.61777782  114.39600372    4.90999985    2.64000010
   15.62111092  103.18499756    4.90999985    2.64000010
   15.62694454  103.18499756    4.90999985    2.64000010
   15.63111115  116.38200378    4.90999985    2.66000009
   15.63444424  105.43099976    4.90999985    2.64000010
   15.63749981  105.98400116    4.90999985    2.64000010
   15.64083290  105.10199738    4.90999985    2.64000010
   15.64416695  106.17800140    4.90999985    2.64000010
   15.64722252  106.77500153    4.90999985    2.64000010
   15.64999962  102.85199738    4.90999985    2.64000010
   15.65083313  110.94100189    4.90999985    2.64000010
   15.65416622  104.82199860    4.90999985    2.64000010
   15.65722179  110.49900055    4.90999985    2.66000009
   15.66055489  103.30500031    4.90999985    2.66000009
   15.66388893  102.14299774    4.90999985    2.66000009
   15.66972256  102.14299774    4.90999985    2.64000010
   15.67388916  113.06099701    4.90999985    2.64000010
   15.67722225  108.28199768    4.90999985    2.64000010
   15.68055630  108.35800171    4.90999985    2.66000009
   15.68333340  110.28900146    4.90999985    2.66000009
   15.68388939  107.02799988    4.90999985    2.66000009
   15.68722248  107.45999908    4.90999985    2.64000010
   15.69055557  103.39399719    4.90999985    2.66000009
   15.69361115  105.22799683    4.90999985    2.66000009
   15.69694424  111.45099640    4.90999985    2.66000009
   15.69999981  106.68000031    4.90999985    2.64000010
   15.70333290  107.24800110    4.90999985    2.66000009
   15.70666695  104.16200256    4.90999985    2.66000009
   15.71277714  104.16200256    4.90999985    2.66000009
   15.71694374  106.56400299    4.90999985    2.66000009
   15.71999931  102.16200256    4.90999985    2.64000010
   15.72333336  111.32299805    4.90999985    2.66000009
   15.72638798  112.66000366    4.90999985    2.66000009
   15.72972202  104.66899872    4.90999985    2.64000010
   15.73305511  105.20999908    4.90999985    2.66000009
   15.73611164  109.34799957    4.90999985    2.66000009
   15.73944473  104.95700073    4.90999985    2.64000010
   15.74277782  110.08699799    4.90999985    2.66000009
   15.74583340  105.51100159    4.90999985    2.66000009
   15.74916649  113.87799835    4.90999985    2.64000010
   15.75000000  109.96700287    4.90999985    2.64000010
   15.75555515  109.96700287    4.90999985    2.66000009
   15.75972176  118.78299713    4.90999985    2.66000009
   15.76277733  114.52300262    4.90999985    2.64000010
   15.76611137  129.02000427    4.90999985    2.66000009
   15.78361130  132.59899902    4.90999985    2.64000010
   15.78611183  129.98599243    4.90999985    2.66000009
   15.78944492  129.44500732    4.90999985    2.64000010
   15.79250050  119.64099884    4.90999985    2.66000009
   15.79861164  119.64099884    4.90999985    2.64000010
   15.80277824  124.38899994    4.90999985    2.66000009
   15.80583382  124.68499756    4.90999985    2.66000009
   15.80916691  128.14999390    4.90999985    2.64000010
   15.81250000  129.96200562    4.90999985    2.66000009
   15.81555557  122.40200043    4.90999985    2.64000010
   15.81694412  110.96199799    4.90999985    2.64000010
   15.81944466  118.30400085    4.90999985    2.66000009
   15.82250023  125.29000092    4.90999985    2.64000010
   15.82583332  109.97200012    4.90999985    2.66000009
   15.82916641  128.99899292    4.90999985    2.64000010
   15.83222198  160.78599548    4.90999985    2.66000009
   15.83555508  130.05700684    4.90999985    2.66000009
   15.84138870  130.05700684    4.90999985    2.64000010
   15.84555531  148.50799561    4.90999985    2.66000009
   15.84888840  117.59899902    4.90999985    2.66000009
   15.85027790  108.67800140    4.90999985    2.66000009
   15.85249996  133.87899780    4.90999985    2.64000010
   15.85555553  147.76800537    4.90999985    2.64000010
   15.85888958  102.12599945    4.90999985    2.66000009
   15.86222267  142.74200439    4.90999985    2.64000010
   15.86527824  127.05300140    4.90999985    2.66000009
   15.86861134  161.35400391    4.90999985    2.64000010
   15.87194443  125.83200073    4.90999985    2.64000010
   15.87500000  126.34300232    4.90999985    2.64000010
   15.87833309  142.83599854    4.90999985    2.66000009
   15.88416672  142.83599854    4.90999985    2.66000009
   15.88833332  138.39500427    4.90999985    2.66000009
   15.89166641  126.99299622    4.90999985    2.66000009
   15.89472198  124.35099792    4.90999985    2.66000009
   15.89805508  109.27999878    4.90999985    2.64000010
   15.90138817  109.77600098    4.90999985    2.67000008
   15.90444374  105.39800262    4.90999985    2.66000009
   15.90777779  119.02300262    4.90999985    2.64000010
   15.91111088  119.34899902    4.90999985    2.64000010
   15.91416645  108.69400024    4.90999985    2.66000009
   15.91694450  112.93900299    4.90999985    2.66000009
   15.91805553  114.68299866    4.90999985    2.64000010
   15.92111111  114.47299957    4.90999985    2.66000009
   15.92722225  114.47299957    4.90999985    2.66000009
   15.93111134  115.16000366    4.90999985    2.66000009
   15.93444443  105.78199768    4.90999985    2.66000009
   15.93777752  104.33100128    4.90999985    2.64000010
   15.94083309  107.21499634    4.90999985    2.64000010
   15.94416714  106.25800323    4.90999985    2.66000009
   15.94750023  103.76599884    4.90999985    2.66000009
   15.95027733  106.19499969    4.90999985    2.66000009
   15.95111084  105.89099884    4.90999985    2.66000009
   15.95444393  107.12699890    4.90999985    2.66000009
   15.95749950  108.58899689    4.90999985    2.66000009
   15.96083355  100.27600098    4.90999985    2.66000009
   15.96416664  106.08000183    4.90999985    2.66000009
   15.96999931  106.08000183    4.90999985    2.67000008
   15.97416592  106.36799622    4.90999985    2.66000009
   15.97722149  103.85600281    4.90999985    2.66000009
   15.98055553  107.38400269    4.90999985    2.66000009
   15.98361111  101.49600220    4.90999985    2.66000009
   15.98416710  107.54699707    4.90999985    2.66000009
   15.98722267  107.13200378    4.90999985    2.64000010
   15.99055576  102.19400024    4.90999985    2.66000009
   15.99388885  104.64099884    4.90999985    2.66000009
   15.99694443  110.87300110    4.90999985    2.64000010
   16.00027847   95.28949738    4.90999985    2.66000009
   16.00361061  100.07900238    4.90999985    2.66000009
   16.00666618  108.03900146    4.90999985    2.66000009
   16.01277733  108.03900146    4.90999985    2.66000009
   16.01694489  107.37699890    4.90999985    2.64000010
   16.01749992  107.02799988    4.90999985    2.66000009
   16.02055550  109.34799957    4.90999985    2.66000009
   16.02388954  109.35700226    4.90999985    2.66000009
   16.02722168  101.86000061    4.90999985    2.66000009
   16.03027725  106.00199890    4.90999985    2.66000009
   16.03361130  112.14299774    4.90999985    2.66000009
   16.03694344  113.90399933    4.90999985    2.64000010
   16.03999901  105.32099915    4.90999985    2.66000009
   16.04333305  113.36699677    4.90999985    2.66000009
   16.04666710  106.05599976    4.90999985    2.66000009
   16.04972076  108.30599976    4.90999985    2.66000009
   16.05027771  103.55699921    4.90999985    2.66000009
   16.05555534  103.55699921    4.90999985    2.66000009
   16.05972099  109.84100342    4.90999985    2.64000010
   16.06305504  108.29100037    4.90999985    2.66000009
   16.06611061  105.61100006    4.90999985    2.66000009
   16.06944466  114.15499878    4.90999985    2.66000009
   16.07277870  101.00199890    4.90999985    2.66000009
   16.07583427  105.97499847    4.90999985    2.66000009
   16.07916832  106.83899689    4.90999985    2.66000009
   16.08250046   99.86679840    4.90999985    2.66000009
   16.08361244  108.91999817    4.90999985    2.66000009
   16.08611107   98.91680145    4.90999985    2.66000009
   16.08916664  105.20600128    4.90999985    2.67000008
   16.09250069  106.89800262    4.90999985    2.66000009
   16.09861183  106.89800262    4.90999985    2.66000009
   16.10250092  108.60700226    4.90999985    2.66000009
   16.10583305  107.91300201    4.90999985    2.66000009
   16.10916710  107.62500000    4.90999985    2.66000009
   16.11222267  113.66000366    4.90999985    2.64000010
   16.11555672  110.30799866    4.90999985    2.66000009
   16.11694527  111.25700378    4.90999985    2.66000009
   16.11916733  105.63600159    4.90999985    2.66000009
   16.12249947  111.82299805    4.90999985    2.66000009
   16.12555504  106.52799988    4.90999985    2.66000009
   16.12888908  108.00499725    4.90999985    2.66000009
   16.13194466  115.65599823    4.90999985    2.66000009
   16.13527679  113.46700287    4.90999985    2.66000009
   16.14138794  113.46700287    4.90999985    2.66000009
   16.14555550  111.78900146    4.90999985    2.66000009
   16.14861107  108.91200256    4.90999985    2.66000009
   16.15027809  119.05500031    4.90999985    2.66000009
   16.15250015  112.29199982    4.90999985    2.66000009
   16.15583229  111.55500031    4.90999985    2.66000009
   16.15888786  107.84999847    4.90999985    2.66000009
   16.16222191  103.14700317    4.90999985    2.66000009
   16.16527748  112.81999969    4.90999985    2.66000009
   16.16860962  105.85800171    4.90999985    2.66000009
   16.17194366  107.53500366    4.90999985    2.66000009
   16.17499924  113.55899811    4.90999985    2.66000009
   16.17833328  109.59799957    4.90999985    2.66000009
   16.18416595  109.59799957    4.90999985    2.66000009
   16.18833160  203.68600464    4.90999985    2.66000009
   16.19166565  186.47599792    4.90999985    2.66000009
   16.19472122  255.84399414    4.90999985    2.66000009
   16.19805527  263.04400635    4.90999985    2.66000009
   16.20111275  252.35600281    4.90999985    2.66000009
   16.20444489  221.92900085    4.90999985    2.66000009
   16.20777893  212.59899902    4.90999985    2.66000009
   16.21083450  247.55200195    4.90999985    2.66000009
   16.21416664  265.17098999    4.90999985    2.66000009
   16.21694565  215.30099487    4.90999985    2.66000009
   16.21777916  230.85200500    4.90999985    2.67000008
   16.22111130  283.71398926    4.90999985    2.66000009
   16.22694588  283.71398926    4.90999985    2.66000009
   16.23111153  285.91198730    4.90999985    2.66000009
   16.23444557  321.59100342    4.90999985    2.66000009
   16.23750114  298.60400391    4.90999985    2.66000009
   16.24083328  264.95700073    4.90999985    2.66000009
   16.24416733  277.66400146    4.90999985    2.66000009
   16.24722290  281.17599487    4.90999985    2.66000009
   16.25027847  301.13299561    4.90999985    2.67000008
   16.25083351  307.27700806    4.90999985    2.67000008
   16.25416756  297.53500366    4.90999985    2.66000009
   16.25722313  279.42700195    4.90999985    2.66000009
   16.26055527  286.62298584    4.90999985    2.67000008
   16.26361084  244.49400330    4.90999985    2.66000009
   16.27000046  244.49400330    4.90999985    2.66000009
   16.27388954  240.22700500    4.90999985    2.66000009
   16.27722168  229.40400696    4.90999985    2.66000009
   16.28055573  253.80999756    4.90999985    2.66000009
   16.28361130  220.90299988    4.90999985    2.67000008
   16.28416634  235.91700745    4.90999985    2.67000008
   16.28750038  216.83299255    4.90999985    2.66000009
   16.29055595  242.99099731    4.90999985    2.66000009
   16.29388809  194.78500366    4.90999985    2.66000009
   16.29694366  178.08599854    4.90999985    2.66000009
   16.30027771  163.57699585    4.90999985    2.66000009
   16.30360985  185.90899658    4.90999985    2.66000009
   16.30666542  214.65499878    4.90999985    2.67000008
   16.31277657  214.65499878    4.90999985    2.67000008
   16.31694603  214.52600098    4.90999985    2.66000009
   16.31750107  209.81799316    4.90999985    2.64000010
   16.32055664  195.15100098    4.90999985    2.66000009
   16.32389069  174.27299500    4.90999985    2.66000009
   16.32694626  226.39399719    4.90999985    2.67000008
   16.33027840  183.37699890    4.90999985    2.67000008
   16.33361244  188.82099915    4.90999985    2.66000009
   16.33666801  179.22300720    4.90999985    2.66000009
   16.34000015  167.77299500    4.90999985    2.66000009
   16.34333420  198.97700500    4.90999985    2.66000009
   16.34638977  189.83599854    4.90999985    2.66000009
   16.34972191  173.64799500    4.90999985    2.67000008
   16.35083389  179.57499695    4.90999985    2.66000009
   16.35555649  179.57499695    4.90999985    2.67000008
   16.35972214  158.94599915    4.90999985    2.66000009
   16.36305618  175.11700439    4.90999985    2.66000009
   16.36611176  166.61300659    4.90999985    2.66000009
   16.36944389  174.07000732    4.90999985    2.66000009
   16.37277794  153.94700623    4.90999985    2.66000009
   16.37583351  171.30099487    4.90999985    2.67000008
   16.37916756  149.11199951    4.90999985    2.66000009
   16.38249969  158.34300232    4.90999985    2.66000009
   16.38416672  163.27799988    4.90999985    2.67000008
   16.38583374  158.13200378    4.90999985    2.67000008
   16.38916588  133.95700073    4.90999985    2.67000008
   16.39249992  142.67500305    4.90999985    2.67000008
   16.39833260  142.67500305    4.90999985    2.66000009
   16.40250015  131.87100220    4.90999985    2.66000009
   16.40583229  139.22700500    4.90999985    2.67000008
   16.40888786  129.46699524    4.90999985    2.66000009
   16.41222191  162.10899353    4.90999985    2.66000009
   16.41555595  138.52699280    4.90999985    2.66000009
   16.41749954  151.42799377    4.90999985    2.67000008
   16.41916656  154.65499878    4.90999985    2.67000008
   16.42249870  148.64199829    4.90999985    2.66000009
   16.42583275  148.32299805    4.90999985    2.67000008
   16.42888832  147.91299438    4.90999985    2.67000008
   16.43222237  151.61599731    4.90999985    2.66000009
   16.43527603  147.75100708    4.90999985    2.66000009
   16.44138718  147.75100708    4.90999985    2.67000008
   16.44527626  147.01199341    4.90999985    2.66000009
   16.44861031  138.75900269    4.90999985    2.66000009
   16.45083427  149.27900696    4.90999985    2.66000009
   16.45222282  131.19400024    4.90999985    2.66000009
   16.45555687  140.98899841    4.90999985    2.66000009
   16.45888901  139.07800293    4.90999985    2.66000009
   16.46194458  124.96399689    4.90999985    2.67000008
   16.46527863  134.18499756    4.90999985    2.67000008
   16.46833420  134.30299377    4.90999985    2.66000009
   16.47166634  111.84400177    4.90999985    2.66000009
   16.47500038  139.02999878    4.90999985    2.66000009
   16.47805595  137.60099792    4.90999985    2.64000010
   16.48416710  137.60099792    4.90999985    2.67000008
   16.48833275  126.80100250    4.90999985    2.67000008
   16.49138832  119.19999695    4.90999985    2.66000009
   16.49472237  144.42199707    4.90999985    2.67000008
   16.49805641  121.61799622    4.90999985    2.67000008
   16.50111198  129.54600525    4.90999985    2.66000009
   16.50444412  131.25300598    4.90999985    2.66000009
   16.50749969  126.69100189    4.90999985    2.66000009
   16.51083374  122.50299835    4.90999985    2.66000009
   16.51416588  128.78300476    4.90999985    2.67000008
   16.51722145  113.47899628    4.90999985    2.66000009
   16.51777840  115.44300079    4.90999985    2.66000009
   16.52111053  120.27400208    4.90999985    2.66000009
   16.52694511  120.27400208    4.90999985    2.66000009
   16.53111076  115.32299805    4.90999985    2.67000008
   16.53444481  119.08899689    4.90999985    2.67000008
   16.53750038  113.01899719    4.90999985    2.66000009
   16.54083252  121.28900146    4.90999985    2.66000009
   16.54388809  112.98899841    4.90999985    2.66000009
   16.54722214  117.89299774    4.90999985    2.67000008
   16.55055428  118.50000000    4.90999985    2.66000009
   16.55111122  100.02600098    4.90999985    2.66000009
   16.55416679  119.35500336    4.90999985    2.66000009
   16.55749893  114.14900208    4.90999985    2.64000010
   16.56055450  105.41699982    4.90999985    2.66000009
   16.56388855  108.52200317    4.90999985    2.66000009
   16.56972313  108.52200317    4.90999985    2.67000008
   16.57389069  105.94699860    4.90999985    2.66000009
   16.57722282  112.41999817    4.90999985    2.66000009
   16.58027840  116.49500275    4.90999985    2.66000009
   16.58361244  108.13500214    4.90999985    2.66000009
   16.58444595  110.04199982    4.90999985    2.66000009
   16.58722305   99.57820129    4.90999985    2.67000008
   16.59055710  106.72399902    4.90999985    2.66000009
   16.59361267  108.18199921    4.90999985    2.66000009
   16.59694481  111.31800079    4.90999985    2.67000008
   16.60000038  109.32499695    4.90999985    2.67000008
   16.60333443  106.41000366    4.90999985    2.67000008
   16.60666656  104.23000336    4.90999985    2.67000008
   16.61277771  104.23000336    4.90999985    2.66000009
   16.61666679  111.09700012    4.90999985    2.66000009
   16.61777878  109.81900024    4.90999985    2.66000009
   16.62055588  115.91799927    4.90999985    2.66000009
   16.62388992  112.69899750    4.90999985    2.66000009
   16.62694550  112.08999634    4.90999985    2.66000009
   16.63027763  111.08799744    4.90999985    2.67000008
   16.63333321  110.07499695    4.90999985    2.67000008
   16.63666725  112.69999695    4.90999985    2.67000008
   16.63999939  112.68299866    4.90999985    2.66000009
   16.64305496  118.66799927    4.90999985    2.66000009
   16.64638901  116.22899628    4.90999985    2.66000009
   16.64972115  108.06199646    4.90999985    2.66000009
   16.65111160  108.08100128    4.90999985    2.66000009
   16.65555573  108.08100128    4.90999985    2.66000009
   16.65972137  111.28399658    4.90999985    2.66000009
   16.66277695  109.09899902    4.90999985    2.67000008
   16.66611099  106.60099792    4.90999985    2.66000009
   16.66944313  114.81099701    4.90999985    2.66000009
   16.67249870  107.38200378    4.90999985    2.66000009
   16.67583275  109.48799896    4.90999985    2.67000008
   16.67888832  105.38300323    4.90999985    2.66000009
   16.68222237  105.26000214    4.90999985    2.66000009
   16.68444443  111.09500122    4.90999985    2.66000009
   16.68583298  108.64099884    4.90999985    2.66000009
   16.68916512  112.42199707    4.90999985    2.66000009
   16.69222069  115.51000214    4.90999985    2.66000009
   16.69833183  115.51000214    4.90999985    2.67000008
   16.70250130  111.43199921    4.90999985    2.66000009
   16.70583344  114.00399780    4.90999985    2.67000008
   16.70888901  110.00599670    4.90999985    2.66000009
   16.71222305  108.05999756    4.90999985    2.66000009
   16.71555710  111.40499878    4.90999985    2.66000009
   16.71777916  110.02400208    4.90999985    2.66000009
   16.71916771  119.72299957    4.90999985    2.66000009
   16.72249985  112.81800079    4.90999985    2.66000009
   16.72555542  113.12400055    4.90999985    2.66000009
   16.72888947  122.39800262    4.90999985    2.66000009
   16.73194504  116.81900024    4.90999985    2.66000009
   16.73527718  107.42099762    4.90999985    2.66000009
   16.74111176  107.42099762    4.90999985    2.66000009
   16.74527740  113.90699768    4.90999985    2.66000009
   16.74861145  110.64099884    4.90999985    2.66000009
   16.75111198  118.05300140    4.90999985    2.67000008
   16.75222206  117.26200104    4.90999985    2.66000009
   16.75555611  114.40100098    4.90999985    2.67000008
   16.75861168  116.33000183    4.90999985    2.67000008
   16.76194382  116.64700317    4.90999985    2.66000009
   16.76499939  106.66300201    4.90999985    2.66000009
   16.76833344  105.91000366    4.90999985    2.66000009
   16.77166557  116.28900146    4.90999985    2.67000008
   16.77472115  111.42700195    4.90999985    2.66000009
   16.77805519  120.26799774    4.90999985    2.66000009
   16.78388786  120.26799774    4.90999985    2.67000008
   16.80249977  116.54100037    4.90999985    2.66000009
   16.80555534  120.43699646    4.90999985    2.66000009
   16.80888748  115.12799835    4.90999985    2.66000009
   16.81222153  116.58699799    4.90999985    2.66000009
   16.81527710  113.43499756    4.90999985    2.67000008
   16.81861115  109.37500000    4.90999985    2.67000008
   16.82166672  113.65399933    4.90999985    2.66000009
   16.82722282  113.65399933    4.90999985    2.66000009
   16.83139038  110.00800323    4.90999985    2.67000008
   16.83444595  112.15799713    4.90999985    2.66000009
   16.83555603  113.58899689    4.90999985    2.66000009
   16.83805656  112.61299896    4.90999985    2.66000009
   16.84138870  114.01399994    4.90999985    2.66000009
   16.84472275  117.26599884    4.90999985    2.67000008
   16.84777832  115.88200378    4.90999985    2.66000009
   16.85111237  117.24400330    4.90999985    2.66000009
   16.85416794  113.77100372    4.90999985    2.67000008
   16.85750008  111.45099640    4.90999985    2.67000008
   16.86083412  106.95400238    4.90999985    2.66000009
   16.86388969  108.41799927    4.90999985    2.66000009
   16.87000084  108.41799927    4.90999985    2.67000008
   16.87416649  108.18699646    4.90999985    2.66000009
   16.87722206  106.12999725    4.90999985    2.66000009
   16.88055611  105.58599854    4.90999985    2.66000009
   16.88388824  113.21399689    4.90999985    2.66000009
   16.88722229  101.48699951    4.90999985    2.66000009
   16.89027786  114.32199860    4.90999985    2.66000009
   16.89361191  104.16100311    4.90999985    2.66000009
   16.89666748  105.72899628    4.90999985    2.66000009
   16.89999962  109.94200134    4.90999985    2.66000009
   16.90222168  114.70400238    4.90999985    2.66000009
   16.90361023  106.40100098    4.90999985    2.66000009
   16.90694427  107.41500092    4.90999985    2.66000009
   16.91277695  107.41500092    4.90999985    2.67000008
   16.91694450  118.89499664    4.90999985    2.66000009
   16.92027664  120.15499878    4.90999985    2.66000009
   16.92333221  110.22200012    4.90999985    2.66000009
   16.92666626  113.08200073    4.90999985    2.66000009
   16.93000031  106.21700287    4.90999985    2.67000008
   16.93305397  105.46099854    4.90999985    2.67000008
   16.93555450  109.91699982    4.90999985    2.66000009
   16.93666649  112.49700165    4.90999985    2.67000008
   16.93999863  114.43099976    4.90999985    2.66000009
   16.94333267  107.55000305    4.90999985    2.66000009
   16.94638824  110.18599701    4.90999985    2.67000008
   16.94972038  102.76200104    4.90999985    2.67000008
   16.95555687  102.76200104    4.90999985    2.66000009
   16.95972252  110.31500244    4.90999985    2.66000009
   16.96305656  118.54599762    4.90999985    2.66000009
   16.96638870  108.97299957    4.90999985    2.66000009
   16.96888924  110.83200073    4.90999985    2.67000008
   16.96972275  116.71800232    4.90999985    2.66000009
   16.97305679  105.45999908    4.90999985    2.66000009
   16.97638893  113.16699982    4.90999985    2.66000009
   16.97944450  107.37300110    4.90999985    2.66000009
   16.98277855  106.94400024    4.90999985    2.67000008
   16.98611069  112.65499878    4.90999985    2.67000008
   16.98916626  110.97499847    4.90999985    2.67000008
   16.99250031  116.01300049    4.90999985    2.67000008
   16.99861145  116.01300049    4.90999985    2.66000009
   17.00277710  120.10299683    4.90999985    2.67000008
   17.00583267  119.56700134    4.90999985    2.66000009
   17.00916672  125.97499847    4.90999985    2.66000009
   17.01250076  124.05400085    4.90999985    2.66000009
   17.01555634  118.37999725    4.90999985    2.67000008
   17.01888847  115.32900238    4.90999985    2.66000009
   17.02194405  121.06800079    4.90999985    2.67000008
   17.02527809  142.60600281    4.90999985    2.66000009
   17.02861023  113.34899902    4.90999985    2.66000009
   17.03166580  118.26999664    4.90999985    2.66000009
   17.03499985  122.74400330    4.90999985    2.67000008
   17.03555489  117.65100098    4.90999985    2.67000008
   17.04138756  117.65100098    4.90999985    2.66000009
   17.04555511  116.14099884    4.90999985    2.67000008
   17.04861069  116.09899902    4.90999985    2.66000009
   17.05194283  110.87999725    4.90999985    2.66000009
   17.05527687  116.02500153    4.90999985    2.67000008
   17.05833244  127.07800293    4.90999985    2.67000008
   17.06166649  115.27500153    4.90999985    2.66000009
   17.06499863  119.46600342    4.90999985    2.66000009
   17.06805611  112.24500275    4.90999985    2.66000009
   17.06888962  110.95400238    4.90999985    2.66000009
   17.07194519  120.33699799    4.90999985    2.66000009
   17.07500076  121.37000275    4.90999985    2.64000010
   17.07833481  131.91600037    4.90999985    2.67000008
   17.08416748  131.91600037    4.90999985    2.67000008
   17.08833313  138.60299683    4.90999985    2.67000008
   17.09166718  117.53099823    4.90999985    2.66000009
   17.09472275  133.25799561    4.90999985    2.66000009
   17.09805679  133.39599609    4.90999985    2.67000008
   17.10111237  128.08099365    4.90999985    2.66000009
   17.10222244  139.73399353    4.90999985    2.66000009
   17.10499954  124.45500183    4.90999985    2.66000009
   17.10805511  125.03900146    4.90999985    2.66000009
   17.11138916  113.55599976    4.90999985    2.66000009
   17.11444473  124.66300201    4.90999985    2.67000008
   17.11777878  118.55000305    4.90999985    2.67000008
   17.12111092  125.97499847    4.90999985    2.67000008
   17.12694550  125.97499847    4.90999985    2.66000009
   17.13111115  129.88800049    4.90999985    2.66000009
   17.13444519  124.80200195    4.90999985    2.67000008
   17.13555527  118.38700104    4.90999985    2.66000009
   17.13805580  109.95200348    4.90999985    2.66000009
   17.14111137  129.69999695    4.90999985    2.66000009
   17.14444351  134.58999634    4.90999985    2.67000008
   17.14749908  133.77499390    4.90999985    2.66000009
   17.15083313  136.49899292    4.90999985    2.66000009
   17.15416718  138.49600220    4.90999985    2.66000009
   17.15722275  144.81199646    4.90999985    2.66000009
   17.16055489  126.44200134    4.90999985    2.67000008
   17.16388893  138.77499390    4.90999985    2.66000009
   17.17000008  138.77499390    4.90999985    2.67000008
   17.17388916  136.98599243    4.90999985    2.66000009
   17.17722130  139.02299500    4.90999985    2.67000008
   17.18055534  137.03999329    4.90999985    2.66000009
   17.18361092  128.14599609    4.90999985    2.66000009
   17.18694305  134.02200317    4.90999985    2.66000009
   17.19027710  135.14399719    4.90999985    2.66000009
   17.19333267  119.78900146    4.90999985    2.66000009
   17.19666672  137.03799438    4.90999985    2.66000009
   17.19972038  129.40499878    4.90999985    2.66000009
   17.20222282  133.18800354    4.90999985    2.67000008
   17.20361137  141.32699585    4.90999985    2.67000008
   17.20666695  131.04699707    4.90999985    2.66000009
   17.21277809  131.04699707    4.90999985    2.66000009
   17.21694565  129.99299622    4.90999985    2.66000009
   17.22000122  126.70999908    4.90999985    2.66000009
   17.22333336  130.16499329    4.90999985    2.66000009
   17.22666740  130.35899353    4.90999985    2.66000009
   17.22972298  119.70099640    4.90999985    2.66000009
   17.23305511  121.03099823    4.90999985    2.67000008
   17.23555565  114.31900024    4.90999985    2.66000009
   17.23666763  117.36000061    4.90999985    2.66000009
   17.23972321  116.60099792    4.90999985    2.66000009
   17.24305534  122.18299866    4.90999985    2.66000009
   17.24611092  109.02700043    4.90999985    2.66000009
   17.24944496  115.95099640    4.90999985    2.67000008
   17.25555611  115.95099640    4.90999985    2.66000009
   17.25972176  105.66200256    4.90999985    2.66000009
   17.26305580  103.97200012    4.90999985    2.67000008
   17.26611137  110.20700073    4.90999985    2.66000009
   17.26888847  110.75700378    4.90999985    2.66000009
   17.27000046  113.64199829    4.90999985    2.66000009
   17.27305603  118.25599670    4.90999985    2.66000009
   17.27638817  113.38999939    4.90999985    2.66000009
   17.27944374  107.61900330    4.90999985    2.66000009
   17.28277779  113.96499634    4.90999985    2.66000009
   17.28610992  110.38899994    4.90999985    2.66000009
   17.28944397  113.23300171    4.90999985    2.66000009
   17.29277802  103.54199982    4.90999985    2.66000009
   17.29833221  103.54199982    4.90999985    2.67000008
   17.30249977  113.65899658    4.90999985    2.66000009
   17.30583191  117.72100067    4.90999985    2.66000009
   17.30916595  117.01499939    4.90999985    2.66000009
   17.31222153  107.32299805    4.90999985    2.66000009
   17.31555557  106.77500153    4.90999985    2.66000009
   17.31861115  112.38200378    4.90999985    2.66000009
   17.32194519  109.17600250    4.90999985    2.66000009
   17.32527924  109.51499939    4.90999985    2.66000009
   17.32833481  107.73000336    4.90999985    2.66000009
   17.33166695  106.05100250    4.90999985    2.66000009
   17.33500099  115.07199860    4.90999985    2.66000009
   17.33555603  105.53800201    4.90999985    2.66000009
   17.34138870  105.53800201    4.90999985    2.66000009
   17.34527779  114.88099670    4.90999985    2.66000009
   17.34861183  110.55699921    4.90999985    2.66000009
   17.35194397  101.82499695    4.90999985    2.64000010
   17.35499954  110.07399750    4.90999985    2.66000009
   17.35833359  107.33300018    4.90999985    2.67000008
   17.36166763  115.03600311    4.90999985    2.67000008
   17.36472321  113.07800293    4.90999985    2.66000009
   17.36805534  108.85700226    4.90999985    2.66000009
   17.36888885  115.94599915    4.90999985    2.66000009
   17.37166595  112.55300140    4.90999985    2.66000009
   17.37472153  105.98100281    4.90999985    2.66000009
   17.37805557  107.97699738    4.90999985    2.66000009
   17.38416672  107.97699738    4.90999985    2.64000010
   17.38833237  107.65599823    4.90999985    2.66000009
   17.39138794  115.98300171    4.90999985    2.66000009
   17.39472198  108.42099762    4.90999985    2.66000009
   17.39805603  109.97499847    4.90999985    2.66000009
   17.40111160  114.45500183    4.90999985    2.66000009
   17.40222168  109.32099915    4.90999985    2.66000009
   17.40499878  110.73999786    4.90999985    2.66000009
   17.40805435  107.98100281    4.90999985    2.66000009
   17.41138840  108.52100372    4.90999985    2.66000009
   17.41472244  106.90799713    4.90999985    2.66000009
   17.41777802  115.70200348    4.90999985    2.66000009
   17.42111015  108.87400055    4.90999985    2.66000009
   17.42694473  108.87400055    4.90999985    2.66000009
   17.43111038  103.10500336    4.90999985    2.66000009
   17.43444443  108.33699799    4.90999985    2.66000009
   17.43555450  108.70200348    4.90999985    2.66000009
   17.43805504  109.03399658    4.90999985    2.66000009
   17.44111061  111.67900085    4.90999985    2.64000010
   17.44444275  104.91600037    4.90999985    2.64000010
   17.44777679  100.60399628    4.90999985    2.66000009
   17.45083427  102.44100189    4.90999985    2.64000010
   17.45416832  106.27999878    4.90999985    2.66000009
   17.45722389  104.15799713    4.90999985    2.66000009
   17.46055603  104.07299805    4.90999985    2.64000010
   17.46389008  103.08799744    4.90999985    2.66000009
   17.46972275  103.08799744    4.90999985    2.66000009
   17.47389030  101.32199860    4.90999985    2.66000009
   17.47722244  105.61799622    4.90999985    2.64000010
   17.48027802  102.97000122    4.90999985    2.66000009
   17.48361206  107.89499664    4.90999985    2.66000009
   17.48694420  110.09300232    4.90999985    2.64000010
   17.48999977  107.89800262    4.90999985    2.66000009
   17.49333382  113.41899872    4.90999985    2.66000009
   17.49666786  112.68699646    4.90999985    2.66000009
   17.49972153  104.73400116    4.90999985    2.64000010
   17.50222206  112.00800323    4.90999985    2.64000010
   17.50361061  111.34200287    4.90999985    2.64000010
   17.50666618  111.22499847    4.90999985    2.66000009
   17.51250076  111.22499847    4.90999985    2.66000009
   17.51666641  110.08999634    4.90999985    2.71000004
   17.52000046  107.97799683    0.05000000    0.50000000
   17.52333260  106.63300323    0.05000000    0.23000000
   17.52638817  106.28399658    0.03000000    0.03000000
   17.52972221  100.73899841    0.03000000    0.03000000
   17.53305435  108.23100281    0.03000000    0.03000000
   17.53555489  100.32199860    0.03000000    0.03000000
   17.53666687  107.27700043    0.03000000    0.03000000
   17.53972244  106.77500153    0.03000000    0.03000000
   17.54305458  105.47399902    0.03000000    0.03000000
   17.54638863  103.81300354    0.03000000    0.03000000
   17.54944420  110.09500122    0.03000000    0.03000000
   17.55555534  110.09500122    0.03000000    0.03000000
   17.55972099  109.85600281    0.03000000    0.03000000
   17.56277657  112.76899719    0.03000000    0.03000000
   17.56611061  119.20800018    0.03000000    0.03000000
   17.56888962  119.16699982    0.03000000    0.03000000
   17.56972313  109.75399780    0.03000000    0.03000000
   17.57277870  106.34600067    0.03000000    0.03000000
   17.57611275  106.26999664    0.03000000    0.03000000
   17.57944489  108.09899902    0.03000000    0.03000000
   17.58250046  109.17400360    0.03000000    0.03000000
   17.58583450  113.00900269    0.03000000    0.03000000
   17.58889008  109.50099945    0.03000000    0.03000000
   17.59222221  104.66699982    0.03000000    0.03000000
   17.59833336  104.66699982    0.03000000    0.03000000
   17.60250092  111.90399933    0.03000000    0.03000000
   17.60583305  106.60299683    0.03000000    0.03000000
   17.60888863  108.68099976    0.03000000    0.03000000
   17.61222267  106.77799988    0.03000000    0.03000000
   17.61527824  111.83799744    0.03000000    0.03000000
   17.61861038  105.54000092    0.03000000    0.03000000
   17.62194443  101.98400116    0.03000000    0.03000000
   17.62500000  109.20500183    0.03000000    0.03000000
   17.62833405  112.96800232    0.03000000    0.03000000
   17.63166618  101.97699738    0.03000000    0.03000000
   17.63472176  112.31500244    0.03000000    0.03000000
   17.63555527  111.06600189    0.03000000    0.03000000
   17.64111137  111.06600189    0.03000000    0.03000000
   17.64527702  117.73799896    0.03000000    0.03000000
   17.64861107  118.70899963    0.03000000    0.03000000
   17.65166664  113.19400024    0.03000000    0.03000000
   17.65499878  109.01000214    0.03000000    0.03000000
   17.65833282  111.30300140    0.03000000    0.03000000
   17.66166687  111.69899750    0.03000000    0.03000000
   17.66472244  108.04599762    0.03000000    0.03000000
   17.66805458  109.56800079    0.03000000    0.03000000
   17.66888809  114.14099884    0.03000000    0.03000000
   17.67166519  110.55500031    0.03000000    0.03000000
   17.67472076  111.24299622    0.03000000    0.03000000
   17.67805481  110.21700287    0.03000000    0.03000000
   17.68388748  110.21700287    0.03000000    0.03000000
   17.68805504  108.03500366    0.03000000    0.03000000
   17.69138718  105.76200104    0.03000000    0.03000000
   17.69472122  112.97000122    0.03000000    0.03000000
   17.69777679  115.58200073    0.03000000    0.03000000
   17.70111275  116.13500214    0.03000000    0.03000000
   17.70222282  120.51300049    0.03000000    0.03000000
   17.70472336  114.38899994    0.03000000    0.03000000
   17.70777893  113.42099762    0.03000000    0.03000000
   17.71111107  107.97100067    0.03000000    0.03000000
   17.71444511  116.58399963    0.03000000    0.03000000
   17.71750069  119.74099731    0.03000000    0.03000000
   17.72083473  116.16000366    0.03000000    0.03000000
   17.72694588  116.16000366    0.03000000    0.03000000
   17.73111153  106.18699646    0.03000000    0.03000000
   17.73416710  113.24099731    0.03000000    0.03000000
   17.73555565  108.13999939    0.03000000    0.03000000
   17.73805618  110.74700165    0.03000000    0.03000000
   17.74111176  112.32900238    0.03000000    0.03000000
   17.74444389  112.77700043    0.03000000    0.03000000
   17.74777794  108.84899902    0.03000000    0.03000000
   17.75083351  107.98100281    0.03000000    0.03000000
   17.75416756  116.55999756    0.03000000    0.03000000
   17.75722313  111.63200378    0.03000000    0.03000000
   17.76055527  111.75700378    0.03000000    0.03000000
   17.76388931  108.64700317    0.03000000    0.03000000
   17.76972198  108.64700317    0.03000000    0.03000000
   17.77388954  108.79399872    0.03000000    0.03000000
   17.77694511  110.06900024    0.03000000    0.03000000
   17.78027725  104.20400238    0.03000000    0.03000000
   17.78361130  115.48200226    0.03000000    0.03000000
   17.78666687  113.98699951    0.03000000    0.03000000
   17.78999901  110.04100037    0.03000000    0.03000000
   17.79333305  110.78500366    0.03000000    0.03000000
   17.79638863  106.99900055    0.03000000    0.03000000
   17.79972076  103.22000122    0.03000000    0.03000000
   17.80222130  108.81600189    0.03000000    0.03000000
   17.82277870  108.81600189    0.03000000    0.03000000
   17.82694626  106.77799988    0.03000000    0.03000000
   17.83027840  119.10399628    0.03000000    0.03000000
   17.83333397  109.41400146    0.03000000    0.03000000
   17.83555603  113.20700073    0.03000000    0.03000000
   17.83722305  104.92099762    0.03000000    0.03000000
   17.84055710  105.30999756    0.03000000    0.03000000
   17.84361267  109.58799744    0.03000000    0.03000000
   17.84694481  112.67400360    0.03000000    0.03000000
   17.85000038  107.62100220    0.03000000    0.03000000
   17.85333443  108.93000031    0.03000000    0.03000000
   17.85666656  100.62000275    0.03000000    0.03000000
   17.85972214  105.33699799    0.03000000    0.03000000
   17.86555672  105.33699799    0.03000000    0.03000000
   17.86972237  107.50499725    0.03000000    0.03000000
   17.87305641  110.31600189    0.03000000    0.03000000
   17.87611198  114.87400055    0.03000000    0.03000000
   17.87944412  109.09899902    0.03000000    0.03000000
   17.88277817  109.01000214    0.03000000    0.03000000
   17.88583374  110.56300354    0.03000000    0.03000000
   17.88916588  114.19300079    0.03000000    0.03000000
   17.89222145  106.26699829    0.03000000    0.03000000
   17.89555550  110.15499878    0.03000000    0.03000000
   17.89888954  113.80500031    0.03000000    0.03000000
   17.90194321  108.31700134    0.03000000    0.03000000
   17.90250015  105.42600250    0.03000000    0.03000000
   17.90861130  105.42600250    0.03000000    0.03000000
   17.91250038  114.27400208    0.03000000    0.03000000
   17.91583252  107.71099854    0.03000000    0.03000000
   17.91916656  108.16699982    0.03000000    0.03000000
   17.92222214  112.56600189    0.03000000    0.03000000
   17.92555428  106.23799896    0.03000000    0.03000000
   17.92888832  109.23899841    0.03000000    0.03000000
   17.93194389  110.61100006    0.03000000    0.03000000
   17.93527603  114.86900330    0.03000000    0.03000000
   17.93583298  113.27899933    0.03000000    0.03000000
   17.93888855  113.44899750    0.03000000    0.03000000
   17.94222069  108.19499969    0.03000000    0.03000000
   17.94527626  116.35500336    0.03000000    0.03000000
   17.95138931  116.35500336    0.03000000    0.03000000
   17.95555687  108.01899719    0.03000000    0.03000000
   17.95861244  114.28800201    0.03000000    0.03000000
   17.96194458  113.17400360    0.03000000    0.03000000
   17.96500015  109.55699921    0.03000000    0.03000000
   17.96833420  119.04799652    0.03000000    0.03000000
   17.96916771  110.87799835    0.03000000    0.03000000
   17.97194481  112.40299988    0.03000000    0.03000000
   17.97527885  117.38500214    0.03000000    0.03000000
   17.97833443  117.02999878    0.03000000    0.03000000
   17.98166656  120.05599976    0.03000000    0.03000000
   17.98472214  114.05500031    0.03000000    0.03000000
   17.98805618  113.97799683    0.03000000    0.03000000
   17.99416733  113.97799683    0.03000000    0.03000000
   17.99833298  108.42400360    0.03000000    0.03000000
   18.00138855  104.97699738    0.03000000    0.03000000
   18.00250053  107.30100250    0.03000000    0.03000000
   18.00527763  110.07499695    0.03000000    0.03000000
   18.00861168  113.07099915    0.03000000    0.03000000
   18.01166725  107.70099640    0.03000000    0.03000000
   18.01499939  104.44499969    0.03000000    0.03000000
   18.01805496  107.72799683    0.03000000    0.03000000
   18.02138901  107.28299713    0.03000000    0.03000000
   18.02472115  105.63200378    0.03000000    0.03000000
   18.02777672  107.02500153    0.03000000    0.03000000
   18.03111076  116.85399628    0.03000000    0.03000000
   18.03694344  116.85399628    0.03000000    0.03000000
   18.04111099  107.97200012    0.03000000    0.03000000
   18.04444313  108.55200195    0.03000000    0.03000000
   18.04749870  110.74400330    0.03000000    0.03000000
   18.05083275  116.93299866    0.03000000    0.03000000
   18.05416679  104.70999908    0.03000000    0.03000000
   18.05722237  109.60099792    0.03000000    0.03000000
   18.06055450  102.79799652    0.03000000    0.03000000
   18.06361008  104.92900085    0.03000000    0.03000000
   18.06694603  111.94499969    0.03000000    0.03000000
   18.06916809  109.54100037    0.03000000    0.03000000
   18.07055664  105.39499664    0.03000000    0.03000000
   18.07389069  109.61699677    0.03000000    0.03000000
   18.08000183  109.61699677    0.03000000    0.03000000
   18.08388901  113.79000092    0.03000000    0.03000000
   18.08722305  105.80799866    0.03000000    0.03000000
   18.09055710  103.86399841    0.03000000    0.03000000
   18.09361267  113.18299866    0.03000000    0.03000000
   18.09694481  108.12500000    0.03000000    0.03000000
   18.10000038  107.18000031    0.03000000    0.03000000
   18.10250092   99.60420227    0.03000000    0.03000000
   18.10388947  109.38200378    0.03000000    0.03000000
   18.10722351  113.00000000    0.03000000    0.03000000
   18.11027908  108.64499664    0.03000000    0.03000000
   18.11361122  105.39499664    0.03000000    0.03000000
   18.11666679  107.07499695    0.03000000    0.03000000
   18.12277794  107.07499695    0.03000000    0.03000000
   18.12694550  105.36499786    0.03000000    0.03000000
   18.13000107  106.83300018    0.03000000    0.03000000
   18.13333321  113.42800140    0.03000000    0.03000000
   18.13583374  111.49099731    0.03000000    0.03000000
   18.13694382  117.95500183    0.03000000    0.03000000
   18.14027786  115.28199768    0.03000000    0.03000000
   18.14333344  111.16699982    0.03000000    0.03000000
   18.14666748  113.12200165    0.03000000    0.03000000
   18.14972115  113.74099731    0.03000000    0.03000000
   18.15305519  109.24900055    0.03000000    0.03000000
   18.15638924  105.30000305    0.03000000    0.03000000
   18.15944481  110.28500366    0.03000000    0.03000000
   18.16555595  110.28500366    0.03000000    0.03000000
   18.16972160  110.06600189    0.03000000    0.03000000
   18.17277718  107.21299744    0.03000000    0.03000000
   18.17611122  106.16600037    0.03000000    0.03000000
   18.17944336  100.16300201    0.03000000    0.03000000
   18.18249893  107.74099731    0.03000000    0.03000000
   18.18583298  102.66200256    0.03000000    0.03000000
   18.18916512  106.06600189    0.03000000    0.03000000
   18.19222069  110.01799774    0.03000000    0.03000000
   18.19555473  108.51300049    0.03000000    0.03000000
   18.19861031  115.73100281    0.03000000    0.03000000
   18.20194435  107.30999756    0.03000000    0.03000000
   18.20250130  113.94400024    0.03000000    0.03000000
   18.20833397  113.94400024    0.03000000    0.03000000
   18.21250153  114.74199677    0.03000000    0.03000000
   18.21583366  109.99299622    0.03000000    0.03000000
   18.21888924  113.32499695    0.03000000    0.03000000
   18.22222328  105.59700012    0.03000000    0.03000000
   18.22555542  104.83300018    0.03000000    0.03000000
   18.22861099  108.49299622    0.03000000    0.03000000
   18.23194504  113.58100128    0.03000000    0.03000000
   18.23500061  104.77700043    0.03000000    0.03000000
   18.23583412  116.92800140    0.03000000    0.03000000
   18.23861122  109.84100342    0.03000000    0.03000000
   18.24194527  114.72299957    0.03000000    0.03000000
   18.24500084  114.49099731    0.03000000    0.03000000
   18.25138855  114.49099731    0.03000000    0.03000000
   18.25527763  110.62699890    0.03000000    0.03000000
   18.25861168  113.80599976    0.03000000    0.03000000
   18.26194382  108.37999725    0.03000000    0.03000000
   18.26499939  113.35600281    0.03000000    0.03000000
   18.26833344  106.18699646    0.03000000    0.03000000
   18.26916695  114.51399994    0.03000000    0.03000000
   18.27194405  107.95099640    0.03000000    0.03000000
   18.27527809  111.39399719    0.03000000    0.03000000
   18.27833366  111.91699982    0.03000000    0.03000000
   18.28166580  109.72599792    0.03000000    0.03000000
   18.28499985  110.56900024    0.03000000    0.03000000
   18.28805542  108.40599823    0.03000000    0.03000000
   18.29416656  108.40599823    0.03000000    0.03000000
   18.29833221  108.93599701    0.03000000    0.03000000
   18.30138779  116.20600128    0.03000000    0.03000000
   18.30249977  108.62200165    0.03000000    0.03000000
   18.30499840  107.94200134    0.03000000    0.03000000
   18.30833244  116.06300354    0.03000000    0.03000000
   18.31138802  104.02899933    0.03000000    0.03000000
   18.31472206  108.22299957    0.03000000    0.03000000
   18.31805611  108.87300110    0.03000000    0.03000000
   18.32111168  114.33200073    0.03000000    0.03000000
   18.32444572  109.90899658    0.03000000    0.03000000
   18.32750130  114.96700287    0.03000000    0.03000000
   18.33083344  116.32900238    0.03000000    0.03000000
   18.33694458  116.32900238    0.03000000    0.03000000
   18.34111214  119.47200012    0.03000000    0.03000000
   18.34416771  114.23000336    0.03000000    0.03000000
   18.34749985  109.88800049    0.03000000    0.03000000
   18.35083389  111.32599640    0.03000000    0.03000000
   18.35388947  108.43399811    0.03000000    0.03000000
   18.35722351  108.09999847    0.03000000    0.03000000
   18.36055565  107.48100281    0.03000000    0.03000000
   18.36361122  112.11599731    0.03000000    0.03000000
   18.36694527  111.26499939    0.03000000    0.03000000
   18.36916733  111.31500244    0.03000000    0.03000000
   18.37055588  104.79399872    0.03000000    0.03000000
   18.37388992  103.81600189    0.03000000    0.03000000
   18.37972260  103.81600189    0.03000000    0.03000000
   18.38388824  118.86799622    0.03000000    0.03000000
   18.38722229  108.89700317    0.03000000    0.03000000
   18.39027786  116.39900208    0.03000000    0.03000000
   18.39361191  112.68900299    0.03000000    0.03000000
   18.39694405  109.62000275    0.03000000    0.03000000
   18.39999962  113.40299988    0.03000000    0.03000000
   18.40250015  110.41300201    0.03000000    0.03000000
   18.40361023  107.26200104    0.03000000    0.03000000
   18.40694427  121.66300201    0.03000000    0.03000000
   18.40999985  110.67299652    0.03000000    0.03000000
   18.41333389  103.21299744    0.03000000    0.03000000
   18.41666603  112.97599792    0.03000000    0.03000000
   18.42249870  112.97599792    0.03000000    0.03000000
   18.42666626  121.50000000    0.03000000    0.03000000
   18.43000031  115.95999908    0.03000000    0.03000000
   18.43333244  114.25299835    0.03000000    0.03000000
   18.43610954  114.30100250    0.03000000    0.03000000
   18.43694305  114.87899780    0.03000000    0.03000000
   18.44027710  111.02799988    0.03000000    0.03000000
   18.44333267  117.12200165    0.03000000    0.03000000
   18.44666672  113.87999725    0.03000000    0.03000000
   18.45000076  116.46399689    0.03000000    0.03000000
   18.45305634  111.15699768    0.03000000    0.03000000
   18.45639038  104.41200256    0.03000000    0.03000000
   18.45944595  107.83699799    0.03000000    0.03000000
   18.46555710  107.83699799    0.03000000    0.03000000
   18.46972275  107.78399658    0.03000000    0.03000000
   18.47277832  106.26699829    0.03000000    0.03000000
   18.47611237  108.08699799    0.03000000    0.03000000
   18.47916794  104.05699921    0.03000000    0.03000000
   18.48250008  107.74900055    0.03000000    0.03000000
   18.48583412  113.29399872    0.03000000    0.03000000
   18.48888969  117.87699890    0.03000000    0.03000000
   18.49222183  115.84500122    0.03000000    0.03000000
   18.49555588  112.80400085    0.03000000    0.03000000
   18.49861145  109.46700287    0.03000000    0.03000000
   18.50194359  109.34100342    0.03000000    0.03000000
   18.50277710  118.44699860    0.03000000    0.03000000
   18.50833321  118.44699860    0.03000000    0.03000000
   18.51250076  112.07599640    0.03000000    0.03000000
   18.51555634  109.92500305    0.03000000    0.03000000
   18.51888847  110.23100281    0.03000000    0.03000000
   18.52222252  104.78199768    0.03000000    0.03000000
   18.52555466  110.94000244    0.03000000    0.03000000
   18.52861023  113.42099762    0.03000000    0.03000000
   18.53194427  115.02700043    0.03000000    0.03000000
   18.53499985  114.23100281    0.03000000    0.03000000
   18.53610992  113.05400085    0.03000000    0.03000000
   18.53861046  110.60600281    0.03000000    0.03000000
   18.54194450  109.15899658    0.03000000    0.03000000
   18.54500008  113.62500000    0.03000000    0.03000000
   18.55111122  113.62500000    0.03000000    0.03000000
   18.55527687  111.93199921    0.03000000    0.03000000
   18.55861092  108.14299774    0.03000000    0.03000000
   18.56166649  114.50399780    0.03000000    0.03000000
   18.56499863  118.94899750    0.03000000    0.03000000
   18.56833458  115.94899750    0.03000000    0.03000000
   18.56944466  119.21499634    0.03000000    0.03000000
   18.57166672  119.09700012    0.03000000    0.03000000
   18.57500076  115.97499847    0.03000000    0.03000000
   18.57805634  119.09999847    0.03000000    0.03000000
   18.58139038  112.68699646    0.03000000    0.03000000
   18.58472252  117.44699860    0.03000000    0.03000000
   18.58777809  113.09700012    0.03000000    0.03000000
   18.59416771  113.09700012    0.03000000    0.03000000
   18.59805679  114.45999908    0.03000000    0.03000000
   18.60138893  118.81800079    0.03000000    0.03000000
   18.60277748  108.49299622    0.03000000    0.03000000
   18.60499954  113.85500336    0.03000000    0.03000000
   18.60833359  109.19499969    0.03000000    0.03000000
   18.61138916  117.01200104    0.03000000    0.03000000
   18.61472321  113.38899994    0.03000000    0.03000000
   18.61805534  117.65000153    0.03000000    0.03000000
   18.62111092  109.67800140    0.03000000    0.03000000
   18.62444496  108.64199829    0.03000000    0.03000000
   18.62777710  113.26000214    0.03000000    0.03000000
   18.63083267  129.63600159    0.03000000    0.03000000
   18.63694382  129.63600159    0.03000000    0.03000000
   18.64111137  135.67700195    0.03000000    0.03000000
   18.64416695  150.42300415    0.03000000    0.03000000
   18.64749908  151.90400696    0.03000000    0.03000000
   18.65055466  141.59700012    0.03000000    0.03000000
   18.65388870  146.59599304    0.03000000    0.03000000
   18.65722275  148.94700623    0.03000000    0.03000000
   18.66027832  139.67199707    0.03000000    0.03000000
   18.66361046  136.30499268    0.03000000    0.03000000
   18.66694450  139.73899841    0.03000000    0.03000000
   18.66944313  136.27400208    0.03000000    0.03000000
   18.67027664  138.67199707    0.03000000    0.03000000
   18.67361069  142.73599243    0.03000000    0.03000000
   18.67972183  142.73599243    0.03000000    0.03000000
   18.68388748  110.77999878    0.03000000    0.03000000
   18.68694305  140.48100281    0.03000000    0.03000000
   18.69027710  143.55200195    0.03000000    0.03000000
   18.69361115  145.21800232    0.03000000    0.03000000
   18.69666672  118.21499634    0.03000000    0.03000000
   18.70000076  128.34899902    0.03000000    0.03000000
   18.70277786  136.82099915    0.03000000    0.03000000
   18.70361137  133.18200684    0.03000000    0.03000000
   18.70694542  113.62400055    0.03000000    0.03000000
   18.71000099  117.08499908    0.03000000    0.03000000
   18.71333504  126.54699707    0.03000000    0.03000000
   18.71666718  129.30900574    0.03000000    0.03000000
   18.72249985  129.30900574    0.03000000    0.03000000
   18.72666740  123.66600037    0.03000000    0.03000000
   18.73000145  123.77799988    0.03000000    0.03000000
   18.73305511  127.06199646    0.03000000    0.03000000
   18.73611069  122.27999878    0.03000000    0.03000000
   18.73666763  111.22699738    0.03000000    0.03000000
   18.73999977  119.41999817    0.03000000    0.03000000
   18.74305534  118.11399841    0.03000000    0.03000000
   18.74638939  111.95999908    0.03000000    0.03000000
   18.74972153  111.13400269    0.03000000    0.03000000
   18.75277710  114.36199951    0.03000000    0.03000000
   18.75611115  121.44000244    0.03000000    0.03000000
   18.75944519  121.82900238    0.03000000    0.03000000
   18.76527786  121.82900238    0.03000000    0.03000000
   18.76944351  125.33799744    0.03000000    0.03000000
   18.77277756  123.18499756    0.03000000    0.03000000
   18.77611160  115.48400116    0.03000000    0.03000000
   18.77916718  122.20200348    0.03000000    0.03000000
   18.78249931  124.85099792    0.03000000    0.03000000
   18.78555489  138.03500366    0.03000000    0.03000000
   18.78888893  117.90799713    0.03000000    0.03000000
   18.79222107  139.42399597    0.03000000    0.03000000
   18.79527664  134.17799377    0.03000000    0.03000000
   18.79861069  127.81800079    0.03000000    0.03000000
   18.80194283  132.88000488    0.03000000    0.03000000
   18.80277634  128.76800537    0.03000000    0.03000000
   18.80833244  128.76800537    0.03000000    0.03000000
   18.81250000  120.52300262    0.03000000    0.03000000
   18.81555557  118.18599701    0.03000000    0.03000000
   18.81888962  128.69900513    0.03000000    0.03000000
   18.83638954  123.43199921    0.03000000    0.03000000
   18.83889008  129.17599487    0.03000000    0.03000000
   18.84194565  111.31300354    0.03000000    0.03000000
   18.84527779  125.32499695    0.03000000    0.03000000
   18.85138893  125.32499695    0.03000000    0.03000000
   18.85527802  121.43099976    0.03000000    0.03000000
   18.85861206  109.96700287    0.03000000    0.03000000
   18.86194420  119.04000092    0.03000000    0.03000000
   18.86499977  114.85099792    0.03000000    0.03000000
   18.86833382  121.18499756    0.03000000    0.03000000
   18.86972237  119.35700226    0.03000000    0.03000000
   18.87194443  123.13300323    0.03000000    0.03000000
   18.87527847  126.58599854    0.03000000    0.03000000
   18.87861061  111.64800262    0.03000000    0.03000000
   18.88166618  112.43599701    0.03000000    0.03000000
   18.88500023  122.94200134    0.03000000    0.03000000
   18.88833237  119.56800079    0.03000000    0.03000000
   18.89416695  119.56800079    0.03000000    0.03000000
   18.89833260  115.72299957    0.03000000    0.03000000
   18.90138817  121.82800293    0.03000000    0.03000000
   18.90305519  112.12000275    0.03000000    0.03000000
   18.90499878  114.26699829    0.03000000    0.03000000
   18.90833282  113.73400116    0.03000000    0.03000000
   18.91166687  111.63200378    0.03000000    0.03000000
   18.91472244  111.21700287    0.03000000    0.03000000
   18.91805458  115.09999847    0.03000000    0.03000000
   18.92111015  117.26000214    0.03000000    0.03000000
   18.92444420  116.85600281    0.03000000    0.03000000
   18.92777634  116.06900024    0.03000000    0.03000000
   18.93083191  119.96399689    0.03000000    0.03000000
   18.93694305  119.96399689    0.03000000    0.03000000
   18.94111061  111.92400360    0.03000000    0.03000000
   18.94444275  114.74500275    0.03000000    0.03000000
   18.94749832  107.21900177    0.03000000    0.03000000
   18.95083427  108.34999847    0.03000000    0.03000000
   18.95416832  121.50499725    0.03000000    0.03000000
   18.95722389  111.03299713    0.03000000    0.03000000
   18.96055603  111.14099884    0.03000000    0.03000000
   18.96389008  118.19000244    0.03000000    0.03000000
   18.96694565  116.81600189    0.03000000    0.03000000
   18.96972275  113.59100342    0.03000000    0.03000000
   18.97055626  116.65299988    0.03000000    0.03000000
   18.97389030  119.25499725    0.03000000    0.03000000
   18.97972298  119.25499725    0.03000000    0.03000000
   18.98388863  119.48300171    0.03000000    0.03000000
   18.98722267  116.02200317    0.03000000    0.03000000
   18.99027824  112.00399780    0.03000000    0.03000000
   18.99361229  115.83399963    0.03000000    0.03000000
   18.99694443  123.28800201    0.03000000    0.03000000
   19.00000000  118.29900360    0.03000000    0.03000000
   19.00305557  114.98200226    0.03000000    0.03000000
   19.00361061  112.48999786    0.03000000    0.03000000
   19.00694466  114.63099670    0.03000000    0.03000000
   19.01027870  123.93399811    0.03000000    0.03000000
   19.01333427  124.09799957    0.03000000    0.03000000
   19.01666641  115.46800232    0.03000000    0.03000000
   19.02277756  115.46800232    0.03000000    0.03000000
   19.02666664  114.83899689    0.03000000    0.03000000
   19.03000069  120.83899689    0.03000000    0.03000000
   19.03333282  123.16300201    0.03000000    0.03000000
   19.03638840  123.35099792    0.03000000    0.03000000
   19.03666687  117.44000244    0.03000000    0.03000000
   19.03999901  119.10800171    0.03000000    0.03000000
   19.04333305  125.13600159    0.03000000    0.03000000
   19.04638863  121.01200104    0.03000000    0.03000000
   19.04972076  118.43800354    0.03000000    0.03000000
   19.05305481  114.87200165    0.03000000    0.03000000
   19.05611038  113.51999664    0.03000000    0.03000000
   19.05944443  117.64299774    0.03000000    0.03000000
   19.06555557  117.64299774    0.03000000    0.03000000
   19.06972313  118.63999939    0.03000000    0.03000000
   19.07277870  118.54599762    0.03000000    0.03000000
   19.07611275  119.48999786    0.03000000    0.03000000
   19.07944489  109.99800110    0.03000000    0.03000000
   19.08250046  117.38099670    0.03000000    0.03000000
   19.08583450  119.88099670    0.03000000    0.03000000
   19.08889008  114.93599701    0.03000000    0.03000000
   19.09222221  109.79599762    0.03000000    0.03000000
   19.09555626  112.68099976    0.03000000    0.03000000
   19.09861183  112.95099640    0.03000000    0.03000000
   19.10194397  128.66299438    0.03000000    0.03000000
   19.10305595  117.34700012    0.03000000    0.03000000
   19.10833359  117.34700012    0.03000000    0.03000000
   19.11250114  117.10500336    0.03000000    0.03000000
   19.11583328  115.79699707    0.03000000    0.03000000
   19.11888885  116.47200012    0.03000000    0.03000000
   19.12222290  120.69999695    0.03000000    0.03000000
   19.12527847  122.42400360    0.03000000    0.03000000
   19.12861061  121.74400330    0.03000000    0.03000000
   19.13194466  114.83899689    0.03000000    0.03000000
   19.13500023  121.69799805    0.03000000    0.03000000
   19.13638878  115.57900238    0.03000000    0.03000000
   19.13861084  122.85500336    0.03000000    0.03000000
   19.14194489  126.74299622    0.03000000    0.03000000
   19.14527702  119.03700256    0.03000000    0.03000000
   19.15111160  119.03700256    0.03000000    0.03000000
   19.15527725  122.55999756    0.03000000    0.03000000
   19.15861130  120.51899719    0.03000000    0.03000000
   19.16166687  123.98300171    0.03000000    0.03000000
   19.16499901  131.26899719    0.03000000    0.03000000
   19.16833305  120.69300079    0.03000000    0.03000000
   19.16972160  127.05699921    0.03000000    0.03000000
   19.17166519  126.84500122    0.03000000    0.03000000
   19.17499924  126.46800232    0.03000000    0.03000000
   19.17833328  118.71499634    0.03000000    0.03000000
   19.18138885  113.56800079    0.03000000    0.03000000
   19.18472099  118.65100098    0.03000000    0.03000000
   19.18805504  110.27400208    0.03000000    0.03000000
   19.19416618  110.27400208    0.03000000    0.03000000
