    HOUR (UT)   FLARE FACTOR    SKY TESTER    SUN TESTER
   11.62472248   -1.00000000   -1.00000000   -1.00000000
   11.64388847  203.01400757    1.91999996    1.71000004
   11.64944458  190.06700134    1.94000006    1.71000004
   11.65277767  198.62300110    1.94000006    1.71000004
   11.65611076  183.69299316    1.96000004    1.71000004
   11.65916634  204.47000122    1.98000002    1.71000004
   11.66249943  214.94900513    1.98000002    1.73000002
   11.66583252  201.33099365    1.98000002    1.73000002
   11.66888905  202.53900146    2.00000000    1.73000002
   11.67222214  194.52400208    2.00000000    1.75000000
   11.67555618  186.32600403    2.01999998    1.75000000
   11.67722225  188.26899719    2.01999998    1.75000000
   11.67888927  172.13699341    2.01999998    1.75000000
   11.68222237  167.57899475    2.01999998    1.76999998
   11.68555546  169.68600464    2.01999998    1.75000000
   11.68861103  182.66499329    2.03999996    1.76999998
   11.69194412  164.88499451    2.03999996    1.76999998
   11.69527817  168.33599854    2.03999996    1.76999998
   11.69833374  165.39399719    2.01999998    1.76999998
   11.70166683  179.00199890    2.03999996    1.78999996
   11.70472240  173.91799927    2.01999998    1.78999996
   11.70805550  173.97399902    2.03999996    1.78999996
   11.71055508  164.82299805    2.01999998    1.80999994
   11.71166611  170.47200012    2.01999998    1.78999996
   11.71500015  157.35699463    2.03999996    1.78999996
   11.71833324  171.58200073    2.01999998    1.78999996
   11.72138882  164.41400146    2.01999998    1.80999994
   11.72472191  168.71099854    2.01999998    1.80999994
   11.72805500  158.14999390    2.01999998    1.83000004
   11.73111057  159.36099243    2.01999998    1.83000004
   11.73444462  150.21400452    2.01999998    1.83000004
   11.73750019  164.61999512    2.00000000    1.83000004
   11.74083328  162.33299255    2.00000000    1.83000004
   11.74388885  172.51499939    2.00000000    1.85000002
   11.74444485  161.86000061    2.00000000    1.85000002
   11.74777794  136.07400513    1.98000002    1.85000002
   11.75111103  143.54100037    1.98000002    1.85000002
   11.75416660  151.15499878    1.98000002    1.85000002
   11.75749969  153.94900513    1.98000002    1.85000002
   11.76055527  162.23399353    1.98000002    1.86000001
   11.76388931  155.04499817    1.98000002    1.86000001
   11.76722240  157.68200684    1.98000002    1.86000001
   11.77027798  148.97700500    1.98000002    1.88000000
   11.77361107  141.02799988    1.98000002    1.88000000
   11.77694416  158.09500122    1.96000004    1.88000000
   11.77722168  152.10800171    1.96000004    1.88000000
   11.78027725  155.67900085    1.96000004    1.88000000
   11.78361130  144.27000427    1.96000004    1.88000000
   11.78666687  149.82699585    1.94000006    1.88000000
   11.79000092  139.53799438    1.94000006    1.86000001
   11.79305553  140.31599426    1.94000006    1.88000000
   11.79638958  135.19099426    1.94000006    1.89999998
   11.79972267  148.56100464    1.94000006    1.89999998
   11.80277824  136.81700134    1.91999996    1.89999998
   11.80611134  140.32000732    1.94000006    1.89999998
   11.80944443  135.57699585    1.91999996    1.89999998
   11.81055546  131.60800171    1.91999996    1.89999998
   11.81305599  138.01100159    1.91999996    1.91999996
   11.81638908  120.18399811    1.91999996    1.91999996
   11.81944466  139.16799927    1.91999996    1.91999996
   11.82277775  125.08999634    1.91999996    1.91999996
   11.82583332  135.05299377    1.91999996    1.91999996
   11.82916641  145.18600464    1.91999996    1.91999996
   11.83249950  142.13400269    1.91999996    1.94000006
   11.83555508  150.35299683    1.91999996    1.94000006
   11.83888817  143.96699524    1.89999998    1.94000006
   11.84222221  139.31300354    1.91999996    1.94000006
   11.84388828  132.15600586    1.89999998    1.94000006
   11.84583282  145.85600281    1.88000000    1.94000006
   11.84916592  147.92700195    1.89999998    1.94000006
   11.85222244  151.38699341    1.89999998    1.94000006
   11.85555553  146.80499268    1.89999998    1.94000006
   11.85888958  131.22399902    1.88000000    1.94000006
   11.86194515  152.02699280    1.88000000    1.94000006
   11.86527824  154.76100159    1.88000000    1.94000006
   11.86833382  147.59500122    1.88000000    1.96000004
   11.87166691  138.18800354    1.88000000    1.96000004
   11.87500000  148.65899658    1.88000000    1.96000004
   11.87722206  146.51499939    1.86000001    1.98000002
   11.87861156  134.11399841    1.86000001    1.98000002
   11.88194466  142.01600647    1.88000000    1.98000002
   11.88500023  139.70700073    1.88000000    1.98000002
   11.88833332  136.43400574    1.86000001    1.98000002
   11.89138889  137.39700317    1.86000001    1.98000002
   11.89472198  133.55599976    1.86000001    1.98000002
   11.89805508  137.60899353    1.86000001    2.00000000
   11.90111065  132.37100220    1.86000001    2.00000000
   11.90444374  138.10699463    1.86000001    2.00000000
   11.90777779  133.17199707    1.86000001    2.00000000
   11.91055489  138.34899902    1.86000001    2.01999998
   11.91111088  133.42999268    1.86000001    2.01999998
   11.91444397  124.59300232    1.86000001    2.00000000
   11.91750050  149.96899414    1.85000002    2.01999998
   11.92083359  146.77999878    1.85000002    2.01999998
   11.92388916  132.57299805    1.85000002    2.01999998
   11.92722225  157.62800598    1.85000002    2.01999998
   11.93055630  149.46400452    1.85000002    2.01999998
   11.93361092  151.52099609    1.83000004    2.01999998
   11.93694496  149.22799683    1.83000004    2.03999996
   11.94027805  146.95300293    1.83000004    2.01999998
   11.94333363  138.61700439    1.83000004    2.01999998
   11.94388866  138.40600586    1.83000004    2.01999998
   11.94694424  140.10299683    1.83000004    2.03999996
   11.95027733  140.02999878    1.83000004    2.03999996
   11.95333290  146.50900269    1.83000004    2.03999996
   11.95666695  146.80200195    1.80999994    2.03999996
   11.96000004  135.58399963    1.80999994    2.05999994
   11.96305561  134.81100464    1.80999994    2.05999994
   11.96638870  134.48699951    1.80999994    2.05999994
   11.96944427  135.36999512    1.80999994    2.05999994
   11.97277737  138.83700562    1.78999996    2.05999994
   11.97611046  138.28999329    1.80999994    2.05999994
   11.97722149  140.21099854    1.80999994    2.05999994
   11.97972202  133.18899536    1.78999996    2.05999994
   11.98305511  146.67199707    1.78999996    2.05999994
   11.98611164  146.39599609    1.78999996    2.05999994
   11.98944473  133.89999390    1.78999996    2.07999992
   11.99277782  153.78900146    1.78999996    2.07999992
   11.99583340  138.27000427    1.78999996    2.07999992
   11.99916649  140.84300232    1.76999998    2.07999992
   12.00222206  143.36799622    1.76999998    2.07999992
   12.00555515  154.59899902    1.76999998    2.07999992
   12.00888920  146.63000488    1.76999998    2.07999992
   12.01055527  138.44200134    1.76999998    2.07999992
   12.01249981  139.44900513    1.76999998    2.09999990
   12.01583290  148.52400208    1.76999998    2.07999992
   12.01888847  141.54899597    1.76999998    2.09999990
   12.02222157  137.69200134    1.76999998    2.09999990
   12.02555561  132.52000427    1.75000000    2.09999990
   12.02861118  143.41200256    1.75000000    2.09999990
   12.03194427  138.23699951    1.75000000    2.09999990
   12.03527832  148.04499817    1.75000000    2.09999990
   12.03833389  145.77699280    1.75000000    2.09999990
   12.04166698  140.25100708    1.75000000    2.09999990
   12.04388905  143.69099426    1.75000000    2.09999990
   12.04527855  151.29699707    1.73000002    2.11999989
   12.04861164  151.51800537    1.73000002    2.11999989
   12.05166721  141.68299866    1.73000002    2.11999989
   12.05500031  144.00700378    1.73000002    2.11999989
   12.05833340  140.94700623    1.73000002    2.13000011
   12.06166649  142.45500183    1.71000004    2.13000011
   12.06472206  140.15600586    1.71000004    2.13000011
   12.06805515  140.38900757    1.71000004    2.11999989
   12.07111073  150.68299866    1.71000004    2.13000011
   12.07444477  150.22700500    1.71000004    2.13000011
   12.07722187  137.52400208    1.71000004    2.13000011
   12.07805538  136.98800659    1.71000004    2.13000011
   12.08138847  131.94799805    1.71000004    2.13000011
   12.08444405  139.98199463    1.69000006    2.13000011
   12.08777714  142.33999634    1.69000006    2.13000011
   12.09111118  138.63099670    1.69000006    2.13000011
   12.09416676  134.79899597    1.69000006    2.15000010
   12.09749985  140.55299377    1.69000006    2.15000010
   12.10055637  144.01699829    1.69000006    2.15000010
   12.10388947  143.43800354    1.69000006    2.15000010
   12.10722256  143.85299683    1.66999996    2.15000010
   12.11027813  141.62100220    1.66999996    2.15000010
   12.11083412  141.86799622    1.66999996    2.15000010
   12.11416721  136.80900574    1.66999996    2.15000010
   12.11722279  153.69500732    1.66999996    2.17000008
   12.12055588  152.19299316    1.66999996    2.17000008
   12.12388897  157.06300354    1.64999998    2.17000008
   12.12694454  158.84700012    1.64999998    2.17000008
   12.13027763  148.38900757    1.64999998    2.17000008
   12.13333321  152.01699829    1.64999998    2.17000008
   12.13666630  150.60400391    1.63000000    2.17000008
   12.14000034  155.04100037    1.63000000    2.17000008
   12.14305496  164.59599304    1.63000000    2.17000008
   12.14416695  155.21899414    1.63000000    2.17000008
   12.14666653  151.37399292    1.63000000    2.17000008
   12.14972210  144.72799683    1.63000000    2.17000008
   12.15305519  148.14100647    1.63000000    2.17000008
   12.15638828  149.35699463    1.61000001    2.17000008
   12.15944386  150.13000488    1.61000001    2.17000008
   12.16277695  149.70899963    1.61000001    2.19000006
   12.16611099  144.61900330    1.61000001    2.19000006
   12.16916656  142.87399292    1.61000001    2.19000006
   12.17250061  134.40800476    1.60000002    2.19000006
   12.17555618  147.62800598    1.60000002    2.19000006
   12.17750072  134.77099609    1.60000002    2.17000008
   12.17944431  142.35699463    1.60000002    2.17000008
   12.18249989  140.04100037    1.58000004    2.21000004
   12.18583298  142.68899536    1.58000004    2.19000006
   12.18916702  133.69200134    1.55999994    2.19000006
   12.19222260  145.59700012    1.55999994    2.21000004
   12.19555569  155.90699768    1.55999994    2.19000006
   12.19888878  158.77699280    1.55999994    2.21000004
   12.20194435  147.76199341    1.55999994    2.21000004
   12.20527744  147.60000610    1.53999996    2.21000004
   12.20833302  144.50599670    1.53999996    2.21000004
   12.21083355  150.15800476    1.53999996    2.21000004
   12.21222210  140.42900085    1.53999996    2.21000004
   12.21527767  147.74200439    1.51999998    2.21000004
   12.21861076  145.39500427    1.51999998    2.21000004
   12.22194386  142.54100037    1.51999998    2.21000004
   12.22499943  150.45599365    1.51999998    2.21000004
   12.22833252  147.75000000    1.51999998    2.23000002
   12.23166656  145.09500122    1.50000000    2.23000002
   12.23472214  143.53799438    1.50000000    2.21000004
   12.23805618  139.05499268    1.50000000    2.21000004
   12.24111176  144.00700378    1.48000002    2.23000002
   12.24416733  152.12699890    1.48000002    2.23000002
   12.24499989  151.17999268    1.48000002    2.23000002
   12.24805546  147.62199402    1.46000004    2.23000002
   12.25138855  144.82600403    1.46000004    2.23000002
   12.25472260  146.39599609    1.46000004    2.23000002
   12.25777817  148.42799377    1.46000004    2.25000000
   12.26111126  142.34599304    1.46000004    2.25000000
   12.26444435  150.86099243    1.44000006    2.25000000
   12.26749992  153.85499573    1.44000006    2.25000000
   12.27083302  149.26499939    1.41999996    2.25000000
   12.27388859  147.65899658    1.41999996    2.25000000
   12.27722168  145.41600037    1.41999996    2.25000000
   12.27777767  152.78300476    1.41999996    2.25000000
   12.28083324  149.58299255    1.41999996    2.25000000
   12.28416729  144.81900024    1.41999996    2.25000000
   12.28750038  144.91400146    1.39999998    2.25000000
   12.29055595  151.14700317    1.39999998    2.26999998
   12.29388905  150.97799683    1.39999998    2.26999998
   12.29722309  152.71000671    1.39999998    2.25000000
   12.30027771  144.93200684    1.39999998    2.25000000
   12.30361176  152.14700317    1.39999998    2.25000000
   12.30666733  148.44299316    1.39999998    2.26999998
   12.31000042  145.54800415    1.39999998    2.26999998
   12.31111145  140.05999756    1.39999998    2.26999998
   12.31333351  149.91400146    1.38000000    2.26999998
   12.31666660  141.20899963    1.38000000    2.25000000
   12.31999969  149.18200684    1.23000002    2.25000000
   12.32305527  153.49499512    1.25000000    2.25000000
   12.32638836  149.87100220    1.26999998    2.26999998
   12.32972240  140.24699402    1.26999998    2.25000000
   12.33277798  144.51300049    1.26999998    2.25000000
   12.33611107  143.40400696    1.28999996    2.26999998
   12.33916664  150.22000122    1.28999996    2.26999998
   12.34249973  150.07400513    1.26999998    2.26999998
   12.34444427  206.09399414    1.26999998    2.25000000
   12.34611034  156.90600586    1.26999998    2.26999998
   12.34944439  194.11500549    1.26999998    2.25000000
   12.35277843  170.65899658    1.26999998    2.26999998
   12.35583401  177.94599915    1.26999998    2.26999998
   12.35916710  201.06799316    1.26999998    2.26999998
   12.36250019  174.43699646    1.26999998    2.25000000
   12.36555576  183.95599365    1.25000000    2.25000000
   12.36888885  164.79699707    1.25000000    2.26999998
   12.37194443  166.47900391    1.25000000    2.28999996
   12.37527752  176.14100647    1.25000000    2.28999996
   12.37777805  188.60800171    1.25000000    2.26999998
   12.37888908  147.92500305    1.25000000    2.26999998
   12.38222218  164.62399292    1.25000000    2.26999998
   12.38555527  145.68299866    1.23000002    2.26999998
   12.38861084  166.88099670    1.23000002    2.28999996
   12.39194393  169.02099609    1.23000002    2.28999996
   12.39527798  150.76100159    1.23000002    2.28999996
   12.39833355  166.28399658    1.21000004    2.28999996
   12.40166664  148.14999390    1.21000004    2.28999996
   12.40472221  154.96000671    1.21000004    2.28999996
   12.40805531  140.66999817    1.19000006    2.28999996
   12.41111088  143.42599487    1.19000006    2.28999996
   12.41166592  144.05999756    1.19000006    2.28999996
   12.41499996  142.79299927    1.19000006    2.28999996
   12.41833401  143.40199280    1.19000006    2.28999996
   12.42138958  145.66799927    1.19000006    2.28999996
   12.42472267  140.20300293    1.19000006    2.30999994
   12.42805576  139.63499451    1.19000006    2.28999996
   12.43111134  142.32200623    1.19000006    2.28999996
   12.43444443  153.75999451    1.19000006    2.30999994
   12.43750000  146.06700134    1.19000006    2.30999994
   12.44083309  146.95500183    1.19000006    2.30999994
   12.44416714  153.42199707    1.19000006    2.30999994
   12.44444466  156.36799622    1.21000004    2.30999994
   12.44777775  149.17900085    1.21000004    2.30999994
   12.45111084  147.27900696    1.19000006    2.30999994
   12.45416641  148.59599304    1.21000004    2.30999994
   12.45749950  146.82400513    1.21000004    2.30999994
   12.46083355  144.48300171    1.21000004    2.30999994
   12.46388912  144.80099487    1.21000004    2.30999994
   12.46722221  150.13600159    1.19000006    2.30999994
   12.47027779  142.94900513    1.19000006    2.30999994
   12.47361088  142.58599854    1.19000006    2.30999994
   12.47694397  142.33500671    1.19000006    2.32999992
   12.47777748  140.89999390    1.19000006    2.30999994
   12.48027706  142.19299316    1.19000006    2.30999994
   12.48361111  143.36700439    1.19000006    2.32999992
   12.48666668  137.58700562    1.19000006    2.32999992
   12.49000072  146.89500427    1.19000006    2.32999992
   12.49333382  149.80799866    1.19000006    2.32999992
   12.49638939  149.33200073    1.19000006    2.30999994
   12.49972248  140.25199890    1.19000006    2.30999994
   12.50277805  142.23100281    1.16999996    2.32999992
   12.50611115  146.85299683    1.16999996    2.32999992
   12.50944424  149.91400146    1.16999996    2.32999992
   12.51138878  150.17900085    1.19000006    2.32999992
   12.51305580  138.69900513    1.19000006    2.32999992
   12.51638889  151.67399597    1.19000006    2.32999992
   12.51944447  142.74800110    1.16999996    2.32999992
   12.52277756  147.44599915    1.16999996    2.32999992
   12.52611065  148.66999817    1.16999996    2.32999992
   12.52916622  148.51199341    1.16999996    2.32999992
   12.53249931  151.87500000    1.16999996    2.32999992
   12.53583336  150.78100586    1.16999996    2.32999992
   12.53888893  155.55099487    1.14999998    2.32999992
   12.54222298  146.53300476    1.14999998    2.32999992
   12.54472256  152.52600098    1.14999998    2.32999992
   12.54583359  145.09500122    1.14999998    2.32999992
   12.54916668  146.68600464    1.14999998    2.32999992
   12.55222225  143.23500061    1.14999998    2.34999990
   12.55555534  150.54499817    1.14999998    2.34999990
   12.55888939  141.56900024    1.13000000    2.34999990
   12.56222248  147.10800171    1.13000000    2.34999990
   12.56527805  157.94700623    1.13000000    2.32999992
   12.56861115  150.32200623    1.11000001    2.34999990
   12.57194424  150.66600037    1.11000001    2.34999990
   12.57499981  146.07699585    1.11000001    2.34999990
   12.57805538  137.65899658    1.11000001    2.34999990
   12.57861137  140.78500366    1.11000001    2.34999990
   12.58194447  151.47399902    1.11000001    2.34999990
   12.58500004  141.27499390    1.09000003    2.34999990
   12.58833313  150.02000427    1.09000003    2.36999989
   12.59166622  150.38299561    1.09000003    2.36999989
   12.59472179  151.44599915    1.09000003    2.34999990
   12.59805489  149.97999573    1.09000003    2.36999989
   12.60138893  141.56100464    1.07000005    2.36999989
   12.60444450  147.00100708    1.07000005    2.36999989
   12.60777855  151.74600220    1.07000005    2.36999989
   12.61083412  149.68400574    1.07000005    2.36999989
   12.61138916  145.90100098    1.07000005    2.36999989
   12.61472225  143.12899780    1.07000005    2.36999989
   12.61805534  140.96499634    1.07000005    2.36999989
   12.62111092  145.72900391    1.07000005    2.36999989
   12.62444496  142.47099304    1.05999994    2.36999989
   12.62750053  149.23699951    1.05999994    2.36999989
   12.63083363  140.49899292    1.05999994    2.36999989
   12.63416672  143.95399475    1.05999994    2.36999989
   12.63722229  141.54499817    1.05999994    2.36999989
   12.64055538  151.24099731    1.05999994    2.36999989
   12.64388847  146.71400452    1.05999994    2.36999989
   12.66083336  143.81300354    1.05999994    2.36999989
   12.66388893  140.61300659    1.05999994    2.36999989
   12.66694450  143.29800415    1.05999994    2.39000010
   12.67027855  136.42900085    1.05999994    2.36999989
   12.67361164  142.75000000    1.09000003    2.39000010
   12.67666721  150.39700317    1.11000001    2.39000010
   12.68000031  138.58599854    1.09000003    2.39000010
   12.68333340  146.11000061    1.09000003    2.39000010
   12.68638897  136.96299744    1.09000003    2.39000010
   12.68972206  135.76199341    1.07000005    2.39000010
   12.69277763  138.52499390    1.05999994    2.39000010
   12.69416714  145.07400513    1.05999994    2.39000010
   12.69638920  137.69799805    1.05999994    2.39000010
   12.69972229  138.97200012    1.05999994    2.39000010
   12.70305538  139.98100281    1.05999994    2.39000010
   12.70611095  137.64999390    1.05999994    2.39000010
   12.70944405  135.18400574    1.05999994    2.39000010
   12.71249962  141.77099609    1.05999994    2.36999989
   12.71583271  140.68600464    1.05999994    2.36999989
   12.71916580  144.70500183    1.03999996    2.39000010
   12.72222137  138.67900085    1.03999996    2.40000010
   12.72555542  139.93899536    1.03999996    2.40000010
   12.72749996  146.32699585    1.03999996    2.40000010
   12.72916603  141.39399719    1.03999996    2.40000010
   12.73222160  146.27499390    1.03999996    2.40000010
   12.73555565  136.00100708    1.01999998    2.40000010
   12.73861122  145.31300354    1.01999998    2.40000010
   12.74194431  142.63099670    1.01999998    2.40000010
   12.74527836  147.80000305    1.01999998    2.42000008
   12.74833393  144.09800720    1.03999996    2.42000008
   12.75166702  143.00300598    1.13000000    2.42000008
   12.75500011  146.89599609    1.34000003    2.42000008
   12.75805569  143.65800476    2.17000008    2.42000008
   12.76083374  145.84199524    2.86999989    2.40000010
   12.76194477  146.66000366    3.03999996    2.44000006
   12.76500034  146.63699341    3.68000007    2.44000006
   12.76833344  155.36900330    4.44999981    2.44000006
   12.77138901  137.05999756    4.90999985    2.42000008
   12.77472210  146.51499939    4.90999985    2.44000006
   12.77805519  143.47999573    4.90999985    2.46000004
   12.78111076  154.86799622    4.90999985    2.44000006
   12.78444481  139.85899353    4.90999985    2.39000010
   12.78777790  150.74899292    4.90999985    2.39000010
   12.79083347  162.64500427    4.90999985    2.36999989
   12.79416752  164.34899902    4.90999985    2.25000000
   12.79472256  172.54400635    4.90999985    2.25000000
   12.79777813  182.78599548    4.90999985    2.21000004
   12.80111122  174.41299438    4.90999985    2.25000000
   12.80416679  175.66900635    4.90999985    2.26999998
   12.80749989  183.58599854    4.90999985    2.25000000
   12.81083393  334.71099854    4.90999985    2.09999990
   12.81416702  106.31500244    4.90999985    1.83000004
   12.81722260  130.41400146    4.90999985    1.71000004
   12.82055569  206.88699341    4.90999985    1.69000006
   12.82361126  196.43800354    4.90999985    1.76999998
   12.82694435   -1.00000000    4.90999985    1.63000000
   12.83027744   -1.00000000    4.90999985    1.36000001
   12.83361053   -1.00000000    4.90999985    1.30999994
   12.83694458   -1.00000000    4.90999985    1.05999994
   12.84000015   -1.00000000    4.90999985    0.89999998
   12.84333324   -1.00000000    4.90999985    0.75000000
   12.84666634   -1.00000000    4.90999985    0.70999998
   12.84972191   -1.00000000    4.90999985    0.67000002
   12.85305595   -1.00000000    4.90999985    0.47999999
   12.85611153   -1.00000000    4.90999985    0.58999997
   12.85944462   -1.00000000    4.90999985    0.58999997
   12.86277771   -1.00000000    4.90999985    0.44000000
   12.86611176   -1.00000000    4.90999985    0.31999999
   12.86944485   -1.00000000    4.90999985    0.28000000
   12.87250042   -1.00000000    4.90999985    0.25000000
   12.87583351   -1.00000000    4.90999985    0.23000000
   12.87916660   -1.00000000    4.90999985    0.25000000
   12.88222218   -1.00000000    4.90999985    0.28000000
   12.88555527   -1.00000000    4.90999985    0.31999999
   12.88861084   -1.00000000    4.90999985    0.28000000
   12.89194393   -1.00000000    4.90999985    0.23000000
   12.89527798   -1.00000000    4.90999985    0.20999999
   12.89861107   -1.00000000    4.90999985    0.20999999
   12.90194416   -1.00000000    4.90999985    0.15000001
   12.90499973   -1.00000000    4.90999985    0.13000000
   12.90833282   -1.00000000    4.90999985    0.13000000
   12.91166592   -1.00000000    4.90999985    0.13000000
   12.91472149   -1.00000000    4.90999985    0.13000000
   12.91805553   -1.00000000    4.90999985    0.15000001
   12.92111111   -1.00000000    4.90999985    0.15000001
   12.92444515   -1.00000000    4.90999985    0.13000000
   12.92777824   -1.00000000    4.90999985    0.11000000
   12.93111134   -1.00000000    4.90999985    0.09000000
   12.93444443   -1.00000000    4.90999985    0.09000000
   12.93750000   -1.00000000    4.90999985    0.09000000
   12.94083309   -1.00000000    4.90999985    0.09000000
   12.94416714   -1.00000000    4.90999985    0.09000000
   12.94722271   -1.00000000    4.90999985    0.11000000
   12.95055580   -1.00000000    4.90999985    0.13000000
   12.95361137   -1.00000000    4.90999985    0.19000000
   12.95694447   -1.00000000    4.90999985    0.25999999
   12.96027756   -1.00000000    4.90999985    0.28000000
   12.96388912   -1.00000000    4.90999985    0.28000000
   12.96694374   -1.00000000    4.90999985    0.25000000
   12.97027779   -1.00000000    4.90999985    0.25999999
   12.97333336   -1.00000000    4.90999985    0.31999999
   12.97666645   -1.00000000    4.90999985    0.40000001
   12.97999954   -1.00000000    4.90999985    0.46000001
   12.98305511   -1.00000000    4.90999985    0.44000000
   12.98638916   -1.00000000    4.90999985    0.40000001
   12.98972225   -1.00000000    4.90999985    0.30000001
   12.99277782   -1.00000000    4.90999985    0.30000001
   12.99638939   -1.00000000    4.90999985    0.30000001
   12.99944496   -1.00000000    4.90999985    0.30000001
   13.00277805   -1.00000000    4.90999985    0.36000001
   13.00583363   -1.00000000    4.90999985    0.31999999
   13.00916672   -1.00000000    4.90999985    0.31999999
   13.01249981   -1.00000000    4.90999985    0.34000000
   13.01555538   -1.00000000    4.90999985    0.38000000
   13.01888847   -1.00000000    4.90999985    0.51999998
   13.02222157   -1.00000000    4.90999985    0.56999999
   13.02527714   -1.00000000    4.90999985    0.55000001
   13.02888870   -1.00000000    4.90999985    0.58999997
   13.03194427   -1.00000000    4.90999985    0.61000001
   13.03527832   -1.00000000    4.90999985    0.69000000
   13.03833389   -1.00000000    4.90999985    0.94000000
   13.04166698  135.89999390    4.90999985    1.51999998
   13.04500008   47.81710052    4.90999985    1.66999996
   13.04805565  290.94900513    4.90999985    1.60000002
   13.05138874  178.16999817    4.90999985    2.13000011
   13.05472279  258.93798828    4.90999985    2.17000008
   13.05777836  157.76300049    4.90999985    1.94000006
   13.06083393  150.74899292    4.90999985    2.23000002
   13.06138897  144.88000488    4.90999985    2.23000002
   13.06444454  145.21200562    4.90999985    2.44000006
   13.06777763  143.08900452    4.90999985    2.51999998
   13.07111073  149.08999634    4.90999985    2.51999998
   13.07416630  144.53199768    4.90999985    2.48000002
   13.07750034  145.12300110    4.65999985    2.48000002
   13.08055592  139.13999939    3.11999989    2.50000000
   13.08388901  138.29499817    1.76999998    2.48000002
   13.08722210  149.01199341    1.78999996    2.51999998
   13.09027767  152.13000488    1.60000002    2.51999998
   13.09361076  139.72500610    1.23000002    2.51999998
   13.09416676  146.20599365    1.21000004    2.50000000
   13.09722233  146.32600403    1.16999996    2.51999998
   13.10027790  138.14599609    1.14999998    2.51999998
   13.10361195  141.19500732    1.11000001    2.51999998
   13.10694504  142.21600342    1.09000003    2.51999998
   13.11000061  151.72599792    1.07000005    2.51999998
   13.11333370  149.63900757    1.07000005    2.51999998
   13.11666679  145.53599548    1.07000005    2.51999998
   13.11972237  154.85800171    1.14999998    2.51999998
   13.12305546  146.44500732    1.33000004    2.53999996
   13.12611103  148.46899414    1.63000000    2.51999998
   13.12750053  147.46699524    1.78999996    2.51999998
   13.13000011  143.44299316    2.00000000    2.51999998
   13.13333321  139.49499512    2.30999994    2.53999996
   13.13638878  146.45399475    2.67000008    2.53999996
   13.13972187  144.07800293    3.25000000    2.50000000
   13.14277744  128.85000610    4.61999989    2.42000008
   13.14611053  137.33999634    4.90999985    2.48000002
   13.14944458  135.53700256    4.90999985    2.51999998
   13.15249920  133.22500610    4.90999985    2.55999994
   13.15583324  179.21499634    4.90999985    2.51999998
   13.15916634  130.87300110    4.90999985    2.32999992
   13.16083336  175.88600159    4.90999985    2.32999992
   13.16277695  127.18599701    4.90999985    2.32999992
   13.16583252  135.27799988    4.90999985    2.01999998
   13.16916656   -1.00000000    4.90999985    1.39999998
   13.17250061   98.94200134    4.90999985    1.41999996
   13.17555618  137.56300354    4.90999985    1.78999996
   13.17888927  114.48999786    4.90999985    2.40000010
   13.18222237  149.39799500    4.90999985    2.44000006
   13.18527794  163.46800232    4.90999985    1.63000000
   13.18861103  163.27099609    4.90999985    1.61000001
   13.19166660  183.28100586    4.90999985    1.66999996
   13.19416714  161.91099548    4.90999985    2.05999994
   13.19555569  182.88600159    4.90999985    2.17000008
   13.19861126  279.58700562    4.90999985    2.21000004
   13.20194435  229.55000305    4.90999985    1.78999996
   13.20527744  171.61000061    4.90999985    2.01999998
   13.20833302  213.80400085    4.90999985    1.75000000
   13.21166611  331.18899536    4.90999985    1.61000001
   13.21500015  156.27000427    4.90999985    1.60000002
   13.21805477   -1.00000000    4.90999985    1.33000004
   13.22138882  196.71699524    4.90999985    1.05999994
   13.22444439  160.28900146    4.90999985    1.98000002
   13.22749996  183.49600220    4.90999985    2.39000010
   13.22833252  188.17300415    4.90999985    2.32999992
   13.23138809   -1.00000000    4.90999985    1.76999998
   13.23472214   -1.00000000    4.90999985    1.34000003
   13.23805618   -1.00000000    4.90999985    1.25000000
   13.24111176   -1.00000000    4.90999985    0.98000002
   13.24444485   -1.00000000    4.90999985    1.19000006
   13.24750042   -1.00000000    4.90999985    1.39999998
   13.25083351   -1.00000000    4.90999985    1.36000001
   13.25416660   -1.00000000    4.90999985    1.00000000
   13.25722218   -1.00000000    4.90999985    0.75000000
   13.26055527   -1.00000000    4.90999985    0.63000000
   13.26388931   -1.00000000    4.90999985    0.50000000
   13.26722240   -1.00000000    4.90999985    0.64999998
   13.27027798   -1.00000000    4.90999985    1.01999998
   13.27361107   -1.00000000    4.90999985    1.38000000
   13.27694416   -1.00000000    4.90999985    1.19000006
   13.27999973   -1.00000000    4.90999985    0.98000002
   13.28333378   -1.00000000    4.90999985    0.69000000
   13.28666687   -1.00000000    4.90999985    0.58999997
   13.28972244   -1.00000000    4.90999985    0.76999998
   13.29305553   -1.00000000    4.90999985    0.70999998
   13.29638958   -1.00000000    4.90999985    0.63000000
   13.29972267   -1.00000000    4.90999985    0.51999998
   13.30277824   -1.00000000    4.90999985    0.41999999
   13.30611134   -1.00000000    4.90999985    0.34000000
   13.30944443   -1.00000000    4.90999985    0.30000001
   13.31250000   -1.00000000    4.90999985    0.28000000
   13.31583309   -1.00000000    4.90999985    0.28000000
   13.31916618   -1.00000000    4.90999985    0.25999999
   13.32222176   -1.00000000    4.90999985    0.25000000
   13.32555580   -1.00000000    4.90999985    0.23000000
   13.32888889   -1.00000000    4.90999985    0.23000000
   13.33222198   -1.00000000    4.90999985    0.19000000
   13.33527756   -1.00000000    4.90999985    0.15000001
   13.33861065   -1.00000000    4.90999985    0.13000000
   13.34194374   -1.00000000    4.90999985    0.11000000
   13.34499931   -1.00000000    4.90999985    0.11000000
   13.34833336   -1.00000000    4.90999985    0.09000000
   13.35166740   -1.00000000    4.90999985    0.09000000
   13.35472298   -1.00000000    4.90999985    0.11000000
   13.35805607   -1.00000000    4.90999985    0.13000000
   13.36138916   -1.00000000    4.90999985    0.13000000
   13.36472225   -1.00000000    4.90999985    0.15000001
   13.36777782   -1.00000000    4.90999985    0.17000000
   13.37111092   -1.00000000    4.90999985    0.15000001
   13.37444496   -1.00000000    4.90999985    0.15000001
   13.37750053   -1.00000000    4.90999985    0.17000000
   13.38083363   -1.00000000    4.90999985    0.17000000
   13.38388920   -1.00000000    4.90999985    0.19000000
   13.38722229   -1.00000000    4.90999985    0.19000000
   13.39055538   -1.00000000    4.90999985    0.19000000
   13.39361095   -1.00000000    4.90999985    0.17000000
   13.39722252   -1.00000000    4.90999985    0.20999999
   13.40055561   -1.00000000    4.90999985    0.25999999
   13.40361118   -1.00000000    4.90999985    0.25000000
   13.40694427   -1.00000000    4.90999985    0.25000000
   13.41027737   -1.00000000    4.90999985    0.23000000
   13.41333294   -1.00000000    4.90999985    0.20999999
   13.41666698   -1.00000000    4.90999985    0.19000000
   13.42000008   -1.00000000    4.90999985    0.19000000
   13.42305565   -1.00000000    4.90999985    0.19000000
   13.42638874   -1.00000000    4.90999985    0.19000000
   13.42972279   -1.00000000    4.90999985    0.19000000
   13.43305588   -1.00000000    4.90999985    0.17000000
   13.43611145   -1.00000000    4.90999985    0.17000000
   13.43944454   -1.00000000    4.90999985    0.15000001
   13.44277763   -1.00000000    4.90999985    0.15000001
   13.44583321   -1.00000000    4.90999985    0.13000000
   13.44916630   -1.00000000    4.90999985    0.13000000
   13.45249939   -1.00000000    4.90999985    0.15000001
   13.45555496   -1.00000000    4.90999985    0.17000000
   13.45888901   -1.00000000    4.90999985    0.20999999
   13.46222210   -1.00000000    4.90999985    0.25999999
   13.46555519   -1.00000000    4.90999985    0.28000000
   13.46861076   -1.00000000    4.90999985    0.25000000
   13.47194386   -1.00000000    4.90999985    0.25000000
   13.47527695   -1.00000000    4.90999985    0.25999999
   13.47833252   -1.00000000    4.90999985    0.31999999
   13.48166656   -1.00000000    4.90999985    0.40000001
   13.48500061   -1.00000000    4.90999985    0.38000000
   13.48805618   -1.00000000    4.90999985    0.28000000
   13.49138927   -1.00000000    4.90999985    0.25000000
   13.49472237   -1.00000000    4.90999985    0.25000000
   13.49805546   -1.00000000    4.90999985    0.25999999
   13.50111103   -1.00000000    4.90999985    0.38000000
   13.50444412   -1.00000000    4.90999985    0.46000001
   13.50777817   -1.00000000    4.90999985    0.51999998
   13.51083374   -1.00000000    4.90999985    0.52999997
   13.51416683   -1.00000000    4.90999985    0.47999999
   13.51749992   -1.00000000    4.90999985    0.50000000
   13.52055550   -1.00000000    4.90999985    0.51999998
   13.52388859   -1.00000000    4.90999985    0.61000001
   13.52694416   -1.00000000    4.90999985    0.63000000
   13.53055573   -1.00000000    4.90999985    0.56999999
   13.53388977   -1.00000000    4.90999985    0.55000001
   13.53722286   -1.00000000    4.90999985    0.61000001
   13.54027843   -1.00000000    4.90999985    0.61000001
   13.54361153   -1.00000000    4.90999985    0.63000000
   13.54666710   -1.00000000    4.90999985    0.63000000
   13.55000019   -1.00000000    4.90999985    0.67000002
   13.55333328   -1.00000000    4.90999985    0.76999998
   13.55638885   -1.00000000    4.90999985    0.86000001
   13.55972195   -1.00000000    4.90999985    0.98000002
   13.56305599   -1.00000000    4.90999985    1.11000001
   13.56638908   -1.00000000    4.90999985    1.23000002
   13.56972218   -1.00000000    4.90999985    1.28999996
   13.57277775   -1.00000000    4.90999985    1.30999994
   13.57611084   37.47529984    4.90999985    1.39999998
   13.57916641  265.24499512    4.90999985    1.64999998
   13.58249950  155.05999756    4.90999985    2.03999996
   13.58583260  160.98599243    4.90999985    2.28999996
   13.58888817  152.25900269    4.90999985    2.28999996
   13.59222221  163.53799438    4.90999985    2.34999990
   13.59444427  167.22399902    4.90999985    2.30999994
   13.59555531  160.09500122    4.90999985    2.30999994
   13.59888840  159.64599609    4.90999985    2.36999989
   13.60222244  164.84100342    4.90999985    2.36999989
   13.60527802  181.31799316    4.90999985    2.42000008
   13.60861111  158.29200745    4.90999985    2.42000008
   13.61194515  167.31199646    4.90999985    2.48000002
   13.61500072  152.96099854    4.90999985    2.53999996
   13.61833382  146.69599915    4.36999989    2.55999994
   13.62138939  143.37100220    3.78999996    2.55999994
   13.62472248  155.65100098    3.34999990    2.55999994
   13.62777805  145.86900330    3.03999996    2.55999994
   13.62833309  152.07200623    2.96000004    2.55999994
   13.63166714  142.09599304    2.89000010    2.55999994
   13.63500023  139.95300293    2.93000007    2.53999996
   13.63833332  149.93800354    3.07999992    2.55999994
   13.64138889  139.85299683    3.16000009    2.53999996
   13.64472198  135.32200623    3.01999998    2.53999996
   13.64805508  136.01100159    2.80999994    2.51999998
   13.65111065  137.50900269    2.57999992    2.53999996
   13.65444374  137.45899963    2.23000002    2.53999996
   13.65749931  134.28999329    2.00000000    2.55999994
   13.66083336  134.15400696    1.78999996    2.57999992
   13.67777824  133.09800720    0.83999997    2.57999992
   13.68111134  130.56900024    0.76999998    2.57999992
   13.68416691  133.49200439    0.73000002    2.55999994
   13.68750000  135.07800293    0.73000002    2.57999992
   13.69083309  125.55000305    0.70999998    2.55999994
   13.69388866  133.18299866    0.70999998    2.55999994
   13.69722271  130.76800537    0.70999998    2.57999992
   13.70055580  130.45599365    0.70999998    2.57999992
   13.70361137  130.84899902    0.70999998    2.57999992
   13.70694447  139.71600342    0.70999998    2.57999992
   13.71000004  131.79800415    0.69000000    2.57999992
   13.71111107  128.90199280    0.69000000    2.57999992
   13.71361065  129.41499329    0.69000000    2.57999992
   13.71694374  135.38999939    0.69000000    2.57999992
   13.72027779  134.32400513    0.69000000    2.57999992
   13.72333336  135.19200134    0.69000000    2.57999992
   13.72666645  137.42300415    0.69000000    2.57999992
   13.72999954  137.15899658    0.69000000    2.57999992
   13.73305511  137.96099854    0.67000002    2.57999992
   13.73638916  142.98199463    0.67000002    2.57999992
   13.73972225  140.67999268    0.67000002    2.57999992
   13.74277782  138.34800720    0.67000002    2.57999992
   13.74444485  134.69500732    0.67000002    2.57999992
   13.74638939  143.45799255    0.67000002    2.57999992
   13.74972248  140.39199829    0.64999998    2.57999992
   13.75305557  137.62300110    0.64999998    2.57999992
   13.75611115  139.76699829    0.64999998    2.57999992
   13.75944424  137.99899292    0.64999998    2.55999994
   13.76277733  132.30499268    0.64999998    2.57999992
   13.76583290  131.52200317    0.63000000    2.57999992
   13.76916599  138.27999878    0.63000000    2.57999992
   13.77222157  136.16999817    0.63000000    2.57999992
   13.77555561  135.34800720    0.63000000    2.57999992
   13.77777767  134.41200256    0.63000000    2.57999992
   13.77944374  154.58599854    0.63000000    2.57999992
   13.78249931  140.47799683    0.63000000    2.57999992
   13.78583336  142.40699768    0.63000000    2.57999992
   13.78888893  139.86300659    0.61000001    2.57999992
   13.79222298  138.08799744    0.61000001    2.57999992
   13.79555607  137.78799438    0.61000001    2.59999990
   13.79861164  136.63400269    0.61000001    2.59999990
   13.80194473  131.20500183    0.61000001    2.59999990
   13.80527782  138.82000732    0.61000001    2.59999990
   13.80833340  136.40899658    0.61000001    2.59999990
   13.81111145  143.15499878    0.58999997    2.59999990
   13.81222248  138.31100464    0.58999997    2.59999990
   13.81527805  135.08799744    0.58999997    2.59999990
   13.81861115  149.29899597    0.58999997    2.59999990
   13.82166672  134.10000610    0.58999997    2.59999990
   13.82499981  144.04600525    0.58999997    2.59999990
   13.82833290  139.84500122    0.58999997    2.59999990
   13.83138847  138.13499451    0.58999997    2.57999992
   13.83472157  132.96899414    0.56999999    2.59999990
   13.83805561  144.19500732    0.56999999    2.59999990
   13.84111118  130.10800171    0.56999999    2.59999990
   13.84444427  130.55799866    0.56999999    2.59999990
   13.84499931  138.08399963    0.56999999    2.59999990
   13.84805489  136.41900635    0.56999999    2.59999990
   13.85138893  138.44500732    0.55000001    2.59999990
   13.85444450  139.29699707    0.56999999    2.59999990
   13.85777855  131.31199646    0.56999999    2.59999990
   13.86111164  131.95799255    0.55000001    2.59999990
   13.86416721  141.68699646    0.56999999    2.59999990
   13.86750031  139.55599976    0.56999999    2.59999990
   13.87083340  132.86099243    0.56999999    2.59999990
   13.87388897  134.46800232    0.56999999    2.59999990
   13.87722206  144.75599670    0.56999999    2.59999990
   13.87777805  130.45199585    0.56999999    2.59999990
   13.88083363  133.56199646    0.56999999    2.59999990
   13.88388920  135.37800598    0.56999999    2.59999990
   13.88722229  136.03300476    0.56999999    2.59999990
   13.89027786  136.12699890    0.56999999    2.59999990
   13.89361095  135.14399719    0.56999999    2.59999990
   13.89694405  136.90499878    0.56999999    2.59999990
   13.89999962  136.38699341    0.56999999    2.59999990
   13.90333271  128.99699402    0.56999999    2.59999990
   13.90666676  134.28900146    0.56999999    2.59999990
   13.90972137  129.57499695    0.56999999    2.59999990
   13.91111088  129.06100464    0.56999999    2.59999990
   13.91361046  133.60200500    0.58999997    2.59999990
   13.91666698  129.38600159    0.58999997    2.59999990
   13.92000008  127.23999786    0.58999997    2.59999990
   13.92305565  132.55999756    0.58999997    2.59999990
   13.92638874  133.96000671    0.58999997    2.59999990
   13.92972279  128.60600281    0.58999997    2.59999990
   13.93277836  126.14800262    0.58999997    2.59999990
   13.93611145  132.72200012    0.58999997    2.59999990
   13.93944454  128.02200317    0.58999997    2.59999990
   13.94250011  132.79699707    0.61000001    2.59999990
   13.94444466  132.48100281    0.61000001    2.59999990
   13.94638920  134.84399414    0.61000001    2.59999990
   13.94944477  128.86900330    0.61000001    2.59999990
   13.95277786  126.01699829    0.61000001    2.59999990
   13.95583344  139.17900085    0.61000001    2.59999990
   13.95944405  137.76499939    0.61000001    2.59999990
   13.96249962  135.60600281    0.61000001    2.59999990
   13.96583271  130.66099548    0.61000001    2.59999990
   13.96888828  133.17100525    0.61000001    2.59999990
   13.97222137  133.82899475    0.61000001    2.59999990
   13.97555542  138.79299927    0.61000001    2.59999990
   13.97777748  129.85400391    0.61000001    2.61999989
   13.97916603  135.72999573    0.61000001    2.61999989
   13.98249912  130.78399658    0.61000001    2.61999989
   13.98555565  133.73899841    0.61000001    2.59999990
   13.98888874  134.66700745    0.61000001    2.59999990
   13.99194431  135.64799500    0.61000001    2.59999990
   13.99527836  133.35699463    0.58999997    2.61999989
   13.99861145  132.85400391    0.58999997    2.61999989
   14.00166702  134.38499451    0.58999997    2.61999989
   14.00500011  129.63800049    0.56999999    2.59999990
   14.00833321  131.65800476    0.55000001    2.61999989
   14.01111126  136.16999817    0.52999997    2.61999989
   14.01194477  136.28199768    0.52999997    2.61999989
   14.01500034  132.27600098    0.52999997    2.61999989
   14.01833344  136.56700134    0.51999998    2.61999989
   14.02138901  131.27999878    0.51999998    2.61999989
   14.02472210  126.74900055    0.51999998    2.61999989
   14.02805519  125.12899780    0.51999998    2.61999989
   14.03111076  131.62699890    0.51999998    2.64000010
   14.03444481  133.00100708    0.51999998    2.59999990
   14.03777790  134.40400696    0.50000000    2.61999989
   14.04083347  135.79200745    0.50000000    2.61999989
   14.04416752  139.04600525    0.50000000    2.61999989
   14.04472256  137.30599976    0.50000000    2.61999989
   14.04777813  135.28900146    0.50000000    2.61999989
   14.05111122  136.09199524    0.50000000    2.61999989
   14.05444431  135.50100708    0.50000000    2.61999989
   14.05749989  133.02400208    0.50000000    2.61999989
   14.06083393  126.22899628    0.50000000    2.61999989
   14.06416702  132.01899719    0.50000000    2.61999989
   14.06722260  133.45500183    0.50000000    2.61999989
   14.07055569  135.63400269    0.50000000    2.61999989
   14.07361126  134.05400085    0.50000000    2.61999989
   14.07694435  129.16299438    0.51999998    2.61999989
   14.07805538  121.31099701    0.51999998    2.61999989
   14.08055592  129.91900635    0.51999998    2.61999989
   14.08388901  128.34300232    0.50000000    2.61999989
   14.08722210  128.69900513    0.50000000    2.61999989
   14.09027767  131.43899536    0.50000000    2.61999989
   14.09361076  135.82099915    0.51999998    2.61999989
   14.09694386  137.98500061    0.51999998    2.61999989
   14.10000038  134.41299438    0.50000000    2.61999989
   14.10333347  132.42500305    0.50000000    2.59999990
   14.10666752  121.68000031    0.50000000    2.61999989
   14.10972214  135.05099487    0.50000000    2.61999989
   14.11138916  137.91499329    0.50000000    2.61999989
   14.11361122  128.71499634    0.50000000    2.61999989
   14.11666679  132.43499756    0.50000000    2.61999989
   14.11999989  137.89999390    0.50000000    2.61999989
   14.12305546  133.76300049    0.50000000    2.61999989
   14.12638855  133.86199951    0.50000000    2.64000010
   14.12972260  136.17799377    0.50000000    2.64000010
   14.13277817  132.44900513    0.50000000    2.61999989
   14.13611126  133.35699463    0.50000000    2.64000010
   14.13944435  131.81199646    0.50000000    2.61999989
   14.14249992  130.09100342    0.50000000    2.61999989
   14.14472198  127.71499634    0.50000000    2.61999989
   14.14611053  135.68400574    0.50000000    2.61999989
   14.14944458  141.57099915    0.50000000    2.61999989
   14.15277767  131.52799988    0.50000000    2.61999989
   14.15583324  135.29299927    0.51999998    2.64000010
   14.15916634  133.52999878    0.51999998    2.64000010
   14.16249943  122.48899841    0.51999998    2.64000010
   14.16555500  130.11300659    0.51999998    2.61999989
   14.16888905  146.54699707    0.52999997    2.64000010
   14.17194462  133.33299255    0.55000001    2.64000010
   14.17527771  131.28999329    0.55000001    2.64000010
   14.17805576  129.88400269    0.56999999    2.61999989
   14.17888927  128.89700317    0.55000001    2.61999989
   14.18222237  133.47500610    0.55000001    2.64000010
   14.18555546  130.92599487    0.55000001    2.64000010
   14.18861103  140.57899475    0.55000001    2.64000010
   14.19194412  135.71600342    0.55000001    2.64000010
   14.19527817  130.23500061    0.51999998    2.64000010
   14.19833374  130.53799438    0.50000000    2.64000010
   14.20166683  129.46299744    0.50000000    2.64000010
   14.20472240  140.35800171    0.50000000    2.61999989
   14.20805550  133.00399780    0.50000000    2.64000010
   14.21138859  135.21400452    0.50000000    2.64000010
   14.21166611  122.66600037    0.50000000    2.64000010
   14.21500015  121.37100220    0.50000000    2.61999989
   14.21833324  135.34800720    0.50000000    2.64000010
   14.22138882  139.41200256    0.50000000    2.64000010
   14.22472191  134.59399414    0.50000000    2.64000010
   14.22805500  135.93400574    0.50000000    2.64000010
   14.23138809  133.63000488    0.47999999    2.64000010
   14.23444462  130.35400391    0.47999999    2.66000009
   14.23777771  136.53399658    0.47999999    2.64000010
   14.24083328  132.39500427    0.47999999    2.64000010
   14.24416733  131.68800354    0.47999999    2.64000010
   14.24472237  141.53399658    0.47999999    2.64000010
   14.24777794  137.47799683    0.50000000    2.64000010
   14.25083351  137.89399719    0.52999997    2.64000010
   14.25416660  139.68600464    0.52999997    2.64000010
   14.25722218  144.33399963    0.56999999    2.64000010
   14.26055527  133.25599670    0.56999999    2.64000010
   14.26388931  136.40100098    0.58999997    2.64000010
   14.26694393  140.24600220    0.55000001    2.64000010
   14.27027798  133.77799988    0.51999998    2.64000010
   14.27361107  132.38800049    0.50000000    2.64000010
   14.27666664  133.76400757    0.50000000    2.64000010
   14.27805519  137.23699951    0.50000000    2.64000010
   14.28055573  142.29200745    0.50000000    2.64000010
   14.28361130  135.98300171    0.50000000    2.64000010
   14.28694534  138.33599854    0.50000000    2.64000010
   14.29000092  131.95100403    0.47999999    2.64000010
   14.29333401  135.34399414    0.47999999    2.64000010
   14.29666710  139.16400146    0.47999999    2.66000009
   14.29972267  135.60699463    0.47999999    2.66000009
   14.30305576  129.79600525    0.46000001    2.66000009
   14.30638885  143.18099976    0.46000001    2.66000009
   14.30944443  129.44999695    0.46000001    2.64000010
   14.31138897  127.12500000    0.46000001    2.64000010
   14.31333351  133.14799500    0.44000000    2.64000010
   14.31638908  134.83099365    0.44000000    2.66000009
   14.31972218  137.78300476    0.44000000    2.64000010
   14.32305527  138.84199524    0.44000000    2.64000010
   14.32611084  139.09700012    0.44000000    2.64000010
   14.32944393  137.88600159    0.44000000    2.66000009
   14.33277798  144.34300232    0.44000000    2.64000010
   14.33583260  143.68699646    0.44000000    2.64000010
   14.33916664  137.20899963    0.44000000    2.64000010
   14.34222221  137.09899902    0.44000000    2.64000010
   14.34472179  138.80799866    0.44000000    2.64000010
   14.34611034  135.98100281    0.44000000    2.64000010
   14.34916592  135.90800476    0.44000000    2.64000010
   14.35249996  137.24800110    0.44000000    2.64000010
   14.35555553  132.09199524    0.44000000    2.66000009
   14.35888958  133.06799316    0.46000001    2.64000010
   14.36222267  132.79899597    0.46000001    2.64000010
   14.36527824  133.95799255    0.44000000    2.66000009
   14.36861134  138.48100281    0.44000000    2.64000010
   14.37194443  139.39700317    0.44000000    2.64000010
   14.37500000  136.80999756    0.44000000    2.66000009
   14.37805557  135.38499451    0.44000000    2.64000010
   14.37861156  133.74200439    0.44000000    2.64000010
   14.38194466  141.87899780    0.44000000    2.64000010
   14.38527775  133.16900635    0.44000000    2.64000010
   14.38833332  138.90299988    0.44000000    2.64000010
   14.39166641  145.71899414    0.46000001    2.64000010
   14.39499950  139.33299255    0.46000001    2.64000010
   14.39805508  138.32400513    0.47999999    2.64000010
   14.40138817  139.65800476    0.46000001    2.64000010
   14.40472221  137.50999451    0.46000001    2.66000009
   14.40777779  132.32099915    0.46000001    2.66000009
   14.41111088  139.04499817    0.46000001    2.66000009
   14.41166592  134.28700256    0.46000001    2.66000009
   14.41472149  138.94000244    0.46000001    2.66000009
   14.41805553  135.91000366    0.46000001    2.66000009
   14.42138958  135.28999329    0.46000001    2.64000010
   14.42444515  136.78599548    0.46000001    2.64000010
   14.42777824  145.96699524    0.46000001    2.66000009
   14.43111134  139.76800537    0.46000001    2.67000008
   14.43416691  146.82099915    0.46000001    2.61999989
   14.43750000  135.82800293    0.46000001    2.66000009
   14.44055557  137.80799866    0.44000000    2.66000009
   14.44388866  124.89700317    0.44000000    2.64000010
   14.44499969  137.53300476    0.44000000    2.64000010
   14.44750023  129.67199707    0.44000000    2.64000010
   14.45083332  134.16900635    0.44000000    2.66000009
   14.45416641  134.86599731    0.44000000    2.66000009
   14.45722198  141.84599304    0.44000000    2.66000009
   14.46055508  137.88800049    0.44000000    2.66000009
   14.46388912  140.05700684    0.46000001    2.64000010
   14.46694374  140.98300171    0.46000001    2.66000009
   14.47027779  140.11900330    0.46000001    2.66000009
   14.47361088  137.46899414    0.46000001    2.66000009
   14.47694397  140.63400269    0.46000001    2.66000009
   14.47833252  140.03300476    0.46000001    2.66000009
   14.48027706  136.75000000    0.46000001    2.66000009
   14.48361111  137.35099792    0.47999999    2.66000009
   14.48694515  140.73800659    0.47999999    2.66000009
   14.49000072  135.68299866    0.47999999    2.66000009
   14.49333382  134.21899414    0.47999999    2.66000009
   14.49666691  142.17900085    0.47999999    2.66000009
   14.49972248  137.59300232    0.47999999    2.66000009
   14.50305557  141.99899292    0.47999999    2.67000008
   14.50611115  140.88099670    0.50000000    2.66000009
   14.50944424  140.72700500    0.64999998    2.66000009
   14.51166630  139.09199524    0.64999998    2.66000009
   14.51305580  138.55099487    0.86000001    2.64000010
   14.51638889  141.04400635    0.88000000    2.64000010
   14.51972198  140.78999329    0.86000001    2.64000010
   14.52277756  148.99400330    0.86000001    2.64000010
   14.52611065  141.10099792    0.61000001    2.66000009
   14.52944374  140.50000000    0.58999997    2.66000009
   14.53249931  128.26899719    0.58999997    2.64000010
   14.53583336  125.65299988    0.47999999    2.66000009
   14.53888893  133.45700073    0.47999999    2.67000008
   14.54222298  137.51600647    0.47999999    2.66000009
   14.54500008  133.58999634    0.47999999    2.66000009
   14.54583359  142.02099609    0.50000000    2.66000009
   14.54916668  134.35699463    0.50000000    2.66000009
   14.55249977  135.36199951    0.55000001    2.67000008
   14.55555534  138.87699890    0.61000001    2.66000009
   14.55888939  140.62199402    0.67000002    2.66000009
   14.56222248  139.75700378    1.88000000    2.66000009
   14.56555557  139.07299805    2.17000008    2.66000009
   14.56861115  146.86099243    3.73000002    2.64000010
   14.57194424  137.60400391    4.90999985    2.59999990
   14.57499981  156.64599609    4.90999985    2.48000002
   14.57833290  148.32499695    4.90999985    2.48000002
   14.57861137  141.05799866    4.90999985    2.48000002
   14.58194447  138.45300293    4.90999985    2.57999992
   14.58527756  144.34300232    4.07999992    2.61999989
   14.58833313  142.75999451    2.86999989    2.64000010
   14.59166622  146.68600464    2.13000011    2.66000009
   14.59499931  133.97500610    1.50000000    2.66000009
   14.59805489  134.25399780    0.86000001    2.66000009
   14.60138893  138.53300476    0.81999999    2.66000009
   14.60444450  129.84599304    0.76999998    2.66000009
   14.60777855  142.42500305    0.61000001    2.66000009
   14.61111164  142.11199951    0.47999999    2.66000009
   14.61166668  141.20899963    0.46000001    2.66000009
   14.61444473  137.67900085    0.44000000    2.66000009
   14.61777782  145.04100037    0.44000000    2.66000009
   14.62111092  138.43200684    0.46000001    2.67000008
   14.62416649  141.89300537    0.46000001    2.67000008
   14.62750053  144.55700684    0.46000001    2.67000008
   14.63083363  139.33700562    0.46000001    2.67000008
   14.63388920  133.62500000    0.46000001    2.67000008
   14.63722229  138.71099854    0.46000001    2.66000009
   14.64027786  146.64199829    0.46000001    2.66000009
   14.64361095  145.72599792    0.46000001    2.67000008
   14.64499950  144.89799500    0.46000001    2.67000008
   14.64722252  141.90699768    0.46000001    2.67000008
   14.65055561  137.83900452    0.46000001    2.67000008
   14.65388870  144.89999390    0.46000001    2.67000008
   14.65722179  143.30099487    0.46000001    2.66000009
   14.66027737  139.80799866    0.46000001    2.66000009
   14.66361046  139.85600281    0.46000001    2.66000009
   14.66694450  138.85499573    0.47999999    2.66000009
   14.67000008  136.91400146    0.47999999    2.66000009
   14.67333412  136.50999451    0.47999999    2.67000008
   14.67666721  140.88699341    0.47999999    2.66000009
   14.69444466  138.53700256    0.47999999    2.67000008
   14.69638920  130.46800232    0.47999999    2.66000009
   14.69944477  140.96699524    0.47999999    2.67000008
   14.70277786  135.72799683    0.50000000    2.66000009
   14.70583344  131.27099609    0.47999999    2.67000008
   14.70916653  142.96699524    0.47999999    2.67000008
   14.71249962  138.21299744    0.47999999    2.67000008
   14.71555519  140.49299622    0.50000000    2.67000008
   14.71888828  139.07200623    0.47999999    2.66000009
   14.72222137  139.72900391    0.47999999    2.66000009
   14.72527695  136.91299438    0.47999999    2.67000008
   14.72749996  137.75300598    0.47999999    2.67000008
   14.72888851  139.68099976    0.47999999    2.67000008
   14.73222160  131.01499939    0.47999999    2.67000008
   14.73527813  131.01699829    0.47999999    2.67000008
   14.73861122  130.91499329    0.47999999    2.67000008
   14.74194431  120.65699768    0.47999999    2.67000008
   14.74527836  131.79600525    0.47999999    2.67000008
   14.74861145  124.63500214    0.47999999    2.66000009
   14.75194454  132.80499268    0.46000001    2.66000009
   14.75527763  136.98500061    0.46000001    2.66000009
   14.75833321  136.78199768    0.46000001    2.66000009
   14.76111126  138.27499390    0.46000001    2.67000008
   14.76194477  139.99600220    0.46000001    2.67000008
   14.76527786  135.79400635    0.46000001    2.67000008
   14.76833344  135.39399719    0.46000001    2.66000009
   14.77166653  132.86199951    0.46000001    2.67000008
   14.77499962  134.39999390    0.47999999    2.67000008
   14.77805519  128.79200745    0.55000001    2.67000008
   14.78138828  136.10099792    1.05999994    2.67000008
   14.78472233  138.61300659    1.38000000    2.67000008
   14.78777790  132.32400513    1.44000006    2.67000008
   14.79111195  133.89500427    1.44000006    2.67000008
   14.79416752  138.17700195    4.80000019    2.67000008
   14.79472256  131.58399963    4.80000019    2.67000008
   14.79805565  126.42299652    4.90999985    2.67000008
   14.80111122  136.29200745    4.90999985    2.67000008
   14.80444431  138.61099243    4.36999989    2.66000009
   14.80777836  131.91900635    2.89000010    2.66000009
   14.81083393  129.35200500    2.03999996    2.66000009
   14.81416702  137.58700562    4.90999985    2.67000008
   14.81750011  134.44999695    2.76999998    2.67000008
   14.82055569  128.32800293    0.75000000    2.67000008
   14.82388878  138.16099548    0.50000000    2.67000008
   14.82694435  134.94299316    0.50000000    2.66000009
   14.82777786  138.54699707    0.50000000    2.69000006
   14.83055592  145.65299988    0.51999998    2.67000008
   14.83388901  140.70599365    0.51999998    2.67000008
   14.83694458  137.23800659    0.51999998    2.67000008
   14.84027767  137.60899353    0.52999997    2.67000008
   14.84361076  135.28199768    0.52999997    2.67000008
   14.84666634  137.49200439    0.55000001    2.69000006
   14.85000038  133.19999695    0.55000001    2.67000008
   14.85333347  134.66499329    0.55000001    2.69000006
   14.85638905  136.14999390    0.55000001    2.69000006
   14.85972214  136.00900269    0.55000001    2.67000008
   14.86111164  142.66600037    0.56999999    2.66000009
   14.86333370  137.52499390    0.56999999    2.66000009
   14.86666679  126.95999908    0.58999997    2.67000008
   14.86972237  133.56700134    0.58999997    2.67000008
   14.87305546  134.37100220    0.61000001    2.67000008
   14.87638855  132.68299866    0.61000001    2.67000008
   14.87944412  129.66099548    0.61000001    2.67000008
   14.88277817  132.84399414    0.61000001    2.67000008
   14.88583279  128.42900085    0.58999997    2.67000008
   14.88916683  135.11199951    0.61000001    2.67000008
   14.89249992  137.65199280    0.63000000    2.67000008
   14.89444447  130.38499451    0.63000000    2.67000008
   14.89611053  132.07600403    0.64999998    2.67000008
   14.89944458  143.55599976    0.63000000    2.67000008
   14.90249920  134.15899658    0.63000000    2.67000008
   14.90583324  134.91799927    0.63000000    2.67000008
   14.90916634  139.23800659    0.64999998    2.67000008
   14.91222191  127.94499969    0.64999998    2.67000008
   14.91555500  136.93499756    0.67000002    2.67000008
   14.91888905  136.77299500    0.69000000    2.67000008
   14.92194462  135.13999939    0.69000000    2.67000008
   14.92527771  129.75700378    0.69000000    2.67000008
   14.92777824  126.37300110    0.70999998    2.67000008
   14.92888927  131.30400085    0.69000000    2.67000008
   14.93222237  137.76100159    0.69000000    2.67000008
   14.93527794  126.69799805    0.69000000    2.67000008
   14.93861103  132.67999268    0.69000000    2.67000008
   14.94194412  128.69500732    0.69000000    2.67000008
   14.94499969  128.72399902    0.69000000    2.67000008
   14.94833374  130.83599854    0.67000002    2.67000008
   14.95166683  132.00900269    0.64999998    2.67000008
   14.95472240  125.25599670    0.64999998    2.67000008
   14.95805550  134.96200562    0.64999998    2.67000008
   14.96111107  132.00799561    0.64999998    2.67000008
   14.96166611  137.54400635    0.64999998    2.67000008
   14.96500015  131.32000732    0.64999998    2.67000008
   14.96805477  140.85299683    0.64999998    2.67000008
   14.97138882  140.88800049    0.61000001    2.67000008
   14.97472191  135.20100403    0.61000001    2.67000008
   14.97777748  138.52499390    0.63000000    2.67000008
   14.98111057  133.09800720    0.63000000    2.67000008
   14.98444462  145.81100464    0.63000000    2.67000008
   14.98750019  138.56300354    0.63000000    2.67000008
   14.99083328  127.09899902    0.63000000    2.67000008
   14.99388885  121.70800018    0.64999998    2.67000008
   14.99444485  131.83299255    0.64999998    2.67000008
   14.99750042  125.26300049    0.63000000    2.67000008
   15.00055599  128.52099609    0.63000000    2.67000008
   15.00388908  128.44999695    0.64999998    2.67000008
   15.00722218  135.29499817    0.64999998    2.67000008
   15.01027775  137.01199341    0.67000002    2.67000008
   15.01361084  135.02400208    0.69000000    2.67000008
   15.01694393  136.18600464    0.69000000    2.67000008
   15.01999950  130.88000488    0.69000000    2.69000006
   15.02333355  134.55700684    0.70999998    2.67000008
   15.02638817  134.81300354    0.70999998    2.67000008
   15.02777767  129.90199280    0.73000002    2.67000008
   15.03027725  139.83900452    0.75000000    2.67000008
   15.03361130  133.17999268    0.75000000    2.67000008
   15.03666687  135.13099670    0.75000000    2.67000008
   15.04000092  121.98000336    0.73000002    2.67000008
   15.04333401  127.81700134    0.75000000    2.67000008
   15.04638958  128.85200500    0.76999998    2.67000008
   15.04972267  127.99199677    0.79000002    2.67000008
   15.05277824  126.01699829    0.80000001    2.69000006
   15.05611134  127.59899902    0.80000001    2.69000006
   15.05944443  119.18099976    0.86000001    2.67000008
   15.06111145  129.72200012    0.92000002    2.69000006
   15.06305599  126.41799927    0.92000002    2.69000006
   15.06638908  133.04800415    0.95999998    2.67000008
   15.06944466  131.15899658    1.00000000    2.67000008
   15.07277775  128.21899414    1.00000000    2.69000006
   15.07583332  122.00299835    1.00000000    2.69000006
   15.07916641  130.57299805    1.00000000    2.67000008
   15.08249950  126.55400085    1.01999998    2.67000008
   15.08555508  127.47000122    1.01999998    2.67000008
   15.08888817  135.03300476    1.00000000    2.67000008
   15.09222221  124.01599884    1.00000000    2.67000008
   15.09444427  131.73500061    0.98000002    2.67000008
   15.09583282  130.67700195    0.98000002    2.67000008
   15.09916592  129.09300232    0.95999998    2.67000008
   15.10222244  128.04400635    0.94000000    2.67000008
   15.10555553  127.27100372    0.89999998    2.69000006
   15.10861111  132.78199768    0.88000000    2.67000008
   15.11222267  128.35800171    0.86000001    2.67000008
   15.11527824  131.08599854    0.83999997    2.67000008
   15.11861134  131.63200378    0.83999997    2.69000006
   15.12194443  127.55200195    0.83999997    2.69000006
   15.12500000  133.71200562    0.86000001    2.67000008
   15.12777805  126.20800018    0.86000001    2.69000006
   15.12861156  129.72999573    0.86000001    2.69000006
   15.13194466  126.64700317    0.83999997    2.67000008
   15.13500023  134.44500732    0.86000001    2.69000006
   15.13833332  127.91200256    0.86000001    2.69000006
   15.14138889  132.63499451    0.86000001    2.67000008
   15.14472198  131.89900208    0.86000001    2.69000006
   15.14805508  129.29100037    0.86000001    2.69000006
   15.15111065  125.23200226    0.86000001    2.67000008
   15.15444374  127.23500061    0.86000001    2.67000008
   15.15777779  127.00399780    0.86000001    2.67000008
   15.16083336  133.16400146    0.83999997    2.67000008
   15.16138840  128.68099976    0.86000001    2.69000006
   15.16472149  123.26799774    0.86000001    2.69000006
   15.16777802  129.88099670    0.88000000    2.67000008
   15.17111111  121.01899719    0.89999998    2.67000008
   15.17416668  114.89600372    0.92000002    2.67000008
   15.17750072  127.89399719    0.92000002    2.67000008
   15.18083382  129.01199341    0.92000002    2.67000008
   15.18388939  129.15299988    0.98000002    2.69000006
   15.18722248  128.08799744    0.95999998    2.69000006
   15.19055557  129.89599609    0.95999998    2.69000006
   15.19361115  127.23899841    0.95999998    2.69000006
   15.19472218  133.99899292    0.95999998    2.69000006
   15.19722271  128.31199646    0.95999998    2.69000006
   15.20027733  131.07099915    0.94000000    2.67000008
   15.20361137  129.57699585    0.94000000    2.69000006
   15.20666695  126.86599731    0.94000000    2.69000006
   15.21000004  125.62100220    0.94000000    2.67000008
   15.21333313  130.64100647    0.94000000    2.69000006
   15.21638870  130.14399719    0.94000000    2.67000008
   15.21972179  134.62800598    0.94000000    2.69000006
   15.22305489  130.15899658    0.94000000    2.67000008
   15.22611046  126.25299835    0.94000000    2.69000006
   15.22805500  128.26600647    0.94000000    2.69000006
   15.22999954  127.06400299    0.94000000    2.69000006
   15.23305511  126.37699890    0.94000000    2.69000006
   15.23638916  125.58599854    0.92000002    2.67000008
   15.23944473  121.51499939    0.88000000    2.69000006
   15.24277782  123.28199768    0.88000000    2.69000006
   15.24611092  122.57099915    0.88000000    2.69000006
   15.24916649  131.89100647    0.86000001    2.69000006
   15.25249958  125.94499969    0.83999997    2.69000006
   15.25583363  129.09300232    0.83999997    2.69000006
   15.25888920  120.57399750    0.86000001    2.69000006
   15.26138878  127.55699921    0.86000001    2.69000006
   15.26277733  127.60800171    0.88000000    2.69000006
   15.26583290  130.12800598    0.88000000    2.69000006
   15.26916599  129.44599915    0.88000000    2.67000008
   15.27222157  122.74900055    0.86000001    2.69000006
   15.27555561  132.57600403    0.88000000    2.69000006
   15.27888870  139.33399963    0.88000000    2.69000006
   15.28194427  132.81399536    0.86000001    2.67000008
   15.28527832  120.94699860    0.86000001    2.69000006
   15.28861141  123.73300171    0.86000001    2.69000006
   15.29166698  126.59300232    0.86000001    2.69000006
   15.29472256  126.43900299    0.86000001    2.69000006
   15.29555607  126.46700287    0.86000001    2.69000006
   15.29861164  128.58200073    0.86000001    2.67000008
   15.30194473  118.96900177    0.86000001    2.69000006
   15.30500031  121.89399719    0.83999997    2.67000008
   15.30833340  129.49499512    0.83999997    2.67000008
   15.31166649  124.63300323    0.83999997    2.69000006
   15.31472206  123.34200287    0.86000001    2.69000006
   15.31805515  127.54900360    0.86000001    2.69000006
   15.32138920  123.90100098    0.83999997    2.69000006
   15.32444477  132.94999695    0.83999997    2.67000008
   15.32777786  128.67100525    0.83999997    2.69000006
   15.32833290  129.69099426    0.83999997    2.69000006
   15.33138847  125.02600098    0.81999999    2.69000006
   15.33472157  114.99400330    0.83999997    2.69000006
   15.33805561  115.91200256    0.81999999    2.69000006
   15.34111118  125.44899750    0.80000001    2.69000006
   15.34444427  125.51499939    0.80000001    2.69000006
   15.34777737  124.45999908    0.80000001    2.69000006
   15.35083389  127.01200104    0.80000001    2.69000006
   15.35416698  125.56700134    0.80000001    2.69000006
   15.35750008  120.11299896    0.80000001    2.67000008
   15.36055565  121.56700134    0.81999999    2.67000008
   15.36166668  126.83300018    0.83999997    2.69000006
   15.36416721  120.04199982    0.83999997    2.69000006
   15.36750031  115.89900208    0.83999997    2.69000006
   15.37083340  120.23899841    0.83999997    2.69000006
   15.37388897  126.93099976    0.83999997    2.69000006
   15.37722206  118.69300079    0.81999999    2.69000006
   15.38027763  126.19699860    0.81999999    2.69000006
   15.38388920  130.62699890    0.86000001    2.69000006
   15.38694477  128.52600098    0.86000001    2.69000006
   15.39027786  122.55300140    0.86000001    2.69000006
   15.39333344  128.67199707    0.83999997    2.69000006
   15.39499950  120.44899750    0.83999997    2.69000006
   15.39694405  120.52300262    0.83999997    2.69000006
   15.40027714  122.32599640    0.81999999    2.69000006
   15.40361118  120.76699829    0.80000001    2.67000008
   15.40666676  117.89199829    0.80000001    2.67000008
   15.40999985  128.77400208    0.80000001    2.69000006
   15.41333294  123.97399902    0.80000001    2.69000006
   15.41638851  124.92099762    0.81999999    2.69000006
   15.41972256  128.18299866    0.81999999    2.69000006
   15.42305565  124.92500305    0.86000001    2.69000006
   15.42611122  112.58300018    0.86000001    2.69000006
   15.42833328  127.12200165    0.86000001    2.69000006
   15.42972279  125.12799835    0.86000001    2.69000006
   15.43305588  125.58000183    0.86000001    2.69000006
   15.43638897  125.84899902    0.86000001    2.67000008
   15.43944454  126.68099976    0.83999997    2.69000006
   15.44277763  131.53700256    0.81999999    2.69000006
   15.44583321  117.53299713    0.81999999    2.69000006
   15.44916630  119.07399750    0.80000001    2.69000006
   15.45249939  120.93699646    0.80000001    2.69000006
   15.45555496  118.55599976    0.79000002    2.69000006
   15.45888901  121.44200134    0.76999998    2.71000004
   15.46166611  124.58000183    0.76999998    2.71000004
   15.46249962  113.74900055    0.76999998    2.71000004
   15.46583271  128.14599609    0.76999998    2.71000004
   15.46916580  115.55999756    0.76999998    2.71000004
   15.47222137  123.78700256    0.75000000    2.67000008
   15.47555542  129.39900208    0.75000000    2.67000008
   15.47861099  124.90399933    0.79000002    2.69000006
   15.48194408  127.33899689    0.75000000    2.69000006
   15.48527813  127.94300079    0.75000000    2.69000006
   15.48833370  129.13900757    0.73000002    2.69000006
   15.49166679  128.68699646    0.75000000    2.69000006
   15.49499989  123.21700287    0.75000000    2.69000006
   15.49527836  134.25300598    0.75000000    2.69000006
   15.49861145  126.19499969    0.76999998    2.69000006
   15.50194454  131.59399414    0.76999998    2.69000006
   15.50500011  123.27100372    0.75000000    2.69000006
   15.50833321  128.59700012    0.76999998    2.69000006
   15.51166630  127.15899658    0.76999998    2.69000006
   15.51472187  128.15100098    0.76999998    2.69000006
   15.51805496  123.91999817    0.76999998    2.69000006
   15.52111053  129.16099548    0.76999998    2.69000006
   15.52444458  127.80999756    0.76999998    2.71000004
   15.52777767  129.33299255    0.76999998    2.69000006
   15.52833271  130.18600464    0.76999998    2.69000006
   15.53111076  128.59800720    0.75000000    2.69000006
   15.53444481  130.92300415    0.73000002    2.69000006
   15.53777790  126.94699860    0.73000002    2.69000006
   15.54083347  125.70700073    0.73000002    2.69000006
   15.54416752  126.36499786    0.70999998    2.69000006
   15.54722309  130.37300110    0.70999998    2.69000006
   15.55055618  131.39300537    0.73000002    2.69000006
   15.55388927  125.79399872    0.70999998    2.67000008
   15.55694485  120.67299652    0.70999998    2.69000006
   15.56027794  131.01600647    0.70999998    2.69000006
   15.56166649  128.03799438    0.70999998    2.69000006
   15.56388950  127.31999969    0.70999998    2.69000006
   15.56722260  132.36900330    0.73000002    2.69000006
   15.57055569  125.31500244    0.73000002    2.69000006
   15.57361126  126.78099823    0.73000002    2.69000006
   15.57694435  123.62400055    0.73000002    2.69000006
   15.57999992  126.33699799    0.73000002    2.69000006
   15.58333302  132.35200500    0.75000000    2.69000006
   15.58666611  130.86700439    0.75000000    2.69000006
   15.59000015  130.07299805    0.75000000    2.69000006
   15.59305477  128.55599976    0.75000000    2.69000006
   15.59499931  130.30099487    0.75000000    2.69000006
   15.59666634  127.60800171    0.75000000    2.69000006
   15.60000038  128.71600342    0.73000002    2.69000006
   15.60333347  131.20799255    0.73000002    2.71000004
   15.60638905  131.93400574    0.70999998    2.69000006
   15.60972214  131.49499512    0.69000000    2.69000006
   15.61277771  134.80999756    0.69000000    2.69000006
   15.61611176  136.25599670    0.67000002    2.69000006
   15.61944485  127.48600006    0.63000000    2.69000006
   15.62250042  128.69000244    0.63000000    2.69000006
   15.62583351  128.47999573    0.63000000    2.69000006
   15.62833309  127.30699921    0.63000000    2.69000006
   15.62944412  125.51699829    0.63000000    2.69000006
   15.63277817  130.16799927    0.61000001    2.69000006
   15.63611126  126.57599640    0.61000001    2.69000006
   15.63916683  125.45800018    0.61000001    2.71000004
   15.64249992  132.28300476    0.61000001    2.71000004
   15.64555550  128.47200012    0.63000000    2.69000006
   15.64888859  129.94599915    0.63000000    2.71000004
   15.65222168  132.45300293    0.63000000    2.71000004
   15.65527725  126.18800354    0.63000000    2.71000004
   15.65861034  129.64799500    0.63000000    2.71000004
   15.66166592  127.62999725    0.63000000    2.69000006
   15.66222191  122.94200134    0.63000000    2.69000006
   15.66555500  122.12200165    0.61000001    2.71000004
   15.66888905  122.41100311    0.61000001    2.71000004
   15.67194462  129.37800598    0.61000001    2.69000006
   15.67527771  124.94000244    0.58999997    2.69000006
   15.67861176  129.59700012    0.58999997    2.69000006
   15.68166733  122.21800232    0.63000000    2.69000006
   15.68500042  126.35600281    0.61000001    2.71000004
   15.68805599  125.67700195    0.61000001    2.71000004
   15.69138908  129.71200562    0.58999997    2.71000004
   15.69472218  129.39399719    0.58999997    2.71000004
   15.71166611  125.50199890    0.58999997    2.69000006
   15.71472168  134.19500732    0.61000001    2.69000006
   15.71805477  131.68899536    0.61000001    2.69000006
   15.72138882  133.42500305    0.61000001    2.69000006
   15.72444439  130.77600098    0.63000000    2.71000004
   15.72777748  130.75399780    0.63000000    2.69000006
   15.73111057  122.65299988    0.64999998    2.69000006
   15.73416710  124.79599762    0.64999998    2.69000006
   15.73750019  133.85800171    0.63000000    2.69000006
   15.74055576  130.08000183    0.70999998    2.69000006
   15.74388885  128.26600647    0.63000000    2.69000006
   15.74499989  127.25499725    0.63000000    2.69000006
   15.74750042  128.57299805    0.56999999    2.69000006
   15.75083351  126.55400085    0.56999999    2.71000004
   15.75388908  125.55200195    0.56999999    2.71000004
   15.75722218  122.99400330    0.61000001    2.69000006
   15.76055527  125.64499664    0.64999998    2.71000004
   15.76388931  129.36399841    0.64999998    2.69000006
   15.76694393  129.13400269    0.63000000    2.71000004
   15.77027798  123.64900208    0.63000000    2.71000004
   15.77333355  133.05299377    0.56999999    2.69000006
   15.77666664  127.43399811    0.55000001    2.71000004
   15.77833271  130.30599976    0.52999997    2.69000006
   15.78027725  130.82899475    0.52999997    2.69000006
   15.78361130  138.26699829    0.52999997    2.71000004
   15.78666687  121.62000275    0.52999997    2.71000004
   15.79000092  128.87399292    0.51999998    2.69000006
   15.79333401  133.04800415    0.51999998    2.69000006
   15.79638958  122.95999908    0.50000000    2.69000006
   15.79972267  132.53799438    0.50000000    2.71000004
   15.80305576  127.73600006    0.50000000    2.71000004
   15.80611134  133.14100647    0.50000000    2.69000006
   15.80944443  126.90299988    0.50000000    2.69000006
   15.81166649  124.36599731    0.50000000    2.69000006
   15.81305599  128.21000671    0.50000000    2.71000004
   15.81638908  128.56300354    0.50000000    2.71000004
   15.81944466  129.14700317    0.50000000    2.71000004
   15.82277775  126.56999969    0.50000000    2.71000004
   15.82611084  126.91300201    0.50000000    2.69000006
   15.82916641  127.56199646    0.47999999    2.69000006
   15.83249950  131.81900024    0.47999999    2.69000006
   15.83583260  121.82399750    0.47999999    2.71000004
   15.83888817  135.85099792    0.47999999    2.71000004
   15.84222221  126.08200073    0.47999999    2.71000004
   15.84499931  129.07000732    0.47999999    2.71000004
   15.84583282  127.88899994    0.47999999    2.71000004
   15.84916592  130.84700012    0.51999998    2.71000004
   15.85222244  120.26799774    0.58999997    2.71000004
   15.85555553  121.81800079    0.56999999    2.71000004
   15.85888958  129.99899292    0.56999999    2.71000004
   15.86194515  127.07299805    0.56999999    2.71000004
   15.86527824  134.48699951    0.55000001    2.71000004
   15.86861134  125.89800262    0.51999998    2.71000004
   15.87166691  128.29899597    0.47999999    2.71000004
   15.87500000  127.61799622    0.47999999    2.71000004
   15.87833309  128.08700562    0.47999999    2.71000004
   15.87861156  127.04599762    0.47999999    2.71000004
   15.88194466  124.35399628    0.47999999    2.69000006
   15.88500023  132.40899658    0.47999999    2.69000006
   15.88861084  131.41200256    0.47999999    2.71000004
   15.89194393  130.96600342    0.47999999    2.71000004
   15.89499950  128.94099426    0.47999999    2.71000004
   15.89833355  120.90599823    0.47999999    2.69000006
   15.90166664  126.72799683    0.46000001    2.71000004
   15.90472221  135.07000732    0.44000000    2.71000004
   15.90805531  134.66799927    0.44000000    2.69000006
   15.91138840  127.13099670    0.44000000    2.71000004
   15.91166592  133.12300110    0.44000000    2.71000004
   15.91499996  129.11900330    0.44000000    2.71000004
   15.91833401  127.42700195    0.41999999    2.71000004
   15.92138958  131.30799866    0.44000000    2.69000006
   15.92472267  123.01100159    0.41999999    2.71000004
   15.92805576  131.59100342    0.41999999    2.71000004
   15.93111134  129.91400146    0.41999999    2.71000004
   15.93444443  128.74899292    0.41999999    2.71000004
   15.93777752  130.74499512    0.41999999    2.71000004
   15.94083309  136.77099609    0.41999999    2.69000006
   15.94416714  126.45999908    0.41999999    2.71000004
   15.94527817  134.34500122    0.41999999    2.71000004
   15.94777775  133.95899963    0.41999999    2.71000004
   15.95111084  134.33900452    0.41999999    2.71000004
   15.95416641  128.84800720    0.41999999    2.69000006
   15.95749950  129.21299744    0.40000001    2.69000006
   15.96083355  134.76300049    0.40000001    2.71000004
   15.96388912  132.22500610    0.40000001    2.71000004
   15.96722221  136.33299255    0.40000001    2.71000004
   15.97055531  131.05499268    0.40000001    2.71000004
   15.97361088  127.14800262    0.40000001    2.71000004
   15.97694397  126.32700348    0.40000001    2.69000006
   15.97833252  125.26499939    0.41999999    2.69000006
   15.98055553  128.44299316    0.41999999    2.69000006
   15.98388958  128.16900635    0.41999999    2.71000004
   15.98694515  122.62500000    0.41999999    2.71000004
   15.99027824  119.26499939    0.41999999    2.69000006
   15.99361134  133.79699707    0.41999999    2.69000006
   15.99666691  124.68199921    0.41999999    2.71000004
   16.00000000  125.46800232    0.41999999    2.71000004
   16.00305557  129.58299255    0.41999999    2.71000004
   16.00638962  127.18000031    0.40000001    2.71000004
   16.00972176  125.05400085    0.40000001    2.71000004
   16.01166725  128.61199951    0.40000001    2.71000004
   16.01333427  129.10299683    0.40000001    2.69000006
   16.01666641  130.70899963    0.41999999    2.71000004
   16.01972198  120.59200287    0.41999999    2.71000004
   16.02305603  129.97900391    0.41999999    2.71000004
   16.02638817  129.65699768    0.41999999    2.71000004
   16.02944374  124.81400299    0.41999999    2.71000004
   16.03277779  124.92199707    0.40000001    2.69000006
   16.03583336  119.98000336    0.40000001    2.71000004
   16.03916550  126.10500336    0.40000001    2.71000004
   16.04249954  129.91000366    0.41999999    2.71000004
   16.04527664  134.98300171    0.41999999    2.71000004
   16.04611015  130.05200195    0.41999999    2.71000004
   16.04944420  128.36099243    0.41999999    2.71000004
   16.05249977  128.01300049    0.40000001    2.71000004
   16.05583191  127.80400085    0.40000001    2.71000004
   16.05916595  130.50399780    0.40000001    2.71000004
   16.06222153  132.32699585    0.40000001    2.69000006
   16.06555557  128.88200378    0.40000001    2.69000006
   16.06861115  128.31599426    0.41999999    2.69000006
   16.07194519  130.39599609    0.44000000    2.71000004
   16.07527924  132.49400330    0.44000000    2.71000004
   16.07861137  133.61000061    0.44000000    2.69000006
   16.07888985  122.69499969    0.44000000    2.69000006
   16.08222389  125.85199738    0.44000000    2.71000004
   16.08527756  129.92199707    0.44000000    2.69000006
   16.08861160  136.08099365    0.44000000    2.69000006
   16.09194565  129.80999756    0.44000000    2.71000004
   16.09500122  133.10000610    0.44000000    2.71000004
   16.09833336  133.13000488    0.44000000    2.69000006
   16.10166740  131.24800110    0.44000000    2.71000004
   16.10472298  124.07099915    0.44000000    2.71000004
   16.10805511  130.06399536    0.44000000    2.71000004
   16.11138916  134.63699341    0.44000000    2.71000004
   16.11166763  130.00700378    0.44000000    2.71000004
   16.11472321  134.15499878    0.44000000    2.71000004
   16.11805534  140.67500305    0.44000000    2.71000004
   16.12111092  130.76800537    0.41999999    2.71000004
   16.12444496  140.85200500    0.41999999    2.71000004
   16.12777710  132.44700623    0.41999999    2.69000006
   16.13083267  127.94499969    0.41999999    2.71000004
   16.13416672  123.22100067    0.41999999    2.71000004
   16.13722229  131.46800232    0.41999999    2.69000006
   16.14055634  120.49299622    0.40000001    2.71000004
   16.14388847  135.65400696    0.40000001    2.71000004
   16.14527702  131.46200562    0.40000001    2.71000004
   16.14749908  126.41799927    0.40000001    2.69000006
   16.15083313  130.62800598    0.41999999    2.71000004
   16.15388870  125.23600006    0.41999999    2.71000004
   16.15722275  128.72599792    0.40000001    2.69000006
   16.16055489  137.47500610    0.40000001    2.71000004
   16.16361046  125.05999756    0.40000001    2.69000006
   16.16694450  125.18399811    0.41999999    2.69000006
   16.17027664  129.08099365    0.41999999    2.69000006
   16.17333221  122.39099884    0.41999999    2.71000004
   16.17666626  132.36199951    0.44000000    2.71000004
   16.17860985  125.51499939    0.44000000    2.71000004
   16.18055534  130.96299744    0.44000000    2.71000004
   16.18361092  133.56799316    0.46000001    2.69000006
   16.18694305  129.27600098    0.46000001    2.69000006
   16.18999863  127.57599640    0.46000001    2.69000006
   16.19333267  123.09100342    0.50000000    2.71000004
   16.19666672  120.97000122    0.51999998    2.71000004
   16.19972038  132.81700134    0.51999998    2.71000004
   16.20305634  120.64900208    0.56999999    2.69000006
   16.20611191  112.80100250    0.61000001    2.69000006
   16.20944595  123.31900024    0.69000000    2.71000004
   16.21194458  123.38500214    0.63000000    2.71000004
   16.21305656  130.52299500    0.63000000    2.71000004
   16.21638870  125.57700348    0.61000001    2.71000004
   16.21944427  125.51499939    0.56999999    2.71000004
   16.22277832  122.96800232    0.58999997    2.71000004
   16.22611237  128.94900513    0.58999997    2.71000004
   16.22916794  127.83999634    0.58999997    2.71000004
   16.23250008  132.02299500    0.61000001    2.69000006
   16.23583412  125.86599731    0.63000000    2.71000004
   16.23888969  130.29400635    0.63000000    2.69000006
   16.24222183  127.53399658    0.58999997    2.69000006
   16.24527740  135.56900024    0.58999997    2.69000006
   16.24583435  124.33499908    0.63000000    2.71000004
   16.24916649  126.06400299    0.63000000    2.71000004
   16.25222206  130.83000183    0.58999997    2.71000004
   16.25555611  128.82800293    0.55000001    2.71000004
   16.25888824  123.94400024    0.55000001    2.71000004
   16.26194382  128.57899475    0.63000000    2.69000006
   16.26527786  123.49400330    0.67000002    2.71000004
   16.26861000  125.49099731    0.61000001    2.71000004
   16.27194405  127.71099854    0.55000001    2.71000004
   16.27499962  131.17999268    0.55000001    2.71000004
   16.27833366  132.77400208    0.55000001    2.71000004
   16.27888870  130.06500244    0.55000001    2.71000004
   16.28194427  130.66600037    0.55000001    2.71000004
   16.28527641  132.08299255    0.55000001    2.71000004
   16.28861046  133.25100708    0.52999997    2.71000004
   16.29166603  129.99800110    0.56999999    2.71000004
   16.29500008  124.25499725    0.55000001    2.71000004
   16.29833221  133.19999695    0.55000001    2.71000004
   16.30138779  122.86000061    0.52999997    2.69000006
   16.30472183  122.94400024    0.50000000    2.71000004
   16.30777740  129.91000366    0.47999999    2.71000004
   16.31138802  131.28599548    0.47999999    2.71000004
   16.31222153  129.31300354    0.47999999    2.71000004
   16.31499863  131.93800354    0.44000000    2.71000004
   16.31833458  130.72200012    0.41999999    2.71000004
   16.32166672  137.59199524    0.41999999    2.71000004
   16.32472229  129.73100281    0.41999999    2.71000004
   16.32805634  126.00499725    0.40000001    2.71000004
   16.33111191  134.73300171    0.38000000    2.71000004
   16.33444595  124.38400269    0.38000000    2.71000004
   16.33777809  133.83500671    0.38000000    2.71000004
   16.34083366  123.19899750    0.40000001    2.71000004
   16.34416771  130.11099243    0.40000001    2.71000004
   16.34555626  130.88200378    0.41999999    2.71000004
   16.34805679  125.74700165    0.41999999    2.71000004
   16.35111237  129.96899414    0.40000001    2.71000004
   16.35444450  122.40100098    0.40000001    2.71000004
   16.35750008  122.48500061    0.38000000    2.71000004
   16.36083412  127.66200256    0.40000001    2.71000004
   16.36416626  121.95700073    0.40000001    2.73000002
   16.36722183  117.63700104    0.40000001    2.71000004
   16.37055588  118.85600281    0.41999999    2.71000004
   16.37388992  121.91400146    0.41999999    2.71000004
   16.37694550  120.63500214    0.40000001    2.71000004
   16.37888908  119.68499756    0.41999999    2.71000004
   16.38055611  122.33100128    0.41999999    2.71000004
   16.38388824  121.13800049    0.41999999    2.71000004
   16.38722229  134.67100525    0.41999999    2.71000004
   16.39027786  121.12699890    0.41999999    2.73000002
   16.39361191  126.22699738    0.40000001    2.71000004
   16.39694405  113.16699982    0.40000001    2.71000004
   16.39999962  122.60099792    0.40000001    2.71000004
   16.40333366  130.66099548    0.40000001    2.73000002
   16.40638924  125.90699768    0.40000001    2.71000004
   16.40972137  129.93400574    0.40000001    2.71000004
   16.41222191  123.50700378    0.38000000    2.71000004
   16.41333389  132.19099426    0.38000000    2.71000004
   16.41666603  128.62100220    0.38000000    2.71000004
   16.42000008  131.28900146    0.38000000    2.71000004
   16.42305565  128.27200317    0.38000000    2.71000004
   16.42638779  134.66200256    0.38000000    2.71000004
   16.42944336  125.71099854    0.38000000    2.73000002
   16.43277740  132.25799561    0.38000000    2.71000004
   16.43610954  123.64600372    0.38000000    2.71000004
   16.43944359  131.20899963    0.38000000    2.71000004
   16.44249916  129.39799500    0.38000000    2.71000004
   16.44555473  134.40499878    0.38000000    2.71000004
   16.44610977  136.52000427    0.38000000    2.71000004
   16.44944382  124.73999786    0.38000000    2.71000004
   16.45277786  127.31199646    0.38000000    2.71000004
   16.45583344  127.88500214    0.38000000    2.71000004
   16.45916748  125.22399902    0.40000001    2.71000004
   16.46222305  127.90000153    0.40000001    2.71000004
   16.46555710  123.73999786    0.38000000    2.71000004
   16.46888924  129.22799683    0.38000000    2.71000004
   16.47194481  121.66500092    0.38000000    2.71000004
   16.47527885  122.62100220    0.38000000    2.71000004
   16.47861099  123.18000031    0.38000000    2.73000002
   16.47888947  125.49299622    0.38000000    2.73000002
   16.48222351  122.45700073    0.38000000    2.71000004
   16.48555565  126.47899628    0.38000000    2.71000004
   16.48861122  130.61000061    0.34000000    2.71000004
   16.49194527  118.65699768    0.34000000    2.71000004
   16.49527740  126.34600067    0.34000000    2.71000004
   16.49833298  130.26400757    0.34000000    2.71000004
   16.50166702  135.68099976    0.31999999    2.73000002
   16.50499916  129.94900513    0.31999999    2.73000002
   16.50805473  131.56199646    0.31999999    2.73000002
   16.51138878  124.79499817    0.31999999    2.71000004
   16.51222229  128.60699463    0.31999999    2.71000004
   16.51499939  126.18900299    0.31999999    2.71000004
   16.51833344  128.24000549    0.31999999    2.71000004
   16.52138901  120.30100250    0.31999999    2.71000004
   16.52499962  120.63899994    0.31999999    2.71000004
   16.52833366  128.55799866    0.31999999    2.71000004
   16.53138924  139.87399292    0.31999999    2.71000004
   16.53472137  136.95799255    0.31999999    2.71000004
   16.53777695  140.62199402    0.31999999    2.71000004
   16.54111099  135.18400574    0.31999999    2.73000002
   16.54444313  123.22699738    0.31999999    2.71000004
   16.54555511  129.45599365    0.31999999    2.71000004
   16.54805565  123.74099731    0.34000000    2.71000004
   16.55138779  127.11199951    0.34000000    2.71000004
   16.55444336  129.32299805    0.34000000    2.71000004
   16.55777740  128.57699585    0.34000000    2.71000004
   16.56110954  128.46299744    0.34000000    2.71000004
   16.56416512  128.24200439    0.34000000    2.71000004
   16.56750107  129.36500549    0.31999999    2.71000004
   16.57055664  127.13400269    0.31999999    2.73000002
   16.57389069  132.54299927    0.31999999    2.73000002
   16.57722282  121.80400085    0.31999999    2.71000004
   16.57916832  126.71199799    0.31999999    2.71000004
   16.58083344  131.50000000    0.31999999    2.71000004
   16.58416748  125.01899719    0.30000001    2.71000004
   16.58750153  127.12300110    0.30000001    2.71000004
   16.59055710  122.49900055    0.31999999    2.71000004
   16.59388924  125.20300293    0.30000001    2.71000004
   16.59694481  125.93199921    0.30000001    2.71000004
   16.60027885  131.54400635    0.30000001    2.71000004
   16.60361099  123.58100128    0.31999999    2.71000004
   16.60666656  127.28299713    0.31999999    2.71000004
   16.61000061  120.47100067    0.31999999    2.71000004
   16.61222267  127.85299683    0.31999999    2.71000004
   16.61361122  117.86599731    0.31999999    2.71000004
   16.61694527  123.87000275    0.31999999    2.71000004
   16.62000084  127.43499756    0.31999999    2.71000004
   16.62333298  130.87199402    0.31999999    2.71000004
   16.62666702  127.16400146    0.31999999    2.73000002
   16.62972260  131.37399292    0.31999999    2.71000004
   16.63305473  124.23100281    0.31999999    2.73000002
   16.63611031  119.89900208    0.31999999    2.71000004
   16.63944435  123.20800018    0.31999999    2.71000004
   16.64277840  125.91300201    0.31999999    2.73000002
   16.64555550  124.12899780    0.31999999    2.73000002
   16.64666748  127.29100037    0.31999999    2.71000004
   16.64972115  129.31799316    0.31999999    2.71000004
   16.65305519  127.48000336    0.31999999    2.71000004
   16.65638924  120.84799957    0.30000001    2.71000004
   16.65944481  126.01999664    0.31999999    2.71000004
   16.66277695  130.69700623    0.30000001    2.71000004
   16.66583252  122.84100342    0.30000001    2.73000002
   16.66916656  132.75599670    0.30000001    2.73000002
   16.67249870  125.44000244    0.30000001    2.71000004
   16.67555428  136.26499939    0.30000001    2.71000004
   16.67888832  122.98899841    0.30000001    2.71000004
   16.67944336  130.16600037    0.30000001    2.71000004
   16.68249893  124.01100159    0.30000001    2.71000004
   16.68583298  130.69200134    0.31999999    2.71000004
   16.68916512  127.40000153    0.31999999    2.71000004
   16.69222069  132.25999451    0.31999999    2.71000004
   16.69555473  130.59599304    0.31999999    2.71000004
   16.69888878  135.43099976    0.30000001    2.71000004
   16.70194435  126.95400238    0.30000001    2.73000002
   16.70527840  121.56500244    0.30000001    2.71000004
   16.70833397  116.86599731    0.31999999    2.71000004
   16.72805595  123.70300293    0.31999999    2.71000004
   16.72861099  125.16799927    0.31999999    2.71000004
   16.73194504  130.02600098    0.34000000    2.71000004
   16.73500061  129.80999756    0.34000000    2.71000004
   16.73833275  124.54000092    0.34000000    2.73000002
   16.74166679  127.51000214    0.34000000    2.71000004
   16.74472237  122.90799713    0.34000000    2.71000004
   16.74805641  119.02500153    0.38000000    2.71000004
   16.75111198  126.81300354    0.38000000    2.71000004
   16.75444412  126.56300354    0.38000000    2.71000004
   16.75777817  121.85399628    0.38000000    2.73000002
   16.76083374  122.66999817    0.38000000    2.71000004
   16.76194382  119.68499756    0.38000000    2.71000004
   16.76444435  122.32399750    0.38000000    2.71000004
   16.76749992  118.07599640    0.38000000    2.71000004
   16.77083397  122.67099762    0.38000000    2.71000004
   16.77416611  123.47200012    0.40000001    2.71000004
   16.77722168  127.98400116    0.40000001    2.71000004
   16.78055573  124.70800018    0.47999999    2.71000004
   16.78388786  128.38699341    0.50000000    2.71000004
   16.78694344  117.58499908    0.50000000    2.71000004
   16.79027748  127.97100067    0.47999999    2.71000004
   16.79333305  122.39099884    0.47999999    2.71000004
   16.79527664  130.38999939    0.47999999    2.71000004
   16.79722214  124.70400238    0.47999999    2.71000004
   16.80027771  122.58200073    0.52999997    2.71000004
   16.80360985  124.69100189    0.50000000    2.71000004
   16.80694389  121.65000153    0.46000001    2.73000002
   16.80999947  121.73000336    0.44000000    2.71000004
   16.81333351  127.49500275    0.38000000    2.71000004
   16.81666756  126.11199951    0.38000000    2.71000004
   16.81972313  123.12100220    0.38000000    2.71000004
   16.82305717  121.12699890    0.36000001    2.73000002
   16.82638931  124.84200287    0.38000000    2.71000004
   16.82861137  122.24700165    0.38000000    2.71000004
   16.83000183  122.51999664    0.36000001    2.71000004
   16.83305550  118.04399872    0.36000001    2.71000004
   16.83638954  121.38400269    0.34000000    2.71000004
   16.83972359  118.42700195    0.34000000    2.71000004
   16.84277916  120.31600189    0.34000000    2.71000004
   16.84611130  117.24099731    0.36000001    2.73000002
   16.84944534  120.47899628    0.34000000    2.71000004
   16.85250092  118.81999969    0.34000000    2.73000002
   16.85583305  121.11599731    0.36000001    2.71000004
   16.85888863  121.38899994    0.41999999    2.71000004
   16.86194420  115.82499695    0.44000000    2.73000002
   16.86277771  116.34100342    0.44000000    2.73000002
   16.86611176  120.76799774    0.46000001    2.71000004
   16.86944389  113.44400024    0.46000001    2.71000004
   16.87249947  118.80400085    0.46000001    2.71000004
   16.87583351  121.62300110    0.50000000    2.71000004
   16.87916756  123.06400299    0.52999997    2.71000004
   16.88222313  121.36000061    0.52999997    2.71000004
   16.88555527  116.55000305    0.52999997    2.71000004
   16.88861084  122.30000305    0.50000000    2.73000002
   16.89194489  116.89099884    0.44000000    2.71000004
   16.89527702  125.64700317    0.41999999    2.71000004
   16.89583397  127.27999878    0.41999999    2.71000004
   16.89888954  122.07299805    0.41999999    2.71000004
   16.90222168  117.16300201    0.41999999    2.71000004
   16.90527725  120.06600189    0.40000001    2.71000004
   16.90861130  125.69000244    0.40000001    2.73000002
   16.91194344  122.32800293    0.38000000    2.71000004
   16.91499901  126.58899689    0.38000000    2.71000004
   16.91833305  118.48600006    0.38000000    2.71000004
   16.92166519  117.25099945    0.44000000    2.71000004
   16.92472076  120.53099823    0.44000000    2.71000004
   16.92805481  125.30899811    0.46000001    2.71000004
   16.92888832  123.40100098    0.46000001    2.71000004
   16.93166542  126.30200195    0.46000001    2.71000004
   16.93499947  121.29799652    0.46000001    2.71000004
   16.93805504  117.87799835    0.50000000    2.71000004
   16.94138718  122.76899719    0.47999999    2.71000004
   16.94472122  115.92600250    0.50000000    2.73000002
   16.94777679  117.65000153    0.47999999    2.71000004
   16.95111275  121.16200256    0.44000000    2.73000002
   16.95416832  116.77400208    0.44000000    2.71000004
   16.95750046  119.50000000    0.44000000    2.71000004
   16.96083450  123.66400146    0.44000000    2.71000004
   16.96250153  123.52999878    0.44000000    2.71000004
   16.96444511  121.67600250    0.44000000    2.71000004
   16.96777916  129.12699890    0.46000001    2.71000004
   16.97083473  124.90200043    0.41999999    2.71000004
   16.97416687  126.91799927    0.41999999    2.73000002
   16.97750092  126.38500214    0.41999999    2.73000002
   16.98055649  131.29499817    0.41999999    2.73000002
   16.98388863  124.70600128    0.44000000    2.71000004
   16.98722267  124.84799957    0.51999998    2.71000004
   16.99027824  126.63500214    0.56999999    2.71000004
   16.99361229  126.13200378    0.56999999    2.71000004
   16.99583435  129.71200562    0.50000000    2.71000004
   16.99722290  127.37699890    0.50000000    2.71000004
   17.00055504  125.44599915    0.44000000    2.71000004
   17.00361061  124.46600342    0.40000001    2.71000004
   17.00694466  125.81999969    0.38000000    2.71000004
   17.01027870  123.75700378    0.38000000    2.71000004
   17.01333427  125.32199860    0.38000000    2.71000004
   17.01666641  124.83699799    0.36000001    2.71000004
   17.02000046  120.81400299    0.41999999    2.71000004
   17.02305603  123.65200043    0.50000000    2.73000002
   17.02638817  115.44100189    0.50000000    2.73000002
   17.02888870  123.34200287    0.61000001    2.71000004
   17.03000069  119.50199890    0.61000001    2.71000004
   17.03333282  117.44400024    0.51999998    2.71000004
   17.03638840  120.67199707    0.52999997    2.71000004
   17.03972244  121.80200195    0.52999997    2.71000004
   17.04305458  117.57099915    0.52999997    2.71000004
   17.04611015  116.62500000    0.52999997    2.73000002
   17.04944420  121.44400024    0.50000000    2.71000004
   17.05277634  126.40100098    0.47999999    2.73000002
   17.05583191  122.97799683    0.40000001    2.73000002
   17.05916595  125.97599792    0.40000001    2.73000002
   17.06222153  127.93699646    0.41999999    2.71000004
   17.06277657  121.77600098    0.58999997    2.71000004
   17.06611061  126.77600098    0.58999997    2.71000004
   17.06916809  130.56399536    0.64999998    2.73000002
   17.07250023  123.51999664    0.64999998    2.71000004
   17.07583427  122.55000305    0.63000000    2.71000004
   17.07888985  127.31300354    0.61000001    2.71000004
   17.08222389  126.68900299    0.61000001    2.71000004
   17.08555603  130.27499390    0.55000001    2.71000004
   17.08861160  125.61299896    0.50000000    2.71000004
   17.09194565  133.26899719    0.47999999    2.71000004
   17.09500122  125.47499847    0.46000001    2.71000004
   17.09555626  128.50000000    0.46000001    2.71000004
   17.09861183  122.11299896    0.40000001    2.71000004
   17.10194397  120.27400208    0.38000000    2.71000004
   17.10499954  125.27500153    0.38000000    2.71000004
   17.10833359  130.53300476    0.38000000    2.71000004
   17.11166763  126.69400024    0.38000000    2.71000004
   17.11472321  134.21200562    0.40000001    2.71000004
   17.11805534  122.34899902    0.44000000    2.73000002
   17.12138939  125.91000366    0.46000001    2.71000004
   17.12444496  123.15699768    0.44000000    2.71000004
   17.12777710  126.45099640    0.44000000    2.71000004
   17.12916756  127.61499786    0.41999999    2.73000002
   17.13166618  122.91899872    0.40000001    2.71000004
   17.13472176  113.77899933    0.40000001    2.71000004
   17.13805580  122.01699829    0.40000001    2.71000004
   17.14138794  128.67700195    0.38000000    2.71000004
   17.14444351  131.68499756    0.38000000    2.71000004
   17.14777756  122.74400330    0.36000001    2.71000004
   17.15111160  140.85400391    0.34000000    2.71000004
   17.15416718  135.53399658    0.34000000    2.73000002
   17.15749931  133.00799561    0.34000000    2.73000002
   17.16055489  135.61099243    0.36000001    2.71000004
   17.16250038  126.72899628    0.36000001    2.71000004
   17.16416550  127.96299744    0.36000001    2.71000004
   17.16749954  129.22000122    0.34000000    2.71000004
   17.17083359  128.72200012    0.34000000    2.71000004
   17.17388916  127.28199768    0.34000000    2.73000002
   17.17722130  135.11599731    0.34000000    2.71000004
   17.18027687  130.67500305    0.34000000    2.71000004
   17.18361092  122.19699860    0.31999999    2.71000004
   17.18694305  135.22000122    0.31999999    2.73000002
   17.18999863  130.18800354    0.31999999    2.71000004
   17.19333267  128.16600037    0.31999999    2.71000004
   17.19583321  123.62500000    0.31999999    2.71000004
   17.19666672  125.07299805    0.31999999    2.71000004
   17.20000076  130.91600037    0.30000001    2.71000004
   17.20333481  139.05200195    0.30000001    2.71000004
   17.20639038  142.64399719    0.30000001    2.71000004
   17.20972252  130.29800415    0.30000001    2.71000004
   17.21305656  134.93200684    0.30000001    2.71000004
   17.21638870  136.86799622    0.30000001    2.71000004
   17.21944427  135.56199646    0.30000001    2.71000004
   17.22277832  140.03599548    0.28000000    2.71000004
   17.22583389  126.11499786    0.28000000    2.71000004
   17.22916794  122.37999725    0.28000000    2.71000004
   17.22972298  135.15600586    0.28000000    2.71000004
   17.23277855  122.57299805    0.28000000    2.71000004
   17.23611069  123.32099915    0.28000000    2.71000004
   17.23916626  116.23400116    0.28000000    2.71000004
   17.24250031   93.33000183    0.28000000    2.71000004
   17.24583435  122.52999878    0.28000000    2.71000004
   17.24888992  117.95099640    0.28000000    2.71000004
   17.25222206  125.23000336    0.28000000    2.71000004
   17.25555611  136.98800659    0.28000000    2.71000004
   17.25861168  155.58299255    0.28000000    2.71000004
   17.26194382  145.89399719    0.28000000    2.71000004
   17.26250076  140.72999573    0.28000000    2.71000004
   17.26527786  136.37899780    0.28000000    2.71000004
   17.26861000  120.13700104    0.28000000    2.71000004
   17.27194405  123.77999878    0.28000000    2.71000004
   17.27499962  134.51600647    0.28000000    2.71000004
   17.27833366  136.96099854    0.28000000    2.71000004
   17.28166580  136.95700073    0.28000000    2.71000004
   17.28472137  124.00900269    0.28000000    2.71000004
   17.28805542  129.94299316    0.28000000    2.71000004
   17.29111099  127.48200226    0.28000000    2.71000004
   17.29444313  137.19700623    0.28000000    2.71000004
   17.29583359  137.49099731    0.28000000    2.71000004
   17.29805565  133.85899353    0.28000000    2.71000004
   17.30111122  135.53999329    0.28000000    2.71000004
   17.30444336  141.75100708    0.28000000    2.71000004
   17.30749893  121.93900299    0.28000000    2.71000004
   17.31083298  127.63400269    0.28000000    2.71000004
   17.31416512  119.83799744    0.28000000    2.71000004
   17.31722260  135.05900574    0.30000001    2.71000004
   17.32055664  130.13600159    0.30000001    2.71000004
   17.32389069  122.33999634    0.30000001    2.71000004
   17.32722282  118.61199951    0.30000001    2.73000002
   17.32916832  128.26199341    0.30000001    2.73000002
   17.33055687  115.19000244    0.30000001    2.73000002
   17.33388901  137.15699768    0.31999999    2.71000004
   17.33722305  123.76300049    0.31999999    2.71000004
   17.34027863  124.69000244    0.31999999    2.71000004
   17.34361267  123.36299896    0.31999999    2.71000004
   17.34694481  121.80999756    0.31999999    2.71000004
   17.35000038  125.92400360    0.31999999    2.71000004
   17.35333443  123.44200134    0.31999999    2.71000004
   17.35666656  127.06500244    0.31999999    2.73000002
   17.35972214  131.25599670    0.31999999    2.71000004
   17.36250114  123.20500183    0.31999999    2.71000004
   17.36361122  133.55499268    0.31999999    2.71000004
   17.36666679  127.77400208    0.31999999    2.71000004
   17.37000084  125.34899902    0.31999999    2.71000004
   17.37305641  119.42900085    0.31999999    2.71000004
   17.37638855  129.64599609    0.31999999    2.71000004
   17.37972260  126.43800354    0.31999999    2.71000004
   17.38277817  118.69499969    0.31999999    2.71000004
   17.38611031  119.03399658    0.30000001    2.71000004
   17.38944435  118.39499664    0.30000001    2.71000004
   17.39249992  122.58399963    0.30000001    2.71000004
   17.39583397  122.85600281    0.28000000    2.73000002
   17.39611053  123.13999939    0.28000000    2.73000002
   17.39944458  126.05200195    0.28000000    2.73000002
   17.40277672  129.88400269    0.28000000    2.71000004
   17.40583229  124.70200348    0.28000000    2.71000004
   17.40916634  123.61100006    0.28000000    2.71000004
   17.41250038  121.80500031    0.28000000    2.71000004
   17.41555595  124.14700317    0.28000000    2.71000004
   17.41888809  121.55699921    0.30000001    2.71000004
   17.42222214  134.50399780    0.31999999    2.71000004
   17.42527771  123.80400085    0.34000000    2.71000004
   17.42860985  132.37500000    0.34000000    2.71000004
   17.42916679  133.22200012    0.34000000    2.71000004
   17.43222237  121.30699921    0.46000001    2.73000002
   17.43527603  119.23699951    0.46000001    2.73000002
   17.43861008  122.07199860    0.50000000    2.71000004
   17.44166565  124.06999969    0.63000000    2.71000004
   17.44499969  120.23500061    0.64999998    2.71000004
   17.44833183  123.36699677    0.56999999    2.69000006
   17.45138931  122.61499786    0.80000001    2.71000004
   17.45472336  121.88800049    0.79000002    2.71000004
   17.45805550  127.74099731    0.79000002    2.71000004
   17.46111107  123.66500092    0.75000000    2.71000004
   17.46250153  121.66100311    0.69000000    2.71000004
   17.46500015  121.80699921    0.69000000    2.71000004
   17.46805573  128.36000061    0.73000002    2.71000004
   17.47138977  119.56199646    0.92000002    2.71000004
   17.47472191  122.79799652    0.86000001    2.71000004
   17.47777748  120.49800110    0.86000001    2.71000004
   17.48111153  123.19899750    0.86000001    2.71000004
   17.48416710  125.67500305    0.86000001    2.71000004
   17.48750114  120.01100159    0.63000000    2.71000004
   17.49083328  124.19899750    0.52999997    2.71000004
   17.49388885  115.35099792    0.46000001    2.71000004
   17.49583435  117.31600189    0.46000001    2.71000004
   17.49777794  121.27799988    0.46000001    2.71000004
   17.50083351  117.63400269    0.44000000    2.71000004
   17.50416756  116.62699890    0.41999999    2.71000004
   17.50722313  116.11000061    0.40000001    2.71000004
   17.51055527  121.31199646    0.38000000    2.71000004
   17.51388931  114.72699738    0.36000001    2.69000006
   17.51694489  121.76799774    0.36000001    2.71000004
   17.52027702  122.18900299    0.36000001    2.71000004
   17.52361107  122.84999847    0.36000001    2.71000004
   17.52666664  121.68399811    0.36000001    2.71000004
   17.52916718  117.31800079    0.36000001    2.71000004
   17.53055573  123.62500000    0.36000001    2.71000004
   17.53388786  125.86100006    0.38000000    2.71000004
   17.53694344  124.10700226    0.38000000    2.71000004
   17.54027748  120.97299957    0.38000000    2.71000004
   17.54333305  121.67199707    0.40000001    2.71000004
   17.54666710  124.24500275    0.40000001    2.71000004
   17.54999924  125.78299713    0.36000001    2.71000004
   17.55305481  120.26000214    0.36000001    2.71000004
   17.55638885  119.11299896    0.36000001    2.71000004
   17.55972099  120.00199890    0.31999999    2.71000004
   17.56250000  119.21399689    0.34000000    2.71000004
   17.56333351  126.50700378    0.34000000    2.71000004
   17.56638718  123.94300079    0.36000001    2.71000004
   17.56972313  123.73500061    0.36000001    2.71000004
   17.57277870  122.74900055    0.38000000    2.71000004
   17.57611275  124.40899658    0.38000000    2.71000004
   17.57944489  127.90599823    0.36000001    2.71000004
   17.58250046  130.50199890    0.38000000    2.71000004
   17.58583450  124.75499725    0.38000000    2.71000004
   17.58916664  118.72399902    0.38000000    2.71000004
   17.59222221  129.51800537    0.38000000    2.71000004
   17.59555626  126.79499817    0.38000000    2.71000004
   17.59611130  122.90200043    0.38000000    2.71000004
   17.59916687  124.99700165    0.38000000    2.71000004
   17.60250092  110.56900024    0.38000000    2.71000004
   17.60583305  128.11500549    0.44000000    2.69000006
   17.60888863  121.95400238    0.47999999    2.71000004
   17.61222267  123.08200073    0.44000000    2.71000004
   17.61555672  119.99099731    0.41999999    2.71000004
   17.61861038  121.65200043    0.38000000    2.71000004
   17.62194443  119.82599640    0.38000000    2.71000004
   17.62500000  119.96499634    0.38000000    2.71000004
   17.62833405  126.23200226    0.38000000    2.69000006
   17.62944412  121.00599670    0.38000000    2.69000006
   17.63194466  121.74700165    0.40000001    2.71000004
   17.63527679  116.57800293    0.40000001    2.71000004
   17.63861084  124.15799713    0.40000001    2.71000004
   17.64166641  120.47799683    0.41999999    2.71000004
   17.64500046  119.40299988    0.41999999    2.71000004
   17.64805603  122.26399994    0.41999999    2.71000004
   17.65138817  118.34600067    0.44000000    2.71000004
   17.65472221  119.55400085    0.44000000    2.71000004
   17.65777779  121.91899872    0.47999999    2.71000004
   17.66110992  124.91899872    0.47999999    2.71000004
   17.66277695  120.53199768    0.47999999    2.71000004
   17.66472244  126.06900024    0.51999998    2.71000004
   17.66805458  128.56900024    0.55000001    2.71000004
   17.67138863  124.59200287    0.55000001    2.71000004
   17.67444420  129.52799988    0.55000001    2.69000006
   17.67777634  128.06500244    0.55000001    2.71000004
   17.68083191  122.02200317    0.55000001    2.71000004
   17.68416595  121.89600372    0.55000001    2.69000006
   17.68750000  120.00800323    0.56999999    2.69000006
   17.69055557  125.67700195    0.56999999    2.71000004
   17.69388771  129.67900085    0.58999997    2.69000006
   17.69610977  122.01100159    0.58999997    2.69000006
   17.69749832  124.26999664    0.58999997    2.69000006
   17.70083427  124.00499725    0.61000001    2.71000004
   17.70416832  121.83100128    0.63000000    2.71000004
   17.70722389  124.33799744    0.61000001    2.71000004
   17.71055603  125.58899689    0.58999997    2.71000004
   17.71361160  122.73300171    0.52999997    2.71000004
   17.71694565  131.64399719    0.51999998    2.71000004
   17.72027779  120.87000275    0.51999998    2.71000004
   17.72333336  118.72899628    0.50000000    2.71000004
   17.72666740  117.74800110    0.46000001    2.71000004
   17.74472237  128.70100403    0.36000001    2.71000004
   17.74638939  127.58300018    0.36000001    2.71000004
   17.74972153  129.48500061    0.36000001    2.71000004
   17.75277710  125.84899902    0.34000000    2.69000006
   17.75611115  128.89100647    0.31999999    2.71000004
   17.75916672  130.30099487    0.34000000    2.71000004
   17.76250076  125.40100098    0.40000001    2.71000004
   17.76583290  126.13300323    0.40000001    2.71000004
   17.76888847  119.92500305    0.40000001    2.71000004
   17.77222252  124.58300018    0.40000001    2.71000004
   17.77555466  123.42299652    0.40000001    2.71000004
   17.77805519  123.24800110    0.38000000    2.69000006
   17.77916718  120.86699677    0.38000000    2.69000006
   17.78222275  125.96399689    0.38000000    2.71000004
   17.78555489  123.68699646    0.38000000    2.69000006
   17.78861046  113.53900146    0.38000000    2.71000004
   17.79194450  133.17500305    0.44000000    2.71000004
   17.79527664  126.61699677    0.50000000    2.71000004
   17.79833221  122.97399902    0.50000000    2.69000006
   17.80166626  125.52799988    0.51999998    2.71000004
   17.80499840  114.37500000    0.51999998    2.71000004
   17.80805397  120.97000122    0.52999997    2.69000006
   17.81138802  126.53099823    0.73000002    2.71000004
   17.81194305  120.69000244    0.73000002    2.71000004
   17.81499863  123.24800110    0.73000002    2.71000004
   17.81833458  123.66799927    0.75000000    2.69000006
   17.82139015  117.42700195    0.75000000    2.69000006
   17.82472229  125.98699951    0.76999998    2.69000006
   17.82805634  124.98200226    0.81999999    2.71000004
   17.83111191  119.04100037    0.83999997    2.69000006
   17.83444595  122.80599976    1.53999996    2.69000006
   17.83777809  130.68899536    1.21000004    2.69000006
   17.84083366  111.09700012    1.21000004    2.69000006
   17.84416771  126.36199951    1.19000006    2.71000004
   17.84472275  120.40399933    1.19000006    2.69000006
   17.84777832  114.35700226    1.19000006    2.69000006
   17.85083389  123.88700104    0.69000000    2.69000006
   17.85416794  129.86099243    0.69000000    2.71000004
   17.85722351  119.60500336    0.64999998    2.71000004
   17.86055565  119.45899963    0.58999997    2.71000004
   17.86388969  122.55899811    0.46000001    2.71000004
   17.86722183  121.42700195    0.34000000    2.71000004
   17.87055588  118.14099884    0.34000000    2.71000004
   17.87361145  131.57299805    0.30000001    2.71000004
   17.87694550  120.84999847    0.31999999    2.71000004
   17.87805557  122.53399658    0.31999999    2.71000004
   17.88055611  120.32800293    0.34000000    2.71000004
   17.88388824  113.11299896    0.34000000    2.71000004
   17.88694382  118.46600342    0.34000000    2.71000004
   17.89027786  117.89900208    0.38000000    2.71000004
   17.89333344  131.29200745    0.38000000    2.71000004
   17.89666748  123.02999878    0.36000001    2.71000004
   17.89999962  126.31400299    0.34000000    2.71000004
   17.90305519  116.15200043    0.34000000    2.71000004
   17.90638924  121.02200317    0.36000001    2.71000004
   17.90972137  119.93699646    0.38000000    2.71000004
   17.91138840  125.21700287    0.38000000    2.71000004
   17.91333389  122.15499878    0.38000000    2.71000004
   17.91666603  136.94099426    0.41999999    2.71000004
   17.91972160  125.82499695    0.41999999    2.71000004
   17.92305565  135.83599854    0.41999999    2.71000004
   17.92638779  120.48300171    0.46000001    2.71000004
   17.92944336  116.33599854    0.47999999    2.71000004
   17.93277740  112.09100342    0.46000001    2.71000004
   17.93610954  120.83399963    0.47999999    2.71000004
   17.93916512  122.44799805    0.46000001    2.71000004
   17.94249916  123.53099823    0.47999999    2.71000004
   17.94472122  122.16100311    0.47999999    2.71000004
   17.94610977  121.94799805    0.47999999    2.71000004
   17.94916534  121.74900055    0.47999999    2.71000004
   17.95250130  120.18399811    0.47999999    2.69000006
   17.95583344  128.35400391    0.46000001    2.69000006
   17.95888901  117.53700256    0.41999999    2.71000004
   17.96222305  130.49200439    0.40000001    2.71000004
   17.96527863  137.14500427    0.40000001    2.71000004
   17.96861076  129.84899902    0.40000001    2.71000004
   17.97194481  123.21199799    0.40000001    2.71000004
   17.97500038  126.23799896    0.40000001    2.69000006
   17.97805595  118.27300262    0.38000000    2.71000004
   17.97888947  123.47499847    0.38000000    2.71000004
   17.98194504  125.23600006    0.38000000    2.71000004
   17.98527718  116.20999908    0.38000000    2.71000004
   17.98861122  125.28099823    0.38000000    2.71000004
   17.99166679  113.87799835    0.38000000    2.71000004
   17.99500084  119.34100342    0.36000001    2.71000004
   17.99805641  123.65399933    0.38000000    2.71000004
   18.00138855  123.29199982    0.38000000    2.69000006
   18.00472260  120.09500122    0.38000000    2.69000006
   18.00777817  115.96499634    0.38000000    2.69000006
   18.01111031  124.43699646    0.40000001    2.71000004
   18.01166725  119.48600006    0.40000001    2.71000004
   18.01472282  122.56800079    0.38000000    2.69000006
   18.01805496  123.78600311    0.38000000    2.69000006
   18.02138901  121.96700287    0.38000000    2.69000006
   18.02444458  122.03099823    0.40000001    2.71000004
   18.02777672  124.90200043    0.41999999    2.71000004
   18.03083229  124.52500153    0.44000000    2.69000006
   18.03416634  116.12599945    0.46000001    2.71000004
   18.03750038  125.30300140    0.46000001    2.71000004
   18.04055595  126.94799805    0.47999999    2.71000004
   18.04388809  119.67099762    0.47999999    2.69000006
   18.04500008  125.99400330    0.47999999    2.69000006
   18.04722214  119.05100250    0.50000000    2.69000006
   18.05055428  123.52100372    0.50000000    2.69000006
   18.05388832  127.74400330    0.47999999    2.71000004
   18.05694389  126.45200348    0.46000001    2.71000004
   18.06027794  120.12400055    0.44000000    2.71000004
   18.06361008  121.14600372    0.44000000    2.71000004
   18.06666756  116.00599670    0.44000000    2.71000004
   18.07000160  124.40899658    0.46000001    2.69000006
   18.07305717  118.32700348    0.46000001    2.71000004
   18.07638931  115.44899750    0.46000001    2.71000004
   18.07833481  119.91400146    0.47999999    2.71000004
   18.08027840  124.90599823    0.47999999    2.71000004
   18.08333397  119.90699768    0.46000001    2.71000004
   18.08666801  121.13600159    0.47999999    2.69000006
   18.08972359  122.43800354    0.46000001    2.69000006
   18.09333420  118.16500092    0.44000000    2.69000006
   18.09638977  121.30100250    0.44000000    2.71000004
   18.09972191  119.72200012    0.44000000    2.71000004
   18.10277748  122.99700165    0.44000000    2.69000006
   18.10611153  119.70500183    0.41999999    2.69000006
   18.10944557  121.08200073    0.40000001    2.69000006
   18.11166763  120.76899719    0.40000001    2.71000004
   18.11277771  117.42099762    0.40000001    2.71000004
   18.11611176  121.63899994    0.40000001    2.71000004
   18.11944389  118.44899750    0.40000001    2.69000006
   18.12249947  119.64900208    0.40000001    2.69000006
   18.12583351  120.08399963    0.40000001    2.69000006
   18.12888908  119.26200104    0.38000000    2.71000004
   18.13222313  120.94300079    0.36000001    2.69000006
   18.13555527  122.80400085    0.31999999    2.67000008
   18.13861084  131.86900330    0.31999999    2.69000006
   18.14194489  118.05000305    0.31999999    2.69000006
   18.14500046  121.06300354    0.31999999    2.69000006
   18.14555550  124.79799652    0.31999999    2.69000006
   18.14888954  123.13400269    0.31999999    2.71000004
   18.15222168  119.80200195    0.31999999    2.71000004
   18.15527725  122.42900085    0.30000001    2.71000004
   18.15861130  120.23799896    0.30000001    2.71000004
   18.16166687  117.49800110    0.30000001    2.71000004
   18.16499901  125.84799957    0.30000001    2.69000006
   18.16833305  121.74500275    0.30000001    2.69000006
   18.17138863  122.04499817    0.30000001    2.69000006
   18.17472076  122.02400208    0.30000001    2.71000004
   18.17805481  125.06400299    0.30000001    2.67000008
   18.17860985  120.85700226    0.30000001    2.67000008
   18.18194389  123.68099976    0.31999999    2.71000004
   18.18527603  124.00199890    0.31999999    2.71000004
   18.18861008  120.36199951    0.31999999    2.67000008
   18.19166565  122.84400177    0.31999999    2.67000008
   18.19499969  123.82599640    0.31999999    2.69000006
   18.19805527  125.13300323    0.34000000    2.69000006
   18.20138931  121.35500336    0.34000000    2.71000004
   18.20472336  122.78500366    0.34000000    2.69000006
   18.20777893  122.30999756    0.34000000    2.69000006
   18.21111107  138.79100037    0.34000000    2.69000006
   18.21194458  122.75700378    0.34000000    2.69000006
   18.21472359  126.18800354    0.34000000    2.69000006
   18.21805573  124.88400269    0.34000000    2.69000006
   18.22111130  129.03500366    0.34000000    2.69000006
   18.22444534  130.13499451    0.34000000    2.71000004
   18.22750092  125.41400146    0.34000000    2.69000006
   18.23083305  123.52200317    0.34000000    2.69000006
   18.23416710  115.41000366    0.36000001    2.69000006
   18.23722267  123.92700195    0.36000001    2.69000006
   18.24055672  119.18499756    0.36000001    2.69000006
   18.24388885  113.04399872    0.36000001    2.69000006
   18.24527740  114.65299988    0.36000001    2.69000006
   18.24749947  123.06300354    0.36000001    2.69000006
   18.25055504  124.00199890    0.36000001    2.67000008
   18.25388908  124.79699707    0.36000001    2.69000006
   18.25694466  124.75000000    0.36000001    2.69000006
   18.26027870  121.37799835    0.36000001    2.69000006
   18.26361084  124.41000366    0.36000001    2.69000006
   18.26666641  117.50900269    0.34000000    2.71000004
   18.27000046  124.70400238    0.36000001    2.71000004
   18.27333260  121.10600281    0.36000001    2.69000006
   18.27638817  119.92500305    0.36000001    2.69000006
   18.27861023  122.42900085    0.36000001    2.69000006
   18.28027725  122.88800049    0.36000001    2.69000006
   18.28333282  120.38600159    0.36000001    2.69000006
   18.28666687  122.99700165    0.34000000    2.69000006
   18.28972244  122.06900024    0.36000001    2.69000006
   18.29305458  118.12699890    0.36000001    2.67000008
   18.29638863  122.11900330    0.36000001    2.69000006
   18.29944420  118.49099731    0.36000001    2.69000006
   18.30277634  120.34100342    0.34000000    2.69000006
   18.30611038  114.90100098    0.31999999    2.69000006
   18.30916595  120.90299988    0.30000001    2.69000006
   18.31194305  118.16000366    0.30000001    2.69000006
   18.31305504  125.20400238    0.30000001    2.69000006
   18.31611061  125.60099792    0.30000001    2.69000006
   18.31944466  126.97100067    0.31999999    2.69000006
   18.32277870  120.83899689    0.31999999    2.69000006
   18.32583427  124.16500092    0.31999999    2.69000006
   18.32916832  126.56400299    0.34000000    2.69000006
   18.33250046  123.94699860    0.36000001    2.69000006
   18.33555603  120.41799927    0.36000001    2.67000008
   18.33889008  119.78500366    0.36000001    2.67000008
   18.34194565  117.85399628    0.38000000    2.67000008
   18.34527779  121.11699677    0.38000000    2.69000006
   18.34583473  111.20899963    0.38000000    2.69000006
   18.34889030  112.68800354    0.38000000    2.69000006
   18.35222244  117.43399811    0.40000001    2.69000006
   18.35555649  123.50199890    0.41999999    2.69000006
   18.35861206  127.21499634    0.44000000    2.69000006
   18.36194420  130.04100037    0.47999999    2.69000006
   18.36499977  112.94699860    0.47999999    2.69000006
   18.36833382  122.05699921    0.47999999    2.69000006
   18.37166595  123.36000061    0.50000000    2.69000006
   18.37472153  123.93599701    0.55000001    2.67000008
   18.37805557  131.20500183    0.58999997    2.69000006
   18.37861061  125.65899658    0.58999997    2.69000006
   18.38166618  126.97699738    0.58999997    2.69000006
   18.38500023  113.79000092    0.61000001    2.67000008
   18.38833237  126.60600281    0.58999997    2.67000008
   18.39138794  115.92900085    0.58999997    2.67000008
   18.39472198  126.58699799    0.55000001    2.69000006
   18.39777756  119.04399872    0.51999998    2.69000006
   18.40111160  120.66100311    0.50000000    2.69000006
   18.40444374  117.41799927    0.50000000    2.69000006
   18.40749931  113.78199768    0.50000000    2.67000008
   18.41083336  123.74800110    0.50000000    2.69000006
   18.41194344  118.58799744    0.50000000    2.69000006
   18.41444397  120.51599884    0.50000000    2.69000006
   18.41749954  123.05300140    0.46000001    2.67000008
   18.42083359  121.61499786    0.44000000    2.67000008
   18.42416573  119.44100189    0.41999999    2.69000006
   18.42722130  123.42800140    0.44000000    2.67000008
   18.43055534  119.86699677    0.44000000    2.69000006
   18.43361092  122.00199890    0.44000000    2.69000006
   18.43694305  121.09899902    0.44000000    2.69000006
   18.44027710  122.98600006    0.47999999    2.69000006
   18.44333267  126.45300293    0.51999998    2.67000008
   18.44527626  121.21099854    0.51999998    2.67000008
   18.44722176  125.86799622    0.51999998    2.67000008
   18.45027924  118.55000305    0.51999998    2.67000008
   18.45361137  124.15799713    0.47999999    2.67000008
   18.45694542  119.05200195    0.41999999    2.67000008
   18.46000099  124.35099792    0.40000001    2.69000006
   18.46333504  130.93200684    0.40000001    2.69000006
   18.46666718  126.60500336    0.40000001    2.69000006
   18.46972275  114.36399841    0.41999999    2.69000006
   18.47305679  121.63800049    0.41999999    2.69000006
   18.47638893  124.76300049    0.36000001    2.67000008
   18.47861099  122.09200287    0.38000000    2.69000006
   18.48000145  117.64399719    0.38000000    2.69000006
   18.48305511  125.52999878    0.38000000    2.67000008
   18.48638916  120.36699677    0.41999999    2.67000008
   18.48972321  121.59600067    0.46000001    2.69000006
   18.49277878  129.04299927    0.47999999    2.69000006
   18.49611092  126.16500092    0.55000001    2.67000008
   18.49944496  120.20099640    0.55000001    2.67000008
   18.50250053  123.18199921    0.55000001    2.67000008
   18.50583267  122.83899689    0.52999997    2.67000008
   18.50888824  116.60399628    0.52999997    2.67000008
   18.51194382  125.77600098    0.52999997    2.67000008
   18.51277733  124.46299744    0.52999997    2.67000008
   18.51583290  128.91200256    0.55000001    2.67000008
   18.51916695  119.18800354    0.52999997    2.67000008
   18.52249908  120.94599915    0.55000001    2.67000008
   18.52555466  123.05400085    0.55000001    2.67000008
   18.52888870  126.54299927    0.52999997    2.69000006
   18.53222275  127.59300232    0.50000000    2.67000008
   18.53527641  122.34500122    0.50000000    2.67000008
   18.53861046  123.10700226    0.47999999    2.67000008
   18.54166603  121.93299866    0.46000001    2.67000008
   18.54500008  127.68900299    0.44000000    2.67000008
   18.54555511  128.60800171    0.44000000    2.67000008
   18.54861069  129.14399719    0.41999999    2.69000006
   18.55194283  132.62500000    0.40000001    2.67000008
   18.55527687  129.88800049    0.38000000    2.69000006
   18.55833244  127.70899963    0.36000001    2.67000008
   18.56166649  123.63700104    0.36000001    2.67000008
   18.56472206  129.53199768    0.36000001    2.67000008
   18.56805611  130.43499756    0.36000001    2.69000006
   18.57139015  129.68899536    0.36000001    2.67000008
   18.57444572  133.93600464    0.36000001    2.67000008
   18.57777786  124.59700012    0.40000001    2.67000008
   18.57888985  127.05599976    0.40000001    2.67000008
   18.58111191  134.40299988    0.40000001    2.69000006
   18.58444595  132.24200439    0.40000001    2.67000008
   18.58777809  127.38099670    0.40000001    2.67000008
   18.59083366  124.50900269    0.41999999    2.67000008
   18.59416771  132.18099976    0.41999999    2.67000008
   18.59749985  125.72699738    0.41999999    2.67000008
   18.60055542  123.34899902    0.41999999    2.67000008
   18.60388947  121.69400024    0.41999999    2.67000008
   18.60694504  128.69599915    0.41999999    2.67000008
   18.61027908  130.53199768    0.44000000    2.69000006
   18.61222267  126.78199768    0.46000001    2.67000008
   18.61388969  128.31700134    0.46000001    2.67000008
   18.61722183  123.85900116    0.55000001    2.67000008
   18.62055588  121.81400299    0.89999998    2.67000008
   18.62361145  118.58300018    0.83999997    2.67000008
   18.62694550  128.97799683    0.76999998    2.67000008
   18.63000107  128.81300354    0.76999998    2.67000008
   18.63333321  126.68000031    0.76999998    2.67000008
   18.63694382  120.91999817    0.76999998    2.67000008
   18.63999939  125.66200256    0.80000001    2.67000008
   18.64333344  121.48999786    0.73000002    2.67000008
   18.64583397  124.95300293    0.73000002    2.67000008
   18.64749908  125.66799927    0.73000002    2.67000008
   18.65055466  126.47699738    0.73000002    2.67000008
   18.65388870  127.79199982    0.70999998    2.67000008
   18.65694427  125.59300232    0.56999999    2.67000008
   18.66027832  122.82499695    0.47999999    2.67000008
   18.66361046  118.27400208    0.47999999    2.67000008
   18.66666603  122.52400208    0.47999999    2.67000008
   18.67000008  129.35099792    0.47999999    2.67000008
   18.67333221  124.86100006    0.47999999    2.67000008
   18.67638779  126.00900269    0.44000000    2.67000008
   18.67888832  120.63400269    0.44000000    2.67000008
   18.68000031  127.08300018    0.44000000    2.66000009
   18.68333244  133.19099426    0.44000000    2.67000008
   18.68666649  134.89399719    0.44000000    2.67000008
   18.68972206  126.53099823    0.44000000    2.67000008
   18.69305420  132.96200562    0.44000000    2.67000008
   18.69610977  127.42199707    0.44000000    2.67000008
   18.69944382  124.08499908    0.44000000    2.67000008
   18.70277786  126.74500275    0.44000000    2.66000009
   18.70583344  123.98999786    0.41999999    2.67000008
   18.70916748  120.09799957    0.41999999    2.69000006
   18.71222305  127.50900269    0.41999999    2.67000008
   18.71250153  127.58799744    0.41999999    2.67000008
   18.71583366  123.77799988    0.41999999    2.67000008
   18.71916771  125.63999939    0.41999999    2.67000008
   18.72222328  134.43899536    0.50000000    2.67000008
   18.72555542  134.40299988    0.44000000    2.67000008
   18.72861099  126.79299927    0.38000000    2.67000008
   18.73194504  122.11900330    0.38000000    2.67000008
   18.73527718  127.97599792    0.40000001    2.67000008
   18.73833275  119.89800262    0.40000001    2.67000008
   18.74166679  128.36500549    0.40000001    2.66000009
   18.76138878  122.78099823    0.38000000    2.67000008
   18.76166725  119.72899628    0.38000000    2.67000008
   18.76499939  125.11399841    0.38000000    2.67000008
   18.76833344  127.12599945    0.38000000    2.67000008
   18.77138901  126.32599640    0.36000001    2.67000008
   18.77472115  128.02799988    0.38000000    2.67000008
   18.77805519  128.39599609    0.38000000    2.67000008
   18.78111076  126.80000305    0.38000000    2.67000008
   18.78444481  132.91000366    0.38000000    2.67000008
   18.78750038  115.39199829    0.38000000    2.67000008
   18.79083252  128.79100037    0.38000000    2.67000008
   18.79416656  134.33399963    0.38000000    2.67000008
   18.79500008  129.32699585    0.38000000    2.67000008
   18.79777718  135.04100037    0.38000000    2.66000009
   18.80111122  124.82599640    0.38000000    2.67000008
   18.80416679  130.58999634    0.38000000    2.67000008
   18.80749893  133.39999390    0.38000000    2.67000008
   18.81083298  133.85200500    0.38000000    2.67000008
   18.81388855  129.37600708    0.38000000    2.67000008
   18.81722260  125.98000336    0.38000000    2.67000008
   18.82027817  133.38699341    0.38000000    2.67000008
   18.82361221  138.32800293    0.38000000    2.66000009
   18.82694626  132.11199951    0.40000001    2.66000009
   18.82833481  125.27700043    0.40000001    2.66000009
   18.83055687  127.84500122    0.40000001    2.66000009
   18.83388901  131.58000183    0.40000001    2.66000009
   18.83694458  129.40699768    0.41999999    2.66000009
   18.84027863  134.49000549    0.41999999    2.66000009
   18.84361267  134.05299377    0.40000001    2.66000009
   18.84666824  138.80700684    0.40000001    2.67000008
   18.85000038  123.28800201    0.40000001    2.67000008
   18.85305595  131.66700745    0.41999999    2.67000008
   18.85639000  130.67300415    0.41999999    2.67000008
   18.85972214  136.12399292    0.40000001    2.66000009
   18.86194420  136.64500427    0.40000001    2.66000009
   18.86333466  129.91000366    0.40000001    2.66000009
   18.86666679  127.43599701    0.41999999    2.66000009
   18.86972237  135.31100464    0.46000001    2.66000009
   18.87305641  125.61299896    0.46000001    2.66000009
   18.87638855  130.29100037    0.47999999    2.66000009
   18.87944412  126.30400085    0.47999999    2.66000009
   18.88277817  120.66200256    0.46000001    2.66000009
   18.88583374  126.52799988    0.46000001    2.66000009
   18.88916588  130.46899414    0.46000001    2.66000009
   18.89249992  124.95300293    0.46000001    2.66000009
   18.89500046  124.23500061    0.46000001    2.66000009
   18.89611053  125.59600067    0.46000001    2.67000008
   18.89944458  128.23100281    0.46000001    2.67000008
   18.90250015  130.35499573    0.46000001    2.66000009
   18.90583229  134.86999512    0.46000001    2.66000009
   18.90916634  125.36699677    0.46000001    2.66000009
   18.91222191  127.41500092    0.46000001    2.67000008
   18.91555595  126.83699799    0.46000001    2.66000009
   18.91860962  129.47900391    0.46000001    2.67000008
   18.92194366  125.23000336    0.46000001    2.67000008
   18.92527771  122.12000275    0.46000001    2.66000009
   18.92860985  128.91099548    0.46000001    2.66000009
   18.92888832  125.33799744    0.46000001    2.66000009
   18.93222237  134.16299438    0.46000001    2.67000008
   18.93527603  128.02000427    0.46000001    2.66000009
   18.93861008  124.41600037    0.44000000    2.66000009
   18.94194412  125.00299835    0.44000000    2.66000009
   18.94499969  128.87899780    0.46000001    2.66000009
   18.94833183  121.98000336    0.46000001    2.66000009
   18.95138931  138.37399292    0.46000001    2.66000009
   18.95472336  133.38900757    0.46000001    2.66000009
   18.95805550  128.31500244    0.46000001    2.66000009
   18.96111107  127.08799744    0.46000001    2.66000009
   18.96194458  125.07900238    0.46000001    2.66000009
   18.96472359  126.28600311    0.46000001    2.66000009
   18.96805573  117.32399750    0.46000001    2.66000009
   18.97111130  117.56999969    0.46000001    2.66000009
   18.97444534  118.66799927    0.46000001    2.66000009
   18.97777748  134.87300110    0.47999999    2.64000010
   18.98083305  126.10199738    0.47999999    2.66000009
   18.98416710  123.52899933    0.47999999    2.66000009
   18.98750114  130.03399658    0.47999999    2.64000010
   18.99055672  129.33200073    0.47999999    2.66000009
   18.99388885  123.28199768    0.47999999    2.66000009
   18.99527740  122.62400055    0.47999999    2.66000009
   18.99749947  123.92500305    0.47999999    2.66000009
   19.00083351  124.05000305    0.50000000    2.66000009
   19.00416756  126.10299683    0.47999999    2.66000009
   19.00722313  137.77000427    0.47999999    2.66000009
   19.01055527  130.32099915    0.47999999    2.66000009
   19.01388931  131.21000671    0.47999999    2.66000009
   19.01694489  134.77600098    0.47999999    2.66000009
   19.02027702  116.14199829    0.47999999    2.66000009
   19.02333260  126.04199982    0.47999999    2.66000009
   19.02666664  135.23199463    0.47999999    2.66000009
   19.02861023  138.31500244    0.47999999    2.66000009
   19.03027725  124.95099640    0.46000001    2.64000010
   19.03361130  131.90699768    0.46000001    2.64000010
   19.03666687  131.97799683    0.44000000    2.67000008
   19.03999901  124.48799896    0.46000001    2.66000009
   19.04333305  131.63699341    0.46000001    2.64000010
   19.04638863  129.13299561    0.44000000    2.66000009
   19.04972076  132.75000000    0.44000000    2.64000010
   19.05305481  129.27499390    0.44000000    2.66000009
   19.05611038  123.13600159    0.44000000    2.66000009
   19.05944443  125.77899933    0.44000000    2.64000010
   19.06194305  121.97399902    0.44000000    2.66000009
   19.06277657  129.08000183    0.44000000    2.66000009
   19.06611061  125.37400055    0.44000000    2.64000010
   19.06944466  133.08900452    0.46000001    2.66000009
   19.07250023  126.66699982    0.46000001    2.64000010
   19.07583427  124.43599701    0.44000000    2.64000010
   19.07888985  132.41200256    0.46000001    2.64000010
   19.08222389  132.84100342    0.46000001    2.66000009
   19.08555603  135.42199707    0.46000001    2.66000009
   19.08861160  126.74199677    0.46000001    2.66000009
   19.09194565  129.79200745    0.47999999    2.66000009
   19.09527779  130.15100098    0.47999999    2.64000010
   19.09555626  128.25500488    0.47999999    2.64000010
   19.09889030  123.65100098    0.47999999    2.64000010
   19.10222244  124.62799835    0.47999999    2.64000010
   19.10527802  131.49800110    0.47999999    2.64000010
   19.10861206  129.33799744    0.50000000    2.64000010
   19.11194420  132.71499634    0.47999999    2.64000010
   19.11499977  133.91799927    0.47999999    2.64000010
   19.11833382  132.80799866    0.47999999    2.64000010
   19.12138939  124.99199677    0.47999999    2.64000010
   19.12472153  134.95599365    0.47999999    2.64000010
   19.12805557  131.24400330    0.47999999    2.64000010
   19.12888908  121.10700226    0.47999999    2.64000010
   19.13166618  127.64299774    0.47999999    2.64000010
   19.13500023  135.96499634    0.47999999    2.64000010
   19.13805580  132.37800598    0.47999999    2.64000010
   19.14138794  130.98699951    0.47999999    2.64000010
   19.14472198  127.55000305    0.46000001    2.64000010
   19.14777756  133.02499390    0.46000001    2.64000010
   19.15111160  133.39300537    0.44000000    2.66000009
   19.15416718  116.14499664    0.44000000    2.64000010
   19.15749931  135.18499756    0.44000000    2.64000010
   19.16083336  135.33200073    0.44000000    2.64000010
   19.16222191  129.97900391    0.46000001    2.66000009
   19.16444397  124.06800079    0.46000001    2.66000009
   19.16777802  128.10800171    0.46000001    2.64000010
   19.17083359  133.55000305    0.46000001    2.64000010
   19.17416573  128.58999634    0.47999999    2.64000010
   19.17749977  122.73200226    0.47999999    2.64000010
   19.18055534  125.26200104    0.47999999    2.64000010
   19.18388748  127.56900024    0.46000001    2.64000010
   19.18694305  131.51800537    0.47999999    2.64000010
   19.19027710  134.99600220    0.47999999    2.64000010
   19.19361115  129.66499329    0.47999999    2.64000010
   19.19555473  139.16700745    0.47999999    2.64000010
   19.19722176  132.31599426    0.47999999    2.64000010
   19.20055580  134.42399597    0.46000001    2.66000009
   19.20361137  129.07499695    0.46000001    2.64000010
   19.20694542  126.09600067    0.46000001    2.64000010
   19.21000099  120.47200012    0.46000001    2.64000010
   19.21333504  120.30899811    0.46000001    2.64000010
   19.21666718  130.49699402    0.47999999    2.64000010
   19.21972275  131.83799744    0.50000000    2.64000010
   19.22305679  129.43699646    0.51999998    2.64000010
   19.22638893  122.34100342    0.51999998    2.64000010
   19.22888947  126.90699768    0.52999997    2.64000010
   19.22972298  125.26599884    0.52999997    2.64000010
   19.23305511  129.75799561    0.52999997    2.64000010
   19.23611069  120.12300110    0.51999998    2.64000010
   19.23944473  124.08000183    0.51999998    2.64000010
   19.24277878  132.29600525    0.52999997    2.64000010
   19.24583435  122.19100189    0.52999997    2.61999989
   19.24916649  132.63600159    0.51999998    2.64000010
   19.25222206  123.46700287    0.51999998    2.64000010
   19.25555611  133.01300049    0.51999998    2.64000010
   19.25888824  130.49899292    0.52999997    2.64000010
   19.26194382  119.85800171    0.52999997    2.64000010
   19.26250076  127.65100098    0.52999997    2.64000010
   19.26583290  129.89700317    0.52999997    2.64000010
   19.26888847  128.98300171    0.55000001    2.64000010
   19.27222252  125.62500000    0.55000001    2.64000010
   19.27555466  122.79399872    0.52999997    2.64000010
   19.27861023  120.84799957    0.55000001    2.64000010
   19.28194427  120.01100159    0.61000001    2.64000010
   19.28499985  122.41200256    0.64999998    2.64000010
   19.28833199  127.87899780    0.67000002    2.64000010
   19.29166603  127.61499786    0.67000002    2.64000010
   19.29472160  125.69599915    0.64999998    2.61999989
   19.29583359  122.51300049    0.63000000    2.64000010
   19.29833221  137.89500427    0.63000000    2.64000010
   19.30138779  126.38999939    0.63000000    2.64000010
   19.30472183  128.83099365    0.58999997    2.64000010
   19.30805397  125.78700256    0.56999999    2.61999989
   19.31110954  121.56199646    0.58999997    2.61999989
   19.31444359  123.63600159    0.58999997    2.64000010
   19.31750107  130.57899475    0.58999997    2.64000010
   19.32083511  123.36900330    0.58999997    2.64000010
   19.32416725  122.65699768    0.56999999    2.64000010
   19.32722282  130.92799377    0.55000001    2.61999989
   19.32916832  116.29199982    0.55000001    2.61999989
   19.33111191  126.89800262    0.55000001    2.64000010
   19.33416748  117.94200134    0.52999997    2.64000010
   19.33750153  126.90599823    0.52999997    2.64000010
   19.34083366  122.65000153    0.52999997    2.64000010
   19.34388924  125.79199982    0.52999997    2.61999989
   19.34722328  121.56400299    0.52999997    2.61999989
   19.35027885  124.83899689    0.52999997    2.61999989
   19.35361099  121.84500122    0.52999997    2.61999989
   19.35694504  124.88899994    0.52999997    2.61999989
   19.36000061  116.48600006    0.52999997    2.61999989
   19.36250114  123.02899933    0.51999998    2.61999989
   19.36388969  125.28800201    0.51999998    2.61999989
   19.36694527  130.44200134    0.51999998    2.61999989
   19.37027740  121.13300323    0.51999998    2.61999989
   19.37361145  117.47599792    0.51999998    2.61999989
   19.37666702  116.08499908    0.55000001    2.61999989
   19.38000107  122.02700043    0.55000001    2.61999989
   19.38305473  117.90699768    0.55000001    2.61999989
   19.38638878  127.83899689    0.52999997    2.61999989
   19.38972282  124.35500336    0.55000001    2.61999989
   19.39305496  126.43199921    0.52999997    2.64000010
   19.39583397  118.34100342    0.51999998    2.61999989
   19.39666748  127.99199677    0.51999998    2.61999989
   19.39999962  120.08100128    0.52999997    2.64000010
   19.40333366  120.11799622    0.52999997    2.64000010
   19.40666580  121.96700287    0.52999997    2.61999989
   19.40972137  119.86100006    0.55000001    2.61999989
   19.41305542  124.72200012    0.58999997    2.61999989
   19.41638756  124.30599976    0.63000000    2.61999989
   19.41944313  118.81999969    0.64999998    2.61999989
   19.42277718  133.89199829    0.64999998    2.61999989
   19.42611122  126.00399780    0.69000000    2.61999989
   19.42916679  121.54499817    0.73000002    2.61999989
   19.42972183  126.72299957    0.73000002    2.61999989
   19.43305397  124.24600220    0.75000000    2.64000010
   19.43610954  113.24099731    0.75000000    2.61999989
   19.43944359  125.00900269    0.70999998    2.61999989
   19.44249916  115.85600281    0.70999998    2.61999989
   19.44583321  117.39499664    0.70999998    2.61999989
   19.44916534  121.11900330    0.70999998    2.61999989
   19.45222282  120.08000183    0.67000002    2.61999989
   19.45555687  136.29800415    0.63000000    2.61999989
   19.45888901  120.64600372    0.56999999    2.64000010
   19.46194458  125.58499908    0.56999999    2.61999989
   19.46250153  118.96900177    0.56999999    2.61999989
   19.46555710  122.80200195    0.56999999    2.61999989
   19.46861076  111.46299744    0.56999999    2.61999989
   19.47194481  129.19299316    0.58999997    2.61999989
   19.47527885  130.22799683    0.61000001    2.59999990
   19.47833443  118.41400146    0.69000000    2.59999990
   19.48166656  121.34999847    0.69000000    2.61999989
   19.48500061  120.77999878    0.69000000    2.61999989
   19.48805618  118.08899689    0.69000000    2.61999989
   19.49138832  117.46299744    0.79000002    2.61999989
   19.49472237  126.82499695    4.90999985    2.64000010
   19.49583435  119.93399811    4.90999985    2.64000010
   19.49833298  127.80300140    4.90999985    2.64000010
   19.50138855  151.87100220    4.90999985    2.42000008
   19.50472260  135.64999390    4.90999985    2.30999994
   19.50805473  188.76199341    4.90999985    2.25000000
   19.51111031  191.44000244    4.90999985    2.26999998
   19.51444435  160.56199646    4.90999985    2.21000004
