    HOUR (UT)   FLARE FACTOR    SKY TESTER    SUN TESTER
   11.78305531   -1.00000000   -1.00000000   -1.00000000
   11.82388878   -1.00000000    1.13000000    2.00000000
   11.82694435  171.78999329    1.13000000    2.01999998
   11.83027744  204.64399719    1.13000000    2.01999998
   11.83361053  175.38499451    1.13000000    2.00000000
   11.83666611  170.86500549    1.13000000    2.01999998
   11.84083271  170.86500549    1.13000000    2.00000000
   11.84499931  169.82600403    1.14999998    2.01999998
   11.84833336  182.06700134    1.14999998    2.01999998
   11.85138893  182.17599487    1.14999998    2.01999998
   11.85361195  177.96400452    1.14999998    2.01999998
   11.85500050  174.58500671    1.14999998    2.01999998
   11.85833359  175.52999878    1.14999998    2.01999998
   11.86138916  187.00399780    1.14999998    2.01999998
   11.86472225  146.99000549    1.16999996    2.03999996
   11.86805534  161.60699463    1.14999998    2.03999996
   11.87111092  173.32000732    1.14999998    2.03999996
   11.87444496  160.70599365    1.13000000    2.05999994
   11.87777805  153.66000366    1.14999998    2.03999996
   11.88361073  153.66000366    1.13000000    2.05999994
   11.88777733  171.08299255    1.13000000    2.05999994
   11.89111137  152.84300232    1.13000000    2.03999996
   11.89444447  153.71099854    1.13000000    2.05999994
   11.89750004  188.39399719    1.13000000    2.05999994
   11.90083313  159.61999512    1.11000001    2.05999994
   11.90388870  177.39500427    1.11000001    2.07999992
   11.90722179  190.61000061    1.09000003    2.07999992
   11.91055489  175.61599731    1.09000003    2.07999992
   11.91361046  179.96800232    1.09000003    2.07999992
   11.91694450  197.99600220    1.09000003    2.07999992
   11.92027855  188.68400574    1.07000005    2.07999992
   11.92083359  156.58200073    1.07000005    2.07999992
   11.92666721  156.58200073    1.07000005    2.07999992
   11.93083382  203.13000488    1.07000005    2.09999990
   11.93388939  181.73500061    1.07000005    2.09999990
   11.93722248  156.98199463    1.07000005    2.09999990
   11.94055557  187.64900208    1.07000005    2.09999990
   11.94361115  174.83099365    1.07000005    2.09999990
   11.94694424  146.83999634    1.05999994    2.09999990
   11.94999981  189.85400391    1.05999994    2.09999990
   11.95333290  172.88699341    1.05999994    2.09999990
   11.95416641  162.84599304    1.05999994    2.09999990
   11.95694447  189.08999634    1.05999994    2.09999990
   11.96027756  181.52799988    1.05999994    2.09999990
   11.96333313  166.63800049    1.05999994    2.09999990
   11.96944427  166.63800049    1.03999996    2.11999989
   11.97361088  181.17300415    1.03999996    2.11999989
   11.97666645  151.14799500    1.03999996    2.11999989
   11.97999954  185.40499878    1.03999996    2.13000011
   11.98333359  185.53300476    1.03999996    2.11999989
   11.98666668  150.77299500    1.03999996    2.11999989
   11.98750019  161.37100220    1.03999996    2.11999989
   11.99027824  167.24000549    1.03999996    2.11999989
   11.99361134  144.82099915    1.03999996    2.11999989
   11.99666691  168.84399414    1.03999996    2.11999989
   12.00000000  164.75900269    1.01999998    2.13000011
   12.00333309  171.95700073    1.01999998    2.13000011
   12.00638866  163.09800720    1.01999998    2.13000011
   12.01222229  163.09800720    1.01999998    2.13000011
   12.01638889  155.37699890    1.01999998    2.13000011
   12.01972198  156.52299500    1.01999998    2.13000011
   12.02083302  153.72200012    1.01999998    2.13000011
   12.02305508  153.79600525    1.01999998    2.13000011
   12.02638817  157.35800171    1.01999998    2.13000011
   12.02972221  171.94200134    1.01999998    2.13000011
   12.03277779  164.48300171    1.00000000    2.15000010
   12.03611183  159.58599854    1.00000000    2.15000010
   12.03916740  155.58999634    1.00000000    2.15000010
   12.04250050  169.59399414    1.00000000    2.15000010
   12.04583359  183.76300049    0.98000002    2.15000010
   12.04888916  158.21200562    1.00000000    2.17000008
   12.05500031  158.21200562    0.98000002    2.15000010
   12.05916691  162.16999817    0.98000002    2.15000010
   12.06250000  169.55400085    1.00000000    2.17000008
   12.06555557  165.91299438    1.00000000    2.17000008
   12.06888866  176.85099792    1.00000000    2.17000008
   12.07222176  157.03700256    1.00000000    2.17000008
   12.07527733  171.50000000    1.00000000    2.17000008
   12.07861137  160.40899658    1.01999998    2.17000008
   12.08194447  144.27499390    1.00000000    2.17000008
   12.08500004  170.90800476    1.00000000    2.17000008
   12.08749962  172.83599854    1.00000000    2.17000008
   12.08861065  147.84800720    1.00000000    2.17000008
   12.09194374  162.17900085    1.00000000    2.17000008
   12.09805489  162.17900085    0.98000002    2.17000008
   12.10222244  169.84500122    0.98000002    2.19000006
   12.10527802  148.95700073    0.98000002    2.19000006
   12.10861111  156.71899414    0.98000002    2.19000006
   12.11166668  155.90100098    0.98000002    2.21000004
   12.11500072  160.50900269    0.98000002    2.21000004
   12.11833382  164.33399963    0.98000002    2.21000004
   12.12083340  162.72500610    0.95999998    2.19000006
   12.12166691  159.57699585    0.95999998    2.19000006
   12.12500000  151.30000305    0.95999998    2.19000006
   12.12805557  161.00399780    0.95999998    2.19000006
   12.13138866  188.76100159    0.95999998    2.21000004
   12.13472176  173.57899475    0.95999998    2.21000004
   12.14111137  173.57899475    0.95999998    2.21000004
   12.14527798  171.92399597    0.94000000    2.21000004
   12.14833355  153.78300476    0.94000000    2.21000004
   12.15166664  153.07499695    0.94000000    2.21000004
   12.15416622  152.14999390    0.94000000    2.21000004
   12.15555477  153.12199402    0.94000000    2.21000004
   12.15888882  160.26800537    0.94000000    2.21000004
   12.16194439  152.89199829    0.94000000    2.23000002
   12.16527748  147.04499817    0.94000000    2.23000002
   12.16861153  164.87699890    0.94000000    2.23000002
   12.17166710  152.53199768    0.94000000    2.23000002
   12.17500019  137.30599976    0.94000000    2.23000002
   12.17805576  151.28300476    0.94000000    2.23000002
   12.18361092  151.28300476    0.94000000    2.23000002
   12.18777752  145.11999512    0.92000002    2.23000002
   12.19111156  143.41799927    0.92000002    2.23000002
   12.19416714  145.97500610    0.92000002    2.23000002
   12.19750023  150.61999512    0.92000002    2.23000002
   12.20083332  152.02400208    0.92000002    2.23000002
   12.20388889  158.98500061    0.92000002    2.23000002
   12.20722198  145.33500671    0.92000002    2.25000000
   12.21055508  151.38600159    0.92000002    2.25000000
   12.21361065  144.58000183    0.92000002    2.25000000
   12.21694374  148.81599426    0.92000002    2.25000000
   12.21999931  146.18899536    0.92000002    2.25000000
   12.22083282  163.74000549    0.92000002    2.25000000
   12.22638798  163.74000549    0.92000002    2.25000000
   12.23055553  150.87399292    0.92000002    2.25000000
   12.23388958  148.89999390    0.89999998    2.25000000
   12.23722267  149.16000366    0.89999998    2.25000000
   12.24027824  158.06399536    0.89999998    2.25000000
   12.24361134  150.58599854    0.89999998    2.25000000
   12.24666691  148.66900635    0.89999998    2.26999998
   12.25000000  167.36000061    0.89999998    2.26999998
   12.25333309  160.93400574    0.89999998    2.26999998
   12.25416660  162.30599976    0.89999998    2.26999998
   12.25666714  157.84700012    0.89999998    2.26999998
   12.26000023  147.07899475    0.89999998    2.26999998
   12.26333332  162.89900208    0.89999998    2.26999998
   12.26944447  162.89900208    0.89999998    2.26999998
   12.27361107  137.33799744    0.89999998    2.26999998
   12.27666664  148.97500610    0.89999998    2.26999998
   12.27999973  144.86300659    0.89999998    2.26999998
   12.28305531  150.90499878    0.89999998    2.26999998
   12.28638935  147.64900208    0.88000000    2.28999996
   12.28750038  154.87199402    0.88000000    2.28999996
   12.29000092  160.63600159    0.88000000    2.28999996
   12.29333401  154.88999939    0.86000001    2.28999996
   12.29666710  156.98699951    0.86000001    2.28999996
   12.29972267  139.83799744    0.86000001    2.28999996
   12.30305576  141.78199768    0.86000001    2.28999996
   12.30638885  143.91799927    0.86000001    2.28999996
   12.31222248  143.91799927    0.86000001    2.28999996
   12.31638908  155.52200317    0.86000001    2.28999996
   12.31972218  145.65100098    0.86000001    2.30999994
   12.32083321  146.92500305    0.83999997    2.30999994
   12.32305527  142.63600159    0.83999997    2.30999994
   12.32638836  145.92700195    0.83999997    2.30999994
   12.32972240  141.49400330    0.86000001    2.28999996
   12.33277798  146.59700012    0.86000001    2.30999994
   12.33611107  141.91000366    0.86000001    2.30999994
   12.33944416  138.03999329    0.86000001    2.30999994
   12.34249973  142.87899780    0.86000001    2.30999994
   12.34583282  147.14500427    0.86000001    2.30999994
   12.34888840  143.08500671    0.86000001    2.30999994
   12.35500050  143.08500671    0.86000001    2.32999992
   12.35916710  154.91099548    0.86000001    2.32999992
   12.36250019  143.31399536    0.86000001    2.32999992
   12.36555576  142.66799927    0.83999997    2.32999992
   12.36888885  146.21800232    0.83999997    2.32999992
   12.37222195  145.54499817    0.83999997    2.32999992
   12.37527752  146.66499329    0.83999997    2.32999992
   12.37861156  145.47999573    0.83999997    2.32999992
   12.38166714  141.61799622    0.83999997    2.32999992
   12.38500023  158.36599731    0.83999997    2.32999992
   12.38749981  147.32899475    0.83999997    2.32999992
   12.38861084  143.00399780    0.83999997    2.32999992
   12.39194393  140.97200012    0.83999997    2.32999992
   12.39777756  140.97200012    0.86000001    2.32999992
   12.40194416  141.90800476    0.83999997    2.32999992
   12.40527725  142.33799744    0.83999997    2.32999992
   12.40833282  143.90199280    0.83999997    2.32999992
   12.41166592  151.59100342    0.83999997    2.34999990
   12.41499996  140.35800171    0.83999997    2.34999990
   12.41805553  146.04699707    0.83999997    2.32999992
   12.42083359  153.86500549    0.83999997    2.34999990
   12.42194462  143.02099609    0.83999997    2.34999990
   12.42527771  142.72999573    0.83999997    2.34999990
   12.42861176  137.97599792    0.83999997    2.34999990
   12.43166733  144.64100647    0.83999997    2.34999990
   12.43500042  153.05700684    0.83999997    2.34999990
   12.44083309  153.05700684    0.83999997    2.34999990
   12.44499969  139.28999329    0.83999997    2.34999990
   12.44805527  142.88499451    0.83999997    2.34999990
   12.45138836  145.73100281    0.83999997    2.34999990
   12.45416641  143.08900452    0.83999997    2.34999990
   12.45472240  158.80700684    0.83999997    2.34999990
   12.45805550  137.91999817    0.83999997    2.34999990
   12.46138859  148.08700562    0.86000001    2.34999990
   12.46444416  148.23699951    0.86000001    2.34999990
   12.46777725  146.18899536    0.86000001    2.34999990
   12.47111034  148.37800598    0.86000001    2.36999989
   12.47416592  145.06199646    0.86000001    2.36999989
   12.47749996  139.58200073    0.86000001    2.36999989
   12.48361111  139.58200073    0.86000001    2.34999990
   12.48777771  159.03100586    0.86000001    2.36999989
   12.49083328  148.63200378    0.86000001    2.36999989
   12.49416733  147.88699341    0.86000001    2.36999989
   12.49750042  157.88900757    0.83999997    2.36999989
   12.50055599  137.44700623    0.86000001    2.34999990
   12.50388908  137.27699280    0.83999997    2.39000010
   12.50694466  145.74200439    0.81999999    2.36999989
   12.51027775  147.57899475    0.81999999    2.36999989
   12.51361084  136.66200256    0.83999997    2.36999989
   12.51666641  137.19599915    0.81999999    2.36999989
   12.51999950  154.39900208    0.81999999    2.39000010
   12.52083302  145.98500061    0.81999999    2.39000010
   12.52638817  145.98500061    0.81999999    2.36999989
   12.53055573  144.53300476    0.81999999    2.36999989
   12.53388977  153.52099609    0.88000000    2.36999989
   12.53694534  145.95700073    0.83999997    2.36999989
   12.54027843  128.73699951    0.83999997    2.39000010
   12.54361153  143.12199402    0.81999999    2.39000010
   12.54666710  143.94799805    0.88000000    2.39000010
   12.55000019  152.10299683    0.88000000    2.39000010
   12.55333328  135.63200378    0.86000001    2.39000010
   12.55416679  135.87800598    0.86000001    2.39000010
   12.55666733  137.14399719    1.21000004    2.39000010
   12.56000042  152.05799866    1.21000004    2.39000010
   12.56333351  146.70799255    0.92000002    2.39000010
   12.56916618  146.70799255    0.86000001    2.39000010
   12.57333374  137.79299927    0.83999997    2.39000010
   12.57666683  142.73699951    0.81999999    2.39000010
   12.57999992  140.62199402    0.80000001    2.39000010
   12.58305550  137.57400513    0.80000001    2.39000010
   12.58638859  144.77000427    0.80000001    2.39000010
   12.58749962  152.07600403    0.79000002    2.39000010
   12.59027767  134.42300415    0.79000002    2.39000010
   12.59333324  141.33999634    0.79000002    2.40000010
   12.59666634  142.06399536    0.79000002    2.40000010
   12.59972191  141.82099915    0.79000002    2.40000010
   12.60305595  139.25399780    0.79000002    2.40000010
   12.60638905  140.63200378    0.79000002    2.40000010
   12.61222267  140.63200378    0.79000002    2.40000010
   12.61611176  150.50599670    0.76999998    2.40000010
   12.61944485  146.99200439    0.79000002    2.40000010
   12.62083340  138.63600159    0.79000002    2.40000010
   12.62305546  142.75599670    0.76999998    2.40000010
   12.62638855  142.05400085    0.76999998    2.40000010
   12.62972260  131.44700623    0.76999998    2.40000010
   12.63277817  141.44999695    0.76999998    2.40000010
   12.63611126  138.23500061    0.76999998    2.42000008
   12.63944435  150.61000061    0.76999998    2.42000008
   12.64249992  141.07299805    0.76999998    2.40000010
   12.64583302  139.14999390    0.76999998    2.40000010
   12.64888859  153.73899841    0.76999998    2.40000010
   12.65499973  153.73899841    0.75000000    2.40000010
   12.65916634  143.74099731    0.75000000    2.42000008
   12.66222191  136.36300659    0.75000000    2.42000008
   12.66555500  143.98599243    0.75000000    2.42000008
   12.66888905  140.20500183    0.73000002    2.42000008
   12.67194462  140.64500427    0.73000002    2.42000008
   12.67527771  147.48699951    0.73000002    2.42000008
   12.67833328  141.13900757    0.73000002    2.42000008
   12.68166733  139.91799927    0.73000002    2.42000008
   12.68500042  142.94999695    0.73000002    2.44000006
   12.68750000  134.64199829    0.70999998    2.42000008
   12.68861103  145.54499817    0.70999998    2.42000008
   12.69194412  138.61799622    0.73000002    2.44000006
   12.69777775  138.61799622    0.70999998    2.42000008
   12.70194435  145.80799866    0.70999998    2.44000006
   12.70527744  148.19400024    0.73000002    2.42000008
   12.70833302  146.93699646    0.70999998    2.42000008
   12.71166611  142.02900696    0.70999998    2.44000006
   12.71500015  145.12500000    0.70999998    2.44000006
   12.71833324  138.02400208    0.70999998    2.44000006
   12.72083282  137.77900696    0.70999998    2.44000006
   12.72194386  144.94999695    0.70999998    2.44000006
   12.72499943  142.72599792    0.70999998    2.44000006
   12.72833252  141.29800415    0.73000002    2.44000006
   12.73138809  144.84599304    0.70999998    2.44000006
   12.73472214  137.73899841    0.73000002    2.44000006
   12.74055576  137.73899841    0.73000002    2.44000006
   12.74472237  137.43400574    0.73000002    2.44000006
   12.74805546  136.78399658    0.73000002    2.44000006
   12.75138855  135.27600098    0.73000002    2.44000006
   12.75416660  138.90100098    0.73000002    2.44000006
   12.75500011  139.61000061    0.73000002    2.44000006
   12.75805569  146.80799866    0.73000002    2.44000006
   12.76138878  131.75599670    0.73000002    2.46000004
   12.76444435  140.50799561    0.70999998    2.46000004
   12.76777744  142.02099609    0.70999998    2.46000004
   12.77111053  134.43099976    0.70999998    2.46000004
   12.77416611  142.35000610    0.70999998    2.46000004
   12.77750015  140.18299866    0.70999998    2.46000004
   12.78361130  140.18299866    0.70999998    2.46000004
   12.78750038  131.30400085    0.70999998    2.46000004
   12.79083347  144.68899536    0.70999998    2.46000004
   12.79416752  144.55499268    0.70999998    2.46000004
   12.79722309  137.64599609    0.70999998    2.46000004
   12.80055618  135.47599792    0.69000000    2.46000004
   12.80388927  132.25799561    0.69000000    2.46000004
   12.80694485  132.48399353    0.69000000    2.46000004
   12.81027794  131.74600220    0.70999998    2.46000004
   12.81333351  131.94599915    0.69000000    2.46000004
   12.81666660  134.31300354    0.70999998    2.46000004
   12.81999969  134.58200073    0.69000000    2.46000004
   12.82083321  133.61000061    0.69000000    2.46000004
   12.84138870  133.61000061    0.67000002    2.46000004
   12.84555531  132.23699951    0.67000002    2.46000004
   12.84888840  130.36500549    0.67000002    2.46000004
   12.85194492  132.24800110    0.67000002    2.46000004
   12.85416698  128.96400452    0.69000000    2.48000002
   12.85583401  125.83499908    0.69000000    2.48000002
   12.85888958  130.67799377    0.67000002    2.48000002
   12.86222267  126.97799683    0.67000002    2.48000002
   12.86555576  134.48500061    0.67000002    2.48000002
   12.86861134  129.69299316    0.67000002    2.48000002
   12.87194443  135.86999512    0.67000002    2.48000002
   12.87527752  125.01300049    0.67000002    2.48000002
   12.87833309  139.77799988    0.67000002    2.48000002
   12.88416672  139.77799988    0.67000002    2.48000002
   12.88833332  138.51899719    0.69000000    2.48000002
   12.89166641  132.51100159    0.69000000    2.48000002
   12.89472198  135.21200562    0.69000000    2.48000002
   12.89805508  127.59400177    0.69000000    2.48000002
   12.90138817  128.63099670    0.69000000    2.48000002
   12.90444374  135.74899292    0.67000002    2.48000002
   12.90777779  139.01600647    0.67000002    2.48000002
   12.91083336  130.00599670    0.67000002    2.48000002
   12.91416645  136.23800659    0.67000002    2.48000002
   12.91750050  129.51899719    0.69000000    2.48000002
   12.92055607  127.88500214    0.67000002    2.48000002
   12.92111111  132.24699402    0.67000002    2.48000002
   12.92722225  132.24699402    0.67000002    2.48000002
   12.93111134  120.98000336    0.67000002    2.50000000
   12.93472195  121.99199677    0.67000002    2.48000002
   12.93777752  135.76400757    0.67000002    2.48000002
   12.94111156  126.99400330    0.67000002    2.48000002
   12.94416714  128.63699341    0.67000002    2.48000002
   12.94750023  131.00700378    0.67000002    2.48000002
   12.95083332  125.83899689    0.67000002    2.50000000
   12.95388889  122.88899994    0.67000002    2.50000000
   12.95444393  118.46600342    0.67000002    2.50000000
   12.95749950  123.52200317    0.67000002    2.48000002
   12.96083355  128.94799805    0.64999998    2.50000000
   12.96416664  133.64900208    0.64999998    2.50000000
   12.96999931  133.64900208    0.64999998    2.50000000
   12.97416592  135.93099976    0.67000002    2.50000000
   12.97722149  132.33500671    0.64999998    2.51999998
   12.98055553  136.63600159    0.64999998    2.50000000
   12.98361111  132.90400696    0.64999998    2.50000000
   12.98694515  126.14900208    0.64999998    2.50000000
   12.98777771  127.45700073    0.64999998    2.50000000
   12.99055576  127.36900330    0.64999998    2.50000000
   12.99388885  126.05599976    0.64999998    2.50000000
   12.99694443  125.18299866    0.64999998    2.50000000
   13.00027752  126.17099762    0.64999998    2.51999998
   13.00333309  132.25799561    0.64999998    2.51999998
   13.00666714  123.00000000    0.64999998    2.50000000
   13.01277733  123.00000000    0.70999998    2.50000000
   13.01694393  127.63200378    0.70999998    2.50000000
   13.01999950  132.45899963    0.70999998    2.50000000
   13.02111053  131.91099548    0.70999998    2.50000000
   13.02388859  135.60899353    0.73000002    2.50000000
   13.02722168  129.58200073    0.73000002    2.50000000
   13.03027725  129.80999756    0.75000000    2.50000000
   13.03361130  124.72699738    0.73000002    2.51999998
   13.03666687  130.32099915    0.73000002    2.51999998
   13.04000092  133.62699890    0.75000000    2.51999998
   13.04333401  114.17199707    0.75000000    2.51999998
   13.04638958  121.97000122    0.70999998    2.51999998
   13.04972267  130.94599915    0.70999998    2.51999998
   13.05555534  130.94599915    0.70999998    2.51999998
   13.05972195  123.58499908    0.70999998    2.51999998
   13.06305599  115.42199707    0.70999998    2.51999998
   13.06611156  120.69699860    0.70999998    2.51999998
   13.06944466  127.61100006    0.70999998    2.51999998
   13.07277775  125.73600006    0.70999998    2.51999998
   13.07583332  130.51499939    0.70999998    2.51999998
   13.07916641  123.37899780    0.70999998    2.51999998
   13.08249950  126.94599915    0.69000000    2.51999998
   13.08555508  119.78600311    0.69000000    2.51999998
   13.08777714  121.85800171    0.69000000    2.53999996
   13.08916664  120.01000214    0.69000000    2.53999996
   13.09249973  124.75900269    0.69000000    2.53999996
   13.09833336  124.75900269    0.67000002    2.51999998
   13.10249996  130.74499512    0.67000002    2.51999998
   13.10583401  137.22500610    0.67000002    2.53999996
   13.10916710  129.86700439    0.64999998    2.51999998
   13.11250019  135.33099365    0.64999998    2.53999996
   13.11583328  130.08200073    0.64999998    2.53999996
   13.11888885  125.47200012    0.64999998    2.53999996
   13.12111092  117.68900299    0.64999998    2.53999996
   13.12250042  119.48300171    0.64999998    2.53999996
   13.12583351  129.37399292    0.67000002    2.53999996
   13.12888908  120.85700226    0.64999998    2.53999996
   13.13222218  126.06700134    0.64999998    2.53999996
   13.13527775  139.34700012    0.63000000    2.53999996
   13.14138889  139.34700012    0.64999998    2.53999996
   13.14555550  135.41900635    0.64999998    2.53999996
   13.14861107  133.10800171    0.64999998    2.53999996
   13.15194416  121.51599884    0.64999998    2.55999994
   13.15444374  129.38699341    0.64999998    2.55999994
   13.15555477  126.61399841    0.64999998    2.53999996
   13.15888882  124.36900330    0.67000002    2.53999996
   13.16194439  129.20199585    0.67000002    2.53999996
   13.16527748  119.63999939    0.64999998    2.53999996
   13.16861153  124.93900299    0.64999998    2.53999996
   13.17166710  127.73999786    0.64999998    2.53999996
   13.17500019  120.84500122    0.63000000    2.55999994
   13.17805576  138.21499634    0.63000000    2.55999994
   13.18416691  138.21499634    0.63000000    2.55999994
   13.18833351  110.75800323    0.63000000    2.53999996
   13.19138908  124.32399750    0.61000001    2.55999994
   13.19472218  113.82399750    0.61000001    2.55999994
   13.19805527  113.03500366    0.61000001    2.53999996
   13.20111084  124.60500336    0.61000001    2.53999996
   13.20444393  136.10899353    0.61000001    2.53999996
   13.20749950  115.63099670    0.61000001    2.55999994
   13.21083355  131.28500366    0.61000001    2.55999994
   13.21416664  121.76999664    0.61000001    2.55999994
   13.21722221   97.16480255    0.61000001    2.53999996
   13.22055531  251.69099426    0.61000001    2.55999994
   13.22111034  135.75100708    0.61000001    2.55999994
   13.22694397  135.75100708    0.61000001    2.55999994
   13.23111057   93.07589722    0.61000001    2.55999994
   13.23444462  157.34500122    0.61000001    2.55999994
   13.23750019   86.52059937    0.61000001    2.55999994
   13.24083328  112.73100281    0.58999997    2.55999994
   13.24416733   90.80870056    0.61000001    2.55999994
   13.24750042  125.58899689    0.61000001    2.55999994
   13.25083351  124.53299713    0.58999997    2.55999994
   13.25416660  125.97599792    0.58999997    2.55999994
   13.25472260  122.34899902    0.58999997    2.55999994
   13.25749969  122.78299713    0.58999997    2.55999994
   13.26083374  132.64900208    0.58999997    2.55999994
   13.26388931  126.26000214    0.61000001    2.55999994
   13.26999950  126.26000214    0.58999997    2.55999994
   13.27416611  130.41000366    0.58999997    2.53999996
   13.27722168  131.38699341    0.58999997    2.57999992
   13.28055573  127.07800293    0.58999997    2.55999994
   13.28388977  132.11300659    0.58999997    2.55999994
   13.28694534  131.19999695    0.58999997    2.55999994
   13.28805637  134.48100281    0.58999997    2.55999994
   13.29055595  133.83500671    0.58999997    2.55999994
   13.29388905  131.83500671    0.58999997    2.55999994
   13.29694462  127.35500336    0.61000001    2.55999994
   13.30027771  124.50900269    0.58999997    2.55999994
   13.30361176  101.67900085    0.58999997    2.55999994
   13.30666733  118.57599640    0.58999997    2.55999994
   13.31277752  118.57599640    0.58999997    2.55999994
   13.31666660  116.44499969    0.58999997    2.55999994
   13.31999969  113.85900116    0.58999997    2.55999994
   13.32138920  107.03199768    0.58999997    2.55999994
   13.32361126  134.52099609    0.58999997    2.57999992
   13.32694435  112.61599731    0.58999997    2.55999994
   13.32999992  105.82900238    0.56999999    2.55999994
   13.33333302  109.58300018    0.56999999    2.55999994
   13.33666611  128.38499451    0.56999999    2.57999992
   13.33972168  117.51200104    0.56999999    2.57999992
   13.34305477  131.18600464    0.58999997    2.55999994
   13.34638882  132.99099731    0.56999999    2.57999992
   13.34944439  122.23200226    0.56999999    2.57999992
   13.35555553  122.23200226    0.56999999    2.57999992
   13.35972214  120.36599731    0.56999999    2.55999994
   13.36277771  121.50800323    0.56999999    2.55999994
   13.36611176  123.56400299    0.56999999    2.57999992
   13.36944485  127.21399689    0.56999999    2.57999992
   13.37250042  119.51499939    0.56999999    2.57999992
   13.37583351  123.91600037    0.56999999    2.57999992
   13.37916660  129.88800049    0.56999999    2.57999992
   13.38222218  134.05599976    0.55000001    2.55999994
   13.38555527  131.65499878    0.55000001    2.57999992
   13.38805580  125.12699890    0.55000001    2.57999992
   13.38916683  132.64799500    0.55000001    2.57999992
   13.39249992  131.48800659    0.55000001    2.57999992
   13.39833355  131.48800659    0.55000001    2.57999992
   13.40249920  134.83799744    0.55000001    2.57999992
   13.40583324  126.19300079    0.55000001    2.57999992
   13.40888882  129.12800598    0.55000001    2.57999992
   13.41222191  127.63200378    0.55000001    2.57999992
   13.41555500  126.34500122    0.55000001    2.57999992
   13.41861153  126.91200256    0.55000001    2.57999992
   13.42138958  122.79699707    0.55000001    2.57999992
   13.42222214  128.18200684    0.55000001    2.57999992
   13.42555618  122.13999939    0.55000001    2.59999990
   13.42888927  119.84700012    0.55000001    2.57999992
   13.43194485  127.51599884    0.55000001    2.57999992
   13.43527794  129.59300232    0.55000001    2.59999990
   13.44111156  129.59300232    0.55000001    2.57999992
   13.44527817  136.75399780    0.55000001    2.57999992
   13.44861126  140.23699951    0.55000001    2.57999992
   13.45166683  139.11999512    0.55000001    2.57999992
   13.45472240  137.99200439    0.55000001    2.57999992
   13.45527744  135.08799744    0.55000001    2.59999990
   13.45861053  123.45600128    0.55000001    2.57999992
   13.46194458  128.73500061    0.55000001    2.57999992
   13.46500015  133.59500122    0.55000001    2.59999990
   13.46833324  134.91400146    0.55000001    2.57999992
   13.47166634  134.37399292    0.55000001    2.57999992
   13.47472191  130.98899841    0.55000001    2.59999990
   13.47805500  132.70399475    0.55000001    2.57999992
   13.48416710  132.70399475    0.55000001    2.57999992
   13.48805618  136.08200073    0.55000001    2.57999992
   13.49138927  133.15199280    0.55000001    2.59999990
   13.49472237  118.12699890    0.55000001    2.59999990
   13.49777794  122.68599701    0.52999997    2.59999990
   13.50111103  136.20700073    0.52999997    2.59999990
   13.50444412  133.99800110    0.52999997    2.57999992
   13.50749969  132.45100403    0.52999997    2.59999990
   13.51083374  133.64900208    0.52999997    2.59999990
   13.51388931  138.45700073    0.52999997    2.59999990
   13.51722240  128.41299438    0.51999998    2.57999992
   13.52055550  126.97299957    0.51999998    2.59999990
   13.52138901  126.35900116    0.51999998    2.59999990
   13.52694416  126.35900116    0.52999997    2.59999990
   13.53111076  131.71299744    0.51999998    2.59999990
   13.53416729  126.21399689    0.51999998    2.59999990
   13.53750038  126.56199646    0.52999997    2.59999990
   13.54083347  132.77299500    0.51999998    2.59999990
   13.54388905  123.51300049    0.51999998    2.59999990
   13.54722309  127.26399994    0.51999998    2.59999990
   13.55055618  129.36399841    0.51999998    2.59999990
   13.55361176  126.23500061    0.51999998    2.59999990
   13.55472279  130.46400452    0.51999998    2.59999990
   13.55722237   96.40489960    0.51999998    2.59999990
   13.56055546  121.58300018    0.51999998    2.59999990
   13.56388950  138.81399536    0.51999998    2.59999990
   13.56972218  138.81399536    0.52999997    2.59999990
   13.57388878  133.89700317    0.52999997    2.59999990
   13.57722187  132.72300720    0.52999997    2.59999990
   13.58027744  113.28099823    0.55000001    2.59999990
   13.58361053  118.72299957    0.55000001    2.59999990
   13.58694458  108.54100037    0.55000001    2.59999990
   13.58805561  108.07299805    0.55000001    2.59999990
   13.59055519  113.50499725    0.55000001    2.59999990
   13.59388828  127.97200012    0.55000001    2.59999990
   13.59722233  124.86299896    0.52999997    2.59999990
   13.60027790  122.95099640    0.52999997    2.59999990
   13.60361195  122.78500366    0.52999997    2.59999990
   13.60694504  131.31100464    0.52999997    2.59999990
   13.61250019  131.31100464    0.52999997    2.59999990
   13.61666679  119.31999969    0.52999997    2.59999990
   13.61999989  118.70999908    0.52999997    2.59999990
   13.62138939  124.42199707    0.55000001    2.61999989
   13.62361145  118.87300110    0.55000001    2.61999989
   13.62694454  124.97000122    0.52999997    2.59999990
   13.63027763  122.35700226    0.52999997    2.59999990
   13.63333321  120.29699707    0.52999997    2.59999990
   13.63666630  127.23300171    0.55000001    2.59999990
   13.63972187  113.63600159    0.55000001    2.61999989
   13.64305496  125.11799622    0.55000001    2.61999989
   13.64638901  122.00499725    0.52999997    2.59999990
   13.64944458  121.32599640    0.52999997    2.59999990
   13.65555477  121.32599640    0.52999997    2.59999990
   13.65944386  126.39099884    0.52999997    2.61999989
   13.66277695  127.38300323    0.52999997    2.61999989
   13.66611099  131.32899475    0.52999997    2.61999989
   13.66916656  124.51100159    0.52999997    2.61999989
   13.67250061  125.04000092    0.52999997    2.61999989
   13.67583370  132.98500061    0.55000001    2.61999989
   13.67888927  121.80599976    0.55000001    2.59999990
   13.68222237  125.47799683    0.52999997    2.59999990
   13.68527794  130.07200623    0.52999997    2.59999990
   13.68805599  125.62000275    0.52999997    2.59999990
   13.68888855  118.61299896    0.52999997    2.61999989
   13.69222260  127.75099945    0.52999997    2.61999989
   13.69833374  127.75099945    0.52999997    2.61999989
   13.70249939  127.08100128    0.52999997    2.61999989
   13.70555496  126.23100281    0.51999998    2.61999989
   13.70888901  119.72399902    0.51999998    2.61999989
   13.71222210  123.75199890    0.52999997    2.61999989
   13.71527767  123.01899719    0.52999997    2.59999990
   13.71861076  126.94100189    0.52999997    2.61999989
   13.72138882  122.34799957    0.52999997    2.61999989
   13.72222137  123.60800171    0.51999998    2.61999989
   13.72555542  131.58799744    0.52999997    2.61999989
   13.72888851  124.00099945    0.52999997    2.61999989
   13.73194408  125.31500244    0.52999997    2.61999989
   13.73527813  122.55200195    0.52999997    2.61999989
   13.74111176  122.55200195    0.52999997    2.61999989
   13.74527836  129.42700195    0.51999998    2.61999989
   13.74861145  126.98100281    0.51999998    2.61999989
   13.75166702  129.70700073    0.52999997    2.61999989
   13.75472260  126.89700317    0.51999998    2.61999989
   13.75527763  131.44599915    0.51999998    2.61999989
   13.75861073  125.34700012    0.51999998    2.61999989
   13.76194477  132.40199280    0.52999997    2.61999989
   13.76500034  123.08599854    0.51999998    2.61999989
   13.76833344  133.19200134    0.51999998    2.61999989
   13.77166653  136.97500610    0.51999998    2.61999989
   13.77472210  132.77699280    0.51999998    2.61999989
   13.77805519  131.04699707    0.51999998    2.61999989
   13.78388977  131.04699707    0.51999998    2.61999989
   13.78805637  132.66799927    0.51999998    2.61999989
   13.79138947  127.16500092    0.51999998    2.64000010
   13.79444504  127.06999969    0.51999998    2.64000010
   13.79777813  124.22699738    0.52999997    2.61999989
   13.80111122  135.65600586    0.51999998    2.61999989
   13.80416679  127.82800293    0.51999998    2.61999989
   13.80777836  130.43400574    0.51999998    2.61999989
   13.81083393  135.12899780    0.51999998    2.64000010
   13.81416702  130.92999268    0.51999998    2.64000010
   13.81722260  132.44900513    0.51999998    2.64000010
   13.82055569  129.01300049    0.51999998    2.64000010
   13.82138920  132.28500366    0.52999997    2.64000010
   13.82694435  132.28500366    0.55000001    2.61999989
   13.83083344  135.10800171    0.55000001    2.61999989
   13.83416653  126.04299927    0.55000001    2.64000010
   13.83749962  130.06399536    0.55000001    2.64000010
   13.85500050  126.54000092    0.61000001    2.61999989
   13.85722256  129.31100464    0.61000001    2.61999989
   13.86055565  135.40800476    0.63000000    2.64000010
   13.86388969  134.41600037    0.64999998    2.61999989
   13.86972237  134.41600037    0.67000002    2.61999989
   13.87388897  130.06900024    0.67000002    2.61999989
   13.87722206  138.53399658    0.67000002    2.61999989
   13.88055611  134.16099548    0.67000002    2.61999989
   13.88361073  132.11700439    0.69000000    2.64000010
   13.88694477  136.56300354    0.69000000    2.64000010
   13.88833332  124.61000061    0.69000000    2.64000010
   13.89055538  129.84300232    0.69000000    2.64000010
   13.89388847  138.86000061    0.69000000    2.64000010
   13.89722252  130.36199951    0.64999998    2.61999989
   13.90027714  133.30299377    0.61000001    2.61999989
   13.90361118  139.06799316    0.58999997    2.61999989
   13.90694427  135.94299316    0.61000001    2.61999989
   13.91277695  135.94299316    0.58999997    2.64000010
   13.91694450  138.03599548    0.58999997    2.64000010
   13.92000008  142.60600281    0.58999997    2.64000010
   13.92138958  135.90400696    0.58999997    2.64000010
   13.92361164  144.64399719    0.56999999    2.64000010
   13.92694473  139.88299561    0.56999999    2.64000010
   13.93000031  141.23199463    0.56999999    2.64000010
   13.93333340  142.06300354    0.56999999    2.64000010
   13.93666649  141.59100342    0.58999997    2.64000010
   13.93972206  148.67300415    0.61000001    2.64000010
   13.94305515  136.28799438    0.61000001    2.64000010
   13.94638920  139.80700684    0.61000001    2.64000010
   13.94944477  143.48500061    0.63000000    2.64000010
   13.95555496  143.48500061    0.63000000    2.64000010
   13.95972157  152.14399719    0.61000001    2.64000010
   13.96277714  145.17599487    0.61000001    2.64000010
   13.96611118  150.52200317    0.61000001    2.64000010
   13.96944427  145.71800232    0.61000001    2.64000010
   13.97249985  152.55099487    0.58999997    2.64000010
   13.97583294  146.81199646    0.56999999    2.64000010
   13.97916603  143.26499939    0.56999999    2.61999989
   13.98222160  134.36399841    0.56999999    2.64000010
   13.98555565  137.41999817    0.56999999    2.64000010
   13.98805618  146.51899719    0.56999999    2.64000010
   13.98916721  137.16000366    0.58999997    2.61999989
   13.99250031  141.55599976    0.56999999    2.61999989
   13.99833393  141.55599976    0.56999999    2.64000010
   14.00249958  139.91200256    0.58999997    2.64000010
   14.00583363  138.05599976    0.56999999    2.64000010
   14.00888920  129.59700012    0.56999999    2.64000010
   14.01222229  140.64799500    0.56999999    2.64000010
   14.01555538  141.44700623    0.58999997    2.64000010
   14.01861095  129.52000427    0.58999997    2.64000010
   14.02166653  138.77400208    0.58999997    2.64000010
   14.02222157  146.57400513    0.58999997    2.64000010
   14.02555561  135.98599243    0.56999999    2.64000010
   14.02861118  145.45700073    0.56999999    2.64000010
   14.03194427  144.88200378    0.55000001    2.64000010
   14.03527832  134.50399780    0.55000001    2.64000010
   14.04111195  134.50399780    0.52999997    2.64000010
   14.04527855  135.43899536    0.52999997    2.66000009
   14.04861164  141.61700439    0.52999997    2.64000010
   14.05194473  126.01999664    0.51999998    2.66000009
   14.05500031  131.08000183    0.51999998    2.64000010
   14.05527782  133.22000122    0.51999998    2.64000010
   14.05861092  135.21099854    0.51999998    2.64000010
   14.06194496  131.44099426    0.51999998    2.66000009
   14.06500053  133.89900208    0.51999998    2.64000010
   14.06833363  133.17700195    0.51999998    2.64000010
   14.07138920  136.31100464    0.52999997    2.64000010
   14.07499981  137.07600403    0.52999997    2.66000009
   14.07805538  139.30999756    0.52999997    2.66000009
   14.08416653  139.30999756    0.55000001    2.64000010
   14.08833313  145.16000366    0.55000001    2.64000010
   14.09138870  141.32899475    0.56999999    2.64000010
   14.09472179  131.71699524    0.56999999    2.64000010
   14.09777737  131.85200500    0.56999999    2.64000010
   14.10111141  124.89099884    0.58999997    2.64000010
   14.10444450  141.73300171    0.56999999    2.64000010
   14.10750008  131.75900269    0.56999999    2.64000010
   14.11083412  137.51199341    0.58999997    2.64000010
   14.11416721  140.00000000    0.58999997    2.64000010
   14.11722279  150.13600159    0.58999997    2.66000009
   14.12055588  147.59300232    0.61000001    2.64000010
   14.12166691  133.68400574    0.61000001    2.64000010
   14.12694454  133.68400574    0.58999997    2.64000010
   14.13111115  134.37600708    0.58999997    2.64000010
   14.13416672  134.69900513    0.58999997    2.64000010
   14.13749981  146.51800537    0.61000001    2.64000010
   14.14083290  145.21000671    0.58999997    2.64000010
   14.14388847  138.89999390    0.56999999    2.64000010
   14.14722252  153.17999268    0.56999999    2.64000010
   14.15055561  141.57000732    0.56999999    2.64000010
   14.15361118  143.23199463    0.56999999    2.64000010
   14.15499973  136.74699402    0.56999999    2.64000010
   14.15722179  132.82099915    0.58999997    2.64000010
   14.16055489  147.72000122    0.56999999    2.64000010
   14.16361046  144.52299500    0.56999999    2.64000010
   14.16972256  144.52299500    0.56999999    2.64000010
   14.17388916  141.43600464    0.56999999    2.66000009
   14.17722225  153.30299377    0.55000001    2.66000009
   14.18027782  143.20300293    0.55000001    2.66000009
   14.18361092  148.74000549    0.55000001    2.66000009
   14.18694496  148.81199646    0.55000001    2.66000009
   14.18833351  147.74899292    0.55000001    2.66000009
   14.19027805  150.35299683    0.52999997    2.66000009
   14.19361115  145.32899475    0.52999997    2.66000009
   14.19694424  157.07600403    0.52999997    2.66000009
   14.20027733  151.38999939    0.52999997    2.66000009
   14.20333290  148.28399658    0.52999997    2.66000009
   14.20666695  155.29600525    0.51999998    2.66000009
   14.21249962  155.29600525    0.51999998    2.66000009
   14.21666622  147.07000732    0.51999998    2.66000009
   14.21999931  155.93600464    0.51999998    2.66000009
   14.22166634  142.04699707    0.51999998    2.66000009
   14.22361088  151.05499268    0.51999998    2.66000009
   14.22694397  156.77499390    0.51999998    2.66000009
   14.23027706  137.21200562    0.50000000    2.67000008
   14.23361111  146.40800476    0.50000000    2.67000008
   14.23694515  147.90199280    0.50000000    2.67000008
   14.24027824  158.26600647    0.50000000    2.66000009
   14.24361134  154.22799683    0.50000000    2.66000009
   14.24666691  146.82800293    0.50000000    2.66000009
   14.25000000  147.50100708    0.50000000    2.66000009
   14.25555515  147.50100708    0.50000000    2.66000009
   14.25972176  160.04400635    0.50000000    2.66000009
   14.26277733  149.20399475    0.50000000    2.66000009
   14.26611137  138.74200439    0.51999998    2.66000009
   14.26916599  156.20500183    0.52999997    2.67000008
   14.27250004  157.90100098    0.51999998    2.67000008
   14.27583313  148.53599548    0.51999998    2.66000009
   14.27888870  157.81700134    0.52999997    2.66000009
   14.28222179  145.02999878    0.52999997    2.66000009
   14.28555584  153.22399902    0.52999997    2.66000009
   14.28833389  153.45599365    0.52999997    2.66000009
   14.28888893  156.86399841    0.52999997    2.66000009
   14.29222298  156.71899414    0.52999997    2.66000009
   14.29833412  156.71899414    0.52999997    2.66000009
   14.30249977  160.96699524    0.55000001    2.66000009
   14.30555534  161.18200684    0.55000001    2.66000009
   14.30888939  147.39999390    0.56999999    2.67000008
   14.31222248  148.49600220    0.58999997    2.66000009
   14.31527805  154.16299438    0.58999997    2.66000009
   14.31861115  155.52299500    0.61000001    2.66000009
   14.32166672  162.18899536    0.58999997    2.66000009
   14.32222176  161.65800476    0.58999997    2.66000009
   14.32555580  153.88800049    0.58999997    2.66000009
   14.32888889  165.86900330    0.58999997    2.66000009
   14.33194447  163.59100342    0.56999999    2.66000009
   14.33527756  167.53100586    0.56999999    2.66000009
   14.34111118  167.53100586    0.56999999    2.66000009
   14.34527779  162.49299622    0.55000001    2.66000009
   14.34861088  158.35000610    0.55000001    2.66000009
   14.35166740  132.21600342    0.55000001    2.66000009
   14.35500050  153.97200012    0.55000001    2.66000009
   14.35527802  164.86300659    0.55000001    2.66000009
   14.35861111  170.28399658    0.56999999    2.67000008
   14.36194515  152.89399719    0.55000001    2.66000009
   14.36500072  167.70199585    0.56999999    2.66000009
   14.36833382  153.89500427    0.56999999    2.66000009
   14.37138939  162.41700745    0.56999999    2.67000008
   14.37472248  144.65699768    0.56999999    2.66000009
   14.37805557  164.31500244    0.56999999    2.67000008
   14.38388920  164.31500244    0.52999997    2.67000008
   14.38805580  162.33200073    0.52999997    2.66000009
   14.38861084  152.69900513    0.52999997    2.66000009
   14.39194393  166.58500671    0.52999997    2.66000009
   14.39527798  148.37899780    0.51999998    2.66000009
   14.39833355  162.75100708    0.51999998    2.67000008
   14.40166664  149.89100647    0.51999998    2.67000008
   14.40499973  167.89399719    0.51999998    2.67000008
   14.40805531  163.03399658    0.50000000    2.67000008
   14.41138840  170.81500244    0.50000000    2.67000008
   14.41444397  160.77999878    0.50000000    2.67000008
   14.41777802  153.14999390    0.50000000    2.67000008
   14.42111111  166.61900330    0.51999998    2.67000008
   14.42222214  156.67199707    0.51999998    2.67000008
   14.42694473  156.67199707    0.51999998    2.66000009
   14.43083382  162.52999878    0.52999997    2.67000008
   14.43416691  169.64199829    0.56999999    2.67000008
   14.43750000  172.08700562    0.56999999    2.67000008
   14.44055557  160.15199280    0.56999999    2.66000009
   14.44388866  168.69700623    0.56999999    2.66000009
   14.44722271  162.80200195    0.56999999    2.66000009
   14.45027733  161.01100159    0.56999999    2.66000009
   14.45361137  160.09899902    0.58999997    2.67000008
   14.45527744  164.94599915    0.58999997    2.66000009
   14.45722198  159.61900330    0.58999997    2.67000008
   14.46055508  154.50999451    0.58999997    2.67000008
   14.46361065  157.18499756    0.58999997    2.66000009
   14.46972179  157.18499756    0.58999997    2.67000008
   14.47388840  155.34100342    0.58999997    2.66000009
   14.47694397  152.97000122    0.58999997    2.66000009
   14.48027706  151.51699829    0.58999997    2.67000008
   14.48361111  161.01300049    0.56999999    2.67000008
   14.48666668  161.10899353    0.56999999    2.67000008
   14.48861122  168.00999451    0.56999999    2.67000008
   14.49027824  145.16700745    0.56999999    2.67000008
   14.49361134  157.35400391    0.56999999    2.67000008
   14.49666691  148.20100403    0.56999999    2.67000008
   14.50000000  155.34199524    0.56999999    2.67000008
   14.50333309  151.99000549    0.56999999    2.67000008
   14.50638866  155.89500427    0.56999999    2.67000008
   14.51249981  155.89500427    0.56999999    2.67000008
   14.51666641  157.99299622    0.55000001    2.67000008
   14.51999950  163.62300110    0.55000001    2.67000008
   14.52194405  159.54499817    0.55000001    2.67000008
   14.52361107  163.23300171    0.55000001    2.67000008
   14.52694416  141.92599487    0.55000001    2.67000008
   14.52999973  152.96899414    0.55000001    2.67000008
   14.53333378  168.69099426    0.55000001    2.67000008
   14.53666687  159.50799561    0.55000001    2.67000008
   14.53972244  151.32000732    0.52999997    2.67000008
   14.54305553  165.38699341    0.52999997    2.67000008
   14.54611111  155.41700745    0.55000001    2.67000008
   14.54944515  153.22799683    0.52999997    2.67000008
   14.55527782  153.22799683    0.51999998    2.67000008
   14.55944443  150.26600647    0.51999998    2.67000008
   14.56277752  154.92100525    0.51999998    2.67000008
   14.56583309  173.34800720    0.51999998    2.67000008
   14.56916618  160.22300720    0.52999997    2.67000008
   14.57250023  162.57699585    0.52999997    2.67000008
   14.57555580  151.76899719    0.51999998    2.67000008
   14.57888889  167.91700745    0.51999998    2.67000008
   14.58222198  168.48399353    0.51999998    2.67000008
   14.58527756  176.39199829    0.52999997    2.67000008
   14.58861065  180.20700073    0.50000000    2.69000006
   14.59055519  171.93400574    0.50000000    2.69000006
   14.59222221  172.66799927    0.50000000    2.69000006
   14.59833336  172.66799927    0.50000000    2.69000006
   14.60222244  164.56700134    0.50000000    2.67000008
   14.60555553  175.52000427    0.50000000    2.67000008
   14.60888958  158.21200562    0.47999999    2.67000008
   14.61194515  161.59300232    0.47999999    2.67000008
   14.61527824  161.70399475    0.47999999    2.67000008
   14.61861134  170.80499268    0.47999999    2.67000008
   14.62166691  166.41499329    0.47999999    2.69000006
   14.62388897  172.14599609    0.47999999    2.69000006
   14.62527752  161.06900024    0.47999999    2.69000006
   14.62861156  164.74299622    0.47999999    2.69000006
   14.63194466  166.22300720    0.50000000    2.69000006
   14.63500023  160.49099731    0.50000000    2.67000008
   14.64111137  160.49099731    0.47999999    2.69000006
   14.64527798  168.90699768    0.51999998    2.69000006
   14.64833355  185.82699585    0.51999998    2.69000006
   14.65166664  178.45199585    0.51999998    2.67000008
   14.65499973  161.19700623    0.51999998    2.67000008
   14.65722179  174.39700317    0.52999997    2.67000008
   14.65861034  173.64700317    0.52999997    2.67000008
   14.66194439  166.86999512    0.51999998    2.67000008
   14.66499996  172.61000061    0.51999998    2.67000008
   14.66833401  177.62199402    0.52999997    2.67000008
   14.67138958  173.05200195    0.52999997    2.67000008
   14.67472267  168.21600342    0.51999998    2.69000006
   14.67805576  171.00399780    0.51999998    2.69000006
   14.68388939  171.00399780    0.51999998    2.67000008
   14.68805599  173.91600037    0.51999998    2.67000008
   14.69055557  163.87399292    0.51999998    2.69000006
   14.69166660  169.41299438    0.51999998    2.69000006
   14.69499969  167.93800354    0.52999997    2.67000008
   14.69833374  165.80400085    0.52999997    2.69000006
   14.70138836  163.92900085    0.52999997    2.67000008
   14.70472240  166.39900208    0.52999997    2.67000008
   14.70805550  162.85200500    0.52999997    2.69000006
   14.71111107  178.29899597    0.52999997    2.69000006
   14.71444416  174.81100464    0.52999997    2.69000006
   14.71749973  168.90499878    0.52999997    2.69000006
   14.72083282  172.24899292    0.52999997    2.69000006
   14.72666645  172.24899292    0.52999997    2.67000008
   14.73083305  160.58299255    0.52999997    2.67000008
   14.73416710  155.46400452    0.52999997    2.69000006
   14.73722267  164.57000732    0.52999997    2.69000006
   14.74055576  162.64599609    0.55000001    2.69000006
   14.74388885  172.43200684    0.52999997    2.69000006
   14.74722290  173.90600586    0.52999997    2.69000006
   14.75027752  168.33599854    0.52999997    2.67000008
   14.75361156  164.76499939    0.52999997    2.67000008
   14.75666714  171.16000366    0.52999997    2.67000008
   14.75749969  178.89900208    0.52999997    2.67000008
   14.76027775  165.78100586    0.52999997    2.67000008
   14.76361084  163.20399475    0.52999997    2.69000006
   14.76972198  163.20399475    0.52999997    2.69000006
   14.77361107  171.44700623    0.52999997    2.69000006
   14.77694416  171.38299561    0.52999997    2.67000008
   14.78027725  181.51800537    0.52999997    2.69000006
   14.78333378  175.68299866    0.52999997    2.69000006
   14.78666687  183.86799622    0.51999998    2.67000008
   14.79000092  169.69500732    0.51999998    2.69000006
   14.79083347  166.02600098    0.51999998    2.69000006
   14.79361153  177.45300293    0.51999998    2.69000006
   14.79694462  169.55599976    0.51999998    2.69000006
   14.80000019  176.62100220    0.51999998    2.69000006
   14.80333328  181.16499329    0.50000000    2.69000006
   14.80666733  166.36999512    0.50000000    2.69000006
   14.81250000  166.36999512    0.50000000    2.69000006
   14.81666660  158.66299438    0.47999999    2.71000004
   14.81972218  166.54200745    0.47999999    2.71000004
   14.82305527  146.50199890    0.47999999    2.69000006
   14.82444477  166.69900513    0.47999999    2.69000006
   14.82666683  168.21299744    0.47999999    2.69000006
   14.82999992  166.62199402    0.50000000    2.69000006
   14.83305550  161.11900330    0.50000000    2.69000006
   14.83638859  162.97300720    0.50000000    2.69000006
   14.83944416  172.64999390    0.50000000    2.69000006
   14.84277725  167.84899902    0.50000000    2.69000006
   14.84611034  178.04699707    0.50000000    2.69000006
   14.84916592  173.42700195    0.47999999    2.69000006
   14.85527802  173.42700195    0.47999999    2.69000006
   14.87361145  175.49000549    0.50000000    2.69000006
   14.87694454  165.74699402    0.50000000    2.69000006
   14.88000011  166.73300171    0.50000000    2.69000006
   14.88333321  173.60899353    0.50000000    2.69000006
   14.88666630  168.64399719    0.50000000    2.69000006
   14.88972187  168.88200378    0.50000000    2.69000006
   14.89305496  177.05200195    0.50000000    2.69000006
   14.89833355  177.05200195    0.47999999    2.69000006
   14.90249920  171.90199280    0.47999999    2.69000006
   14.90583324  182.00999451    0.47999999    2.69000006
   14.90666676  181.55599976    0.50000000    2.69000006
   14.90944386  161.94700623    0.50000000    2.69000006
   14.91249943  168.50399780    0.47999999    2.71000004
   14.91583252  174.48300171    0.47999999    2.69000006
   14.91916656  174.19400024    0.47999999    2.69000006
   14.92222214  176.17700195    0.47999999    2.69000006
   14.92555618  176.35499573    0.47999999    2.69000006
   14.92888927  169.73699951    0.47999999    2.69000006
   14.93194485  165.02400208    0.47999999    2.69000006
   14.93527794  175.99200439    0.50000000    2.69000006
   14.94111156  175.99200439    0.50000000    2.71000004
   14.94527817  172.23599243    0.50000000    2.71000004
   14.94861126  171.43400574    0.47999999    2.71000004
   14.95194435  172.47999573    0.47999999    2.69000006
   14.95499992  180.74200439    0.47999999    2.69000006
   14.95833302  177.89999390    0.47999999    2.71000004
   14.96166611  193.80499268    0.47999999    2.71000004
   14.96472168  177.91900635    0.50000000    2.69000006
   14.96805477  180.89199829    0.47999999    2.69000006
   14.97111034  174.17700195    0.50000000    2.69000006
   14.97333336  175.16499329    0.50000000    2.71000004
   14.97499943  171.81700134    0.50000000    2.71000004
   14.97833252  187.55700684    0.50000000    2.71000004
   14.98416710  187.55700684    0.47999999    2.69000006
   14.98833370  173.01699829    0.47999999    2.69000006
   14.99138927  178.67900085    0.47999999    2.69000006
   14.99472237  180.04299927    0.47999999    2.71000004
   14.99777794  180.20599365    0.47999999    2.71000004
   15.00111103  180.93600464    0.46000001    2.69000006
   15.00444412  182.35000610    0.46000001    2.71000004
   15.00666714  192.25500488    0.46000001    2.71000004
   15.00805569  182.98800659    0.46000001    2.71000004
   15.01138878  177.18800354    0.46000001    2.71000004
   15.01444435  173.94500732    0.46000001    2.71000004
   15.01777744  177.28900146    0.46000001    2.71000004
   15.02083302  187.65100098    0.46000001    2.71000004
   15.02694416  187.65100098    0.46000001    2.69000006
   15.03111076  185.12300110    0.46000001    2.69000006
   15.03416729  183.15699768    0.46000001    2.69000006
   15.03750038  175.45899963    0.46000001    2.69000006
   15.04027843  187.18099976    0.46000001    2.71000004
   15.04138947  181.73800659    0.46000001    2.71000004
   15.04472256  179.71000671    0.46000001    2.71000004
   15.04777813  187.11900330    0.47999999    2.69000006
   15.05111122  184.87699890    0.47999999    2.69000006
   15.05444431  176.74899292    0.47999999    2.71000004
   15.05749989  171.82699585    0.47999999    2.71000004
   15.06083393  186.92500305    0.47999999    2.71000004
   15.06388950  185.84300232    0.47999999    2.71000004
   15.06972218  185.84300232    0.47999999    2.71000004
   15.07388878  201.58200073    0.47999999    2.71000004
   15.07722187  177.85099792    0.47999999    2.69000006
   15.08027744  211.36199951    0.47999999    2.69000006
   15.08361053  195.67399597    0.47999999    2.71000004
   15.08694458  178.57600403    0.47999999    2.69000006
   15.09000015  207.48399353    0.47999999    2.69000006
   15.09333324  228.47200012    0.47999999    2.69000006
   15.09666634  204.73500061    0.47999999    2.71000004
   15.09972191  196.01400757    0.47999999    2.71000004
   15.10305595  225.87300110    0.47999999    2.71000004
   15.10638905  176.39900208    0.47999999    2.71000004
   15.10694504  207.66700745    0.47999999    2.69000006
   15.11250019  207.66700745    0.47999999    2.69000006
   15.11666679  197.13699341    0.47999999    2.71000004
   15.21749973   -1.00000000   -1.00000000   -1.00000000
   15.32222176   -1.00000000   -1.00000000   -1.00000000
   15.42444515   -1.00000000   -1.00000000   -1.00000000
   15.45333290  179.58900452    0.44000000    2.71000004
   15.45666695  172.30799866    0.46000001    2.71000004
   15.45972157  176.10099792    0.44000000    2.71000004
   15.46305561  176.06399536    0.44000000    2.71000004
   15.46638870  178.74200439    0.44000000    2.71000004
   15.46944427  174.82299805    0.44000000    2.71000004
   15.47361088  174.82299805    0.44000000    2.73000002
   15.47777748  177.32800293    0.41999999    2.71000004
   15.48111057  176.38600159    0.44000000    2.73000002
   15.48416710  174.49800110    0.41999999    2.73000002
   15.48666668  175.87399292    0.41999999    2.73000002
   15.48805618  175.05700684    0.44000000    2.73000002
   15.49111176  162.96800232    0.41999999    2.71000004
   15.49444485  161.08299255    0.41999999    2.71000004
   15.49750042  166.08799744    0.41999999    2.71000004
   15.50083351  165.71299744    0.41999999    2.71000004
   15.50416660  175.60299683    0.41999999    2.71000004
   15.50722218  180.04100037    0.41999999    2.73000002
   15.51055527  168.73399353    0.41999999    2.71000004
   15.51666641  168.73399353    0.41999999    2.73000002
   15.52055550  172.32200623    0.41999999    2.73000002
   15.52388859  165.48599243    0.44000000    2.71000004
   15.52722168  173.61199951    0.41999999    2.73000002
   15.53027725  172.08399963    0.44000000    2.71000004
   15.53361130  174.76800537    0.44000000    2.73000002
   15.53694534  174.53900146    0.44000000    2.71000004
   15.54000092  160.16700745    0.44000000    2.71000004
   15.54333401  169.77600098    0.44000000    2.71000004
   15.54666710  173.80799866    0.44000000    2.71000004
   15.54972267  173.70399475    0.44000000    2.71000004
   15.55305576  185.29800415    0.46000001    2.71000004
   15.55361176  180.54100037    0.46000001    2.71000004
   15.55944443  180.54100037    0.47999999    2.71000004
   15.56361103  172.90899658    0.47999999    2.71000004
   15.56666660  172.05000305    0.47999999    2.71000004
   15.56999969  174.24200439    0.47999999    2.73000002
   15.57305527  164.52200317    0.47999999    2.73000002
   15.57638836  178.31199646    0.47999999    2.71000004
   15.57972240  168.06300354    0.47999999    2.71000004
   15.58277798  160.86300659    0.47999999    2.71000004
   15.58611107  165.33399963    0.50000000    2.71000004
   15.58694458  182.62699890    0.50000000    2.71000004
   15.59000015  180.67300415    0.50000000    2.71000004
   15.59305477  177.08900452    0.52999997    2.71000004
   15.59638882  177.56700134    0.55000001    2.71000004
   15.60222244  177.56700134    0.58999997    2.71000004
   15.60638905  178.46499634    0.61000001    2.71000004
   15.60944462  175.11599731    0.61000001    2.71000004
   15.61277771  187.49699402    0.61000001    2.71000004
   15.61611176  181.50500488    0.61000001    2.71000004
   15.61916637  196.59300232    0.61000001    2.71000004
   15.62027836  178.94000244    0.61000001    2.71000004
   15.62277794  171.78199768    0.58999997    2.71000004
   15.62611103  175.27000427    0.58999997    2.71000004
   15.62944412  176.88000488    0.56999999    2.73000002
   15.63249969  165.74299622    0.56999999    2.73000002
   15.63583279  161.34899902    0.56999999    2.71000004
   15.63916683  167.85000610    0.58999997    2.71000004
   15.64499950  167.85000610    0.61000001    2.71000004
   15.64916611  169.56599426    0.58999997    2.71000004
   15.65249920  183.75300598    0.61000001    2.71000004
   15.65361118  166.06399536    0.61000001    2.71000004
   15.65611076  175.57600403    0.58999997    2.73000002
   15.65916634  169.72300720    0.56999999    2.73000002
   15.66249943  157.79200745    0.56999999    2.73000002
   15.66555500  176.66900635    0.56999999    2.73000002
   15.66888905  173.20500183    0.52999997    2.73000002
   15.67222214  178.84399414    0.51999998    2.71000004
   15.67527771  157.69400024    0.50000000    2.73000002
   15.67861176  176.87800598    0.47999999    2.73000002
   15.68166733  174.36300659    0.47999999    2.71000004
   15.68805599  174.36300659    0.50000000    2.73000002
   15.69194412  159.58900452    0.50000000    2.71000004
   15.69527817  176.44400024    0.51999998    2.71000004
   15.69861126  168.46600342    0.51999998    2.73000002
   15.70166683  164.62399292    0.51999998    2.71000004
   15.70499992  163.20799255    0.51999998    2.73000002
   15.70805550  156.52099609    0.52999997    2.73000002
   15.71138859  166.61199951    0.55000001    2.71000004
   15.71472168  159.31399536    0.52999997    2.71000004
   15.71777725  152.21400452    0.55000001    2.73000002
   15.72027779  154.64799500    0.55000001    2.73000002
   15.72166634  158.22300720    0.55000001    2.71000004
   15.72472191  165.75999451    0.55000001    2.71000004
   15.73083305  165.75999451    0.55000001    2.71000004
   15.73500061  160.68099976    0.55000001    2.71000004
   15.73805618  149.45199585    0.55000001    2.73000002
   15.74138927  158.31100464    0.55000001    2.73000002
   15.74444485  153.10200500    0.51999998    2.71000004
   15.74777794  159.67799377    0.51999998    2.71000004
   15.75111103  157.51899719    0.51999998    2.73000002
   15.75361156  154.31399536    0.50000000    2.71000004
   15.75472260  146.48100281    0.50000000    2.71000004
   15.75777817  162.86900330    0.50000000    2.71000004
   15.76111126  152.96200562    0.47999999    2.71000004
   15.76416683  152.66700745    0.47999999    2.73000002
   15.76749992  162.33299255    0.47999999    2.71000004
   15.77361107  162.33299255    0.47999999    2.71000004
   15.77777767  161.66200256    0.47999999    2.71000004
   15.78083324  157.71600342    0.47999999    2.73000002
   15.78416729  160.19700623    0.47999999    2.73000002
   15.78694534  159.13999939    0.47999999    2.73000002
   15.78805637  163.60000610    0.47999999    2.73000002
   15.79111195  164.82899475    0.50000000    2.73000002
   15.79444504  163.37899780    0.50000000    2.71000004
   15.79750061  166.88000488    0.50000000    2.73000002
   15.80083370  165.03199768    0.50000000    2.73000002
   15.80416679  161.76100159    0.47999999    2.73000002
   15.80722237  168.89700317    0.47999999    2.73000002
   15.81083393  159.92799377    0.47999999    2.73000002
   15.81638908  159.92799377    0.47999999    2.71000004
   15.82055569  170.42300415    0.50000000    2.73000002
   15.82388878  167.26699829    0.47999999    2.71000004
   15.82694435  165.00500488    0.50000000    2.73000002
   15.83027744  167.35400391    0.51999998    2.71000004
   15.83361053  166.76100159    0.51999998    2.73000002
   15.83666611  182.35499573    0.51999998    2.73000002
   15.84000015  163.31500244    0.51999998    2.71000004
   15.84305477  172.03300476    0.51999998    2.71000004
   15.84638882  172.69999695    0.52999997    2.71000004
   15.84972191  178.80999756    0.52999997    2.71000004
   15.85277843  170.50900269    0.52999997    2.71000004
   15.85361195  169.77999878    0.52999997    2.71000004
   15.85944462  169.77999878    0.55000001    2.73000002
   15.86333370  173.36300659    0.55000001    2.71000004
   15.86666679  175.35099792    0.56999999    2.71000004
   15.86999989  176.12500000    0.58999997    2.71000004
   15.87305546  184.11599731    0.58999997    2.71000004
   15.87638855  177.17700195    0.58999997    2.71000004
   15.87972260  176.41299438    0.61000001    2.71000004
   15.88277817  172.98800659    0.58999997    2.73000002
   15.88611126  179.24600220    0.56999999    2.71000004
   15.88694477  181.22700500    0.56999999    2.71000004
   15.88972187  172.95700073    0.56999999    2.71000004
   15.89277744  172.57899475    0.55000001    2.71000004
   15.89611053  181.01600647    0.55000001    2.71000004
   15.90222168  181.01600647    0.52999997    2.71000004
   15.90638828  165.52699280    0.51999998    2.73000002
   15.90944386  163.19900513    0.51999998    2.73000002
   15.91277695  183.29299927    0.51999998    2.71000004
   15.91583252  170.63200378    0.51999998    2.71000004
   15.91916656  175.36099243    0.51999998    2.73000002
   15.92027855  182.19700623    0.51999998    2.73000002
   15.92305565  173.36000061    0.50000000    2.71000004
   15.92611122  173.12300110    0.50000000    2.73000002
   15.92944431  178.83500671    0.50000000    2.73000002
   15.93249989  180.76300049    0.50000000    2.73000002
   15.93583298  184.16499329    0.50000000    2.73000002
   15.93916702  190.54100037    0.51999998    2.73000002
   15.94499969  190.54100037    0.52999997    2.73000002
   15.94916630  174.14700317    0.52999997    2.73000002
   15.95222187  185.35699463    0.52999997    2.73000002
   15.95361137  182.87600708    0.51999998    2.73000002
   15.95611095  177.40199280    0.51999998    2.73000002
   15.95916653  202.84599304    0.52999997    2.71000004
   15.96249962  192.59100342    0.51999998    2.71000004
   15.96583271  185.29600525    0.52999997    2.73000002
   15.96888828  180.28199768    0.52999997    2.71000004
   15.97222137  189.20599365    0.52999997    2.73000002
   15.97555542  189.93600464    0.51999998    2.73000002
   15.97861099  184.67199707    0.51999998    2.73000002
   15.98194408  183.81799316    0.51999998    2.73000002
   15.98777771  183.81799316    0.51999998    2.71000004
   15.99194431  190.10200500    0.50000000    2.73000002
   15.99527836  188.72200012    0.50000000    2.73000002
   15.99833393  187.41499329    0.50000000    2.73000002
   16.00166702  184.74200439    0.47999999    2.73000002
   16.00499916  188.60400391    0.47999999    2.71000004
   16.00805473  182.79899597    0.47999999    2.71000004
   16.01138878  184.92300415    0.47999999    2.71000004
   16.01472282  184.57200623    0.47999999    2.73000002
   16.01777840  189.91099548    0.47999999    2.73000002
   16.02055550  182.99099731    0.47999999    2.71000004
   16.02166557  176.82899475    0.47999999    2.71000004
   16.02499962  184.35299683    0.47999999    2.73000002
   16.03055573  184.35299683    0.47999999    2.73000002
   16.03472137  181.03599548    0.47999999    2.73000002
   16.03805542  174.31900024    0.47999999    2.73000002
   16.04138756  181.98100281    0.47999999    2.73000002
   16.04444313  184.90899658    0.47999999    2.73000002
   16.04777718  173.57200623    0.47999999    2.73000002
   16.05111122  180.33799744    0.47999999    2.73000002
   16.05360985  185.98399353    0.47999999    2.73000002
   16.05472183  182.10899353    0.47999999    2.73000002
   16.05777740  179.50999451    0.47999999    2.73000002
   16.06110954  193.31399536    0.47999999    2.73000002
   16.06444359  186.53799438    0.46000001    2.71000004
   16.06750107  183.77400208    0.47999999    2.73000002
   16.07361221  183.77400208    0.47999999    2.73000002
   16.07777786  187.11300659    0.47999999    2.73000002
   16.08083344  185.31799316    0.47999999    2.73000002
   16.08416748  182.23100281    0.47999999    2.73000002
   16.08694458  181.33500671    0.47999999    2.71000004
   16.08777809  177.14700317    0.47999999    2.71000004
   16.09083366  176.43699646    0.47999999    2.73000002
   16.09416771  174.84700012    0.47999999    2.73000002
   16.09749985  186.71499634    0.47999999    2.73000002
   16.10055542  176.96899414    0.47999999    2.73000002
   16.10388947  175.13900757    0.47999999    2.73000002
   16.10722351  184.68200684    0.47999999    2.71000004
   16.11027908  180.03799438    0.50000000    2.71000004
   16.11638832  180.03799438    0.50000000    2.73000002
   16.12055588  180.29800415    0.47999999    2.73000002
   16.12361145  189.64100647    0.47999999    2.73000002
   16.12694550  187.50799561    0.47999999    2.71000004
   16.13027763  198.15699768    0.47999999    2.73000002
   16.13333321  184.75500488    0.47999999    2.73000002
   16.13666725  203.24800110    0.47999999    2.73000002
   16.13999939  191.15699768    0.47999999    2.73000002
   16.14305496  201.45100403    0.46000001    2.75000000
   16.14638901  198.96699524    0.47999999    2.73000002
   16.14944458  193.67799377    0.46000001    2.73000002
   16.15277672  192.73399353    0.47999999    2.73000002
   16.15361023  185.89599609    0.47999999    2.73000002
   16.15916634  185.89599609    0.47999999    2.73000002
   16.16333389  191.57600403    0.46000001    2.73000002
   16.16666603  189.74400330    0.46000001    2.75000000
   16.16972160  201.80099487    0.46000001    2.75000000
   16.17305565  213.77099609    0.47999999    2.73000002
   16.17611122  203.05900574    0.46000001    2.73000002
   16.17944336  199.53900146    0.46000001    2.73000002
   16.18277740  201.83200073    0.46000001    2.73000002
   16.18583298  201.91200256    0.46000001    2.73000002
   16.18694305  204.13299561    0.46000001    2.73000002
   16.18972206  195.73699951    0.46000001    2.73000002
   16.19277763  198.39500427    0.46000001    2.73000002
   16.19610977  199.90699768    0.46000001    2.73000002
   16.20194435  199.90699768    0.46000001    2.73000002
   16.20611191  186.62600708    0.46000001    2.73000002
   16.20944595  192.79200745    0.46000001    2.73000002
   16.21250153  186.33000183    0.47999999    2.73000002
   16.21583366  171.21000671    0.47999999    2.73000002
   16.21916771  184.72399902    0.50000000    2.73000002
   16.22027779  176.39300537    0.50000000    2.73000002
   16.22277832  181.36900330    0.50000000    2.73000002
   16.22583389  172.94799805    0.50000000    2.73000002
   16.22916794  182.22900391    0.50000000    2.73000002
   16.23250008  177.77799988    0.52999997    2.71000004
   16.23555565  179.95199585    0.51999998    2.71000004
   16.23888969  179.37500000    0.51999998    2.73000002
   16.24500084  179.37500000    0.51999998    2.71000004
   16.24888992  179.97799683    0.52999997    2.71000004
   16.25222206  191.17399597    0.55000001    2.71000004
   16.25361061  188.57200623    0.52999997    2.71000004
   16.25583267  194.35800171    0.52999997    2.71000004
   16.25888824  214.29800415    0.52999997    2.71000004
   16.26222229  184.63099670    0.55000001    2.71000004
   16.26555634  188.62100220    0.55000001    2.71000004
   16.26861000  188.59899902    0.55000001    2.71000004
   16.27194405  174.43499756    0.55000001    2.71000004
   16.27527809  197.81599426    0.52999997    2.73000002
   16.27833366  195.42300415    0.52999997    2.71000004
   16.28166580  193.39300537    0.55000001    2.73000002
   16.28777695  193.39300537    0.52999997    2.73000002
   16.29194450  185.77299500    0.51999998    2.73000002
   16.29500008  184.93800354    0.52999997    2.73000002
   16.29833221  180.43699646    0.51999998    2.71000004
   16.30166626  180.07899475    0.51999998    2.73000002
   16.30472183  172.05799866    0.50000000    2.73000002
   16.30805397  174.23599243    0.50000000    2.73000002
   16.31138802  181.97799683    0.47999999    2.73000002
   16.31444359  174.73899841    0.47999999    2.73000002
   16.31777954  168.39399719    0.47999999    2.73000002
   16.32027817  174.28799438    0.46000001    2.75000000
   16.32139015  167.19999695    0.46000001    2.75000000
   16.32444572  167.71600342    0.44000000    2.73000002
   16.33055687  167.71600342    0.44000000    2.75000000
   16.33472252  179.39700317    0.44000000    2.73000002
   16.33805656  177.16999817    0.44000000    2.75000000
   16.34111214  178.37100220    0.44000000    2.75000000
   16.34444427  176.98599243    0.46000001    2.73000002
   16.34777832  173.62699890    0.47999999    2.73000002
   16.35083389  172.21400452    0.47999999    2.73000002
   16.35361099  173.42399597    0.50000000    2.71000004
   16.35472298  175.55999756    0.50000000    2.71000004
   16.35805511  167.69099426    0.50000000    2.73000002
   16.36111069  176.91499329    0.50000000    2.73000002
   16.36444473  179.10699463    0.50000000    2.73000002
   16.36750031  172.73699951    0.50000000    2.73000002
   16.37333298  172.73699951    0.50000000    2.73000002
   16.37750053  161.41900635    0.50000000    2.73000002
   16.38083267  169.43899536    0.47999999    2.73000002
   16.38388824  165.78900146    0.47999999    2.71000004
   16.38694382  162.88400269    0.47999999    2.73000002
   16.38777733  163.03599548    0.47999999    2.73000002
   16.39083290  171.62300110    0.47999999    2.73000002
   16.39416695  165.06100464    0.47999999    2.75000000
   16.39749908  158.10499573    0.47999999    2.75000000
   16.40055466  159.24699402    0.47999999    2.75000000
   16.40388870  163.94799805    0.50000000    2.73000002
   16.40722275  161.90600586    0.50000000    2.73000002
   16.41027832  174.31500244    0.50000000    2.73000002
   16.41638756  174.31500244    0.50000000    2.73000002
   16.42027664  168.91700745    0.47999999    2.73000002
   16.42361069  166.35200500    0.46000001    2.75000000
   16.42694473  162.10299683    0.46000001    2.75000000
   16.43000031  168.13999939    0.46000001    2.75000000
   16.43333244  160.36399841    0.46000001    2.73000002
   16.43666649  169.50199890    0.46000001    2.73000002
   16.43972206  165.57299805    0.46000001    2.73000002
   16.44305420  156.79600525    0.47999999    2.73000002
   16.44610977  156.60400391    0.47999999    2.73000002
   16.44944382  158.00799561    0.46000001    2.73000002
   16.45277786  164.16000366    0.46000001    2.73000002
   16.45361137  164.95899963    0.46000001    2.73000002
   16.47444534  164.95899963    0.46000001    2.75000000
   16.47861099  155.52900696    0.44000000    2.75000000
   16.48166656  158.19400024    0.46000001    2.75000000
   16.48500061  161.55299377    0.46000001    2.73000002
   16.48694420  164.43800354    0.46000001    2.73000002
   16.48861122  163.55000305    0.46000001    2.73000002
   16.49166679  162.36700439    0.46000001    2.73000002
   16.49500084  165.08599854    0.46000001    2.75000000
   16.49833298  166.27499390    0.46000001    2.73000002
   16.50138855  161.45899963    0.46000001    2.73000002
   16.50472260  154.97099304    0.46000001    2.73000002
   16.50805473  161.45500183    0.46000001    2.73000002
   16.51111031  167.75900269    0.46000001    2.73000002
   16.51722145  167.75900269    0.46000001    2.73000002
   16.52138901  158.40499878    0.46000001    2.75000000
   16.52444458  155.92199707    0.46000001    2.75000000
   16.52777672  160.26300049    0.46000001    2.75000000
   16.53083229  161.08399963    0.46000001    2.75000000
   16.53416634  153.23100281    0.46000001    2.75000000
   16.53750038  149.36700439    0.46000001    2.73000002
   16.54055595  157.41799927    0.47999999    2.73000002
   16.54388809  159.35499573    0.46000001    2.73000002
   16.54722214  162.47500610    0.46000001    2.73000002
   16.55027771  153.90899658    0.46000001    2.73000002
   16.55360985  172.84700012    0.47999999    2.73000002
   16.55416679  162.40899658    0.47999999    2.73000002
   16.55999947  162.40899658    0.47999999    2.73000002
   16.56416512  156.26199341    0.47999999    2.73000002
   16.56722260  164.31399536    0.50000000    2.73000002
   16.57055664  169.88499451    0.50000000    2.73000002
   16.57389069  167.13099670    0.50000000    2.73000002
   16.57694626  175.25300598    0.51999998    2.73000002
   16.58027840  164.92900085    0.50000000    2.73000002
   16.58361244  165.60400391    0.51999998    2.73000002
   16.58666801  183.73199463    0.51999998    2.73000002
   16.58750153  166.54499817    0.51999998    2.73000002
   16.59027863  181.17500305    0.51999998    2.73000002
   16.59361267  167.38699341    0.51999998    2.73000002
   16.59694481  168.83599854    0.51999998    2.73000002
   16.60277748  168.83599854    0.52999997    2.73000002
   16.60694504  161.33000183    0.52999997    2.73000002
   16.61027908  161.59599304    0.55000001    2.73000002
   16.61333466  162.55499268    0.55000001    2.73000002
   16.61666679  162.31500244    0.52999997    2.73000002
   16.62000084  157.92999268    0.52999997    2.73000002
   16.62083435  163.21800232    0.52999997    2.73000002
   16.62333298  160.80900574    0.52999997    2.73000002
   16.62666702  143.79800415    0.52999997    2.73000002
   16.63000107  151.67999268    0.55000001    2.73000002
   16.63305473  151.55299377    0.55000001    2.73000002
   16.63638878  157.58000183    0.55000001    2.73000002
   16.63972282  155.44900513    0.55000001    2.73000002
   16.64555550  155.44900513    0.51999998    2.73000002
   16.64972115  152.61599731    0.51999998    2.73000002
   16.65305519  146.40800476    0.51999998    2.73000002
   16.65416718  151.11300659    0.51999998    2.73000002
   16.65638924  147.36500549    0.52999997    2.73000002
   16.65972137  154.26300049    0.51999998    2.73000002
   16.66305542  155.72099304    0.52999997    2.73000002
   16.66611099  152.44700623    0.52999997    2.73000002
   16.66944313  156.27499390    0.51999998    2.73000002
   16.67277718  149.00999451    0.51999998    2.73000002
   16.67583275  154.65899658    0.51999998    2.75000000
   16.67916679  152.59399414    0.50000000    2.73000002
   16.68222237  157.30999756    0.50000000    2.73000002
   16.68861008  157.30999756    0.50000000    2.73000002
   16.69249916  151.17500305    0.47999999    2.73000002
   16.69583321  148.58099365    0.47999999    2.73000002
   16.69916534  153.72900391    0.47999999    2.73000002
   16.70222282  160.90199280    0.47999999    2.73000002
   16.70555687  152.74499512    0.47999999    2.73000002
   16.70888901  152.29600525    0.47999999    2.73000002
   16.71194458  156.49699402    0.50000000    2.75000000
   16.71527863  160.18699646    0.51999998    2.73000002
   16.71861076  157.57299805    0.50000000    2.75000000
   16.72083473  154.41299438    0.50000000    2.75000000
   16.72222328  166.10400391    0.50000000    2.73000002
   16.72555542  163.90699768    0.50000000    2.73000002
   16.73139000  163.90699768    0.50000000    2.73000002
   16.73555565  165.78599548    0.51999998    2.73000002
   16.73861122  161.86700439    0.51999998    2.73000002
   16.74194527  172.51899719    0.51999998    2.73000002
   16.74527740  158.33900452    0.50000000    2.73000002
   16.74833298  166.08700562    0.50000000    2.75000000
   16.75166702  162.94599915    0.51999998    2.73000002
   16.75416756  164.02799988    0.51999998    2.73000002
   16.75555611  155.01800537    0.51999998    2.73000002
   16.75861168  164.66799927    0.52999997    2.73000002
   16.76194382  165.64199829    0.52999997    2.73000002
   16.76499939  160.94900513    0.52999997    2.73000002
   16.76833344  165.27900696    0.55000001    2.73000002
   16.77416611  165.27900696    0.51999998    2.73000002
   16.77833366  166.52999878    0.51999998    2.73000002
   16.78166580  159.77600098    0.52999997    2.73000002
   16.78472137  163.73300171    0.51999998    2.73000002
   16.78750038  162.93099976    0.51999998    2.73000002
   16.78861046  156.59899902    0.51999998    2.73000002
   16.79166603  160.23100281    0.50000000    2.73000002
   16.79500008  158.63999939    0.47999999    2.73000002
   16.79805565  156.84100342    0.47999999    2.73000002
   16.80138779  163.71600342    0.47999999    2.75000000
   16.80472183  161.03700256    0.47999999    2.75000000
   16.80805397  148.48899841    0.47999999    2.75000000
   16.81110954  162.19299316    0.50000000    2.73000002
   16.81694603  162.19299316    0.51999998    2.73000002
   16.82111168  162.39100647    0.50000000    2.73000002
   16.82444572  160.39199829    0.50000000    2.73000002
   16.82777786  161.35000610    0.50000000    2.73000002
   16.83083344  148.27200317    0.50000000    2.73000002
   16.83444595  159.20399475    0.50000000    2.73000002
   16.83750153  161.81599426    0.50000000    2.73000002
   16.84083366  161.00199890    0.50000000    2.73000002
   16.84388924  167.02799988    0.50000000    2.73000002
   16.84722328  164.38900757    0.51999998    2.73000002
   16.85055542  162.71899414    0.51999998    2.73000002
   16.85361099  160.90800476    0.51999998    2.75000000
   16.85416794  143.97500610    0.50000000    2.73000002
   16.86000061  143.97500610    0.51999998    2.73000002
   16.86388969  158.16200256    0.51999998    2.73000002
   16.86722183  163.34599304    0.51999998    2.73000002
   16.87055588  172.23100281    0.51999998    2.73000002
   16.87361145  170.72900391    0.52999997    2.73000002
   16.87694550  176.74899292    0.52999997    2.73000002
   16.88027763  169.42500305    0.52999997    2.73000002
   16.88333321  165.89399719    0.52999997    2.71000004
   16.88666725  164.53700256    0.52999997    2.73000002
   16.88750076  150.45500183    0.52999997    2.73000002
   16.89027786  153.32299805    0.55000001    2.73000002
   16.89361191  163.13200378    0.55000001    2.73000002
   16.89666748  161.23800659    0.55000001    2.73000002
   16.90277672  161.23800659    0.56999999    2.73000002
   16.90694427  166.11300659    0.55000001    2.71000004
   16.90999985  160.66600037    0.55000001    2.71000004
   16.91333389  160.69700623    0.55000001    2.73000002
   16.91666603  159.60600281    0.55000001    2.73000002
   16.91972160  161.78700256    0.55000001    2.73000002
   16.92083359  161.94599915    0.55000001    2.73000002
   16.92333221  162.35800171    0.55000001    2.73000002
   16.92666626  157.75799561    0.55000001    2.73000002
   16.92972183  161.74000549    0.55000001    2.75000000
   16.93305397  162.95599365    0.55000001    2.75000000
   16.93610954  161.30299377    0.52999997    2.73000002
   16.93944359  160.29800415    0.55000001    2.73000002
   16.94555473  160.29800415    0.55000001    2.71000004
   16.94972038  157.86700439    0.55000001    2.73000002
   16.95305634  162.83299255    0.55000001    2.71000004
   16.95416832  167.43299866    0.55000001    2.71000004
   16.95666695  166.30200195    0.56999999    2.73000002
   16.96000099  162.54800415    0.56999999    2.73000002
   16.96305656  162.17500305    0.58999997    2.73000002
   16.96638870  167.64999390    0.58999997    2.73000002
   16.96972275  168.22500610    0.58999997    2.71000004
   16.97277832  165.66099548    0.58999997    2.73000002
   16.97611237  162.41499329    0.58999997    2.73000002
   16.97916794  166.40600586    0.56999999    2.73000002
   16.98250008  169.79600525    0.56999999    2.73000002
   16.98833275  169.79600525    0.56999999    2.71000004
   16.99250031  157.07699585    0.56999999    2.73000002
   16.99583435  162.91400146    0.58999997    2.71000004
   16.99916649  154.78599548    0.61000001    2.71000004
   17.00222206  169.99899292    0.61000001    2.71000004
   17.00555611  160.01400757    0.61000001    2.71000004
   17.00861168  165.87699890    0.61000001    2.73000002
   17.01194382  166.90299988    0.64999998    2.71000004
   17.01527786  164.08700562    0.64999998    2.71000004
   17.01833344  165.99299622    0.67000002    2.71000004
   17.02083397  166.96499634    0.64999998    2.71000004
   17.02194405  166.02999878    0.64999998    2.71000004
   17.02527809  163.49400330    0.64999998    2.71000004
   17.03138924  163.49400330    0.61000001    2.73000002
   17.03527641  160.92100525    0.61000001    2.71000004
   17.03861046  169.62699890    0.61000001    2.71000004
   17.04194450  167.78199768    0.61000001    2.71000004
   17.04500008  174.14199829    0.58999997    2.71000004
   17.04833221  168.15299988    0.58999997    2.73000002
   17.05166626  175.84899902    0.58999997    2.71000004
   17.05416679  167.73100281    0.58999997    2.71000004
   17.05527687  169.63200378    0.56999999    2.71000004
   17.05861092  177.10299683    0.56999999    2.71000004
   17.06166649  162.94700623    0.56999999    2.71000004
   17.06499863  168.03599548    0.56999999    2.73000002
   17.06833458  166.07200623    0.55000001    2.73000002
   17.07416725  166.07200623    0.55000001    2.73000002
   17.07833481  169.75700378    0.52999997    2.73000002
   17.08139038  168.24200439    0.51999998    2.73000002
   17.08472252  170.10899353    0.51999998    2.71000004
   17.08750153  161.84300232    0.51999998    2.73000002
   17.08833313  161.03300476    0.51999998    2.73000002
   17.09166718  169.75399780    0.51999998    2.73000002
   17.09472275  167.84199524    0.51999998    2.73000002
   17.09805679  165.68099976    0.51999998    2.71000004
   17.10138893  167.24499512    0.52999997    2.73000002
   17.10444450  166.70599365    0.51999998    2.71000004
   17.10777855  160.89599609    0.52999997    2.73000002
   17.11083412  156.48199463    0.52999997    2.73000002
   17.11694527  156.48199463    0.52999997    2.73000002
   17.12111092  162.94700623    0.51999998    2.73000002
   17.12444496  167.07400513    0.50000000    2.73000002
   17.12750053  169.26400757    0.50000000    2.73000002
   17.13083267  169.90400696    0.50000000    2.73000002
   17.13388824  176.07400513    0.50000000    2.73000002
   17.13722229  176.19000244    0.50000000    2.73000002
   17.14055634  157.05799866    0.50000000    2.73000002
   17.14361191  156.21099854    0.50000000    2.75000000
   17.14694405  156.86900330    0.50000000    2.73000002
   17.15027809  162.09800720    0.50000000    2.73000002
   17.15333366  175.38800049    0.50000000    2.73000002
   17.15416718  174.16499329    0.50000000    2.73000002
   17.15972137  174.16499329    0.50000000    2.73000002
   17.16388893  164.27799988    0.50000000    2.73000002
   17.16722107  165.53700256    0.50000000    2.73000002
   17.17027664  163.44200134    0.50000000    2.73000002
   17.17361069  160.81100464    0.50000000    2.73000002
   17.17694473  163.69999695    0.50000000    2.73000002
   17.18000031  164.26699829    0.50000000    2.73000002
   17.18333244  166.09300232    0.50000000    2.73000002
   17.18666649  169.09199524    0.51999998    2.71000004
   17.18750000  168.67300415    0.51999998    2.71000004
   17.19027710  173.04699707    0.51999998    2.73000002
   17.19361115  167.29699707    0.50000000    2.73000002
   17.19666672  168.00000000    0.50000000    2.73000002
   17.20277786  168.00000000    0.50000000    2.73000002
   17.20666695  173.40499878    0.50000000    2.73000002
   17.21000099  165.52299500    0.50000000    2.71000004
   17.21333504  170.42999268    0.50000000    2.73000002
   17.21638870  155.61500549    0.47999999    2.73000002
   17.21972275  167.76300049    0.47999999    2.73000002
   17.22111130  165.32800293    0.47999999    2.73000002
   17.22333336  165.41700745    0.47999999    2.73000002
   17.22666740  160.95500183    0.50000000    2.73000002
   17.23000145  159.84300232    0.51999998    2.73000002
   17.23305511  163.26100159    0.51999998    2.71000004
   17.23638916  161.50599670    0.52999997    2.73000002
   17.23972321  172.61999512    0.52999997    2.73000002
   17.24555588  172.61999512    0.51999998    2.73000002
   17.24972153  162.89300537    0.51999998    2.73000002
   17.25277710  163.49899292    0.50000000    2.75000000
   17.25444412  166.00999451    0.50000000    2.75000000
   17.25638962  170.44700623    0.50000000    2.75000000
   17.25972176  166.14399719    0.50000000    2.71000004
   17.26277733  170.69000244    0.47999999    2.73000002
   17.26611137  154.30700684    0.50000000    2.73000002
   17.26944351  165.10000610    0.50000000    2.73000002
   17.27249908  155.08799744    0.50000000    2.73000002
   17.27583313  164.81199646    0.50000000    2.73000002
   17.27916718  160.53999329    0.50000000    2.71000004
   17.28222275  155.96600342    0.50000000    2.71000004
   17.28833199  155.96600342    0.51999998    2.73000002
   17.29249954  163.16999817    0.52999997    2.73000002
   17.29583359  150.85600281    0.52999997    2.73000002
   17.29888916  148.99899292    0.52999997    2.71000004
   17.30222130  148.06399536    0.51999998    2.73000002
   17.30527687  151.56700134    0.51999998    2.71000004
   17.30861092  144.23599243    0.52999997    2.71000004
   17.31194305  152.42700195    0.52999997    2.73000002
   17.31527710  156.68099976    0.52999997    2.71000004
   17.31833458  148.86999512    0.52999997    2.73000002
   17.32111168  150.77999878    0.52999997    2.73000002
   17.32194519  157.56599426    0.52999997    2.73000002
   17.32527924  148.47099304    0.52999997    2.73000002
   17.33111191  148.47099304    0.52999997    2.71000004
   17.33527756  147.68600464    0.52999997    2.71000004
   17.33861160  153.95300293    0.52999997    2.73000002
   17.34166718  160.75900269    0.52999997    2.71000004
   17.34500122  147.46400452    0.52999997    2.71000004
   17.34833336  144.67199707    0.55000001    2.73000002
   17.35138893  148.52400208    0.55000001    2.73000002
   17.35444450  145.67999268    0.52999997    2.73000002
   17.35499954  146.02400208    0.52999997    2.73000002
   17.35833359  139.00799561    0.51999998    2.73000002
   17.36166763  138.80499268    0.51999998    2.73000002
   17.36472321  140.44999695    0.51999998    2.73000002
   17.36805534  144.65499878    0.51999998    2.73000002
   17.37416649  144.65499878    0.50000000    2.73000002
   17.37805557  157.84500122    0.51999998    2.71000004
   17.38138962  150.61999512    0.51999998    2.73000002
   17.38472176  149.62800598    0.51999998    2.73000002
   17.38777733  153.23199463    0.52999997    2.73000002
   17.38861084  149.86399841    0.52999997    2.73000002
   17.39166641  158.65299988    0.51999998    2.73000002
   17.39500046  157.37300110    0.51999998    2.73000002
   17.39833260  157.24000549    0.51999998    2.73000002
   17.40138817  155.47700500    0.50000000    2.73000002
   17.40472221  164.56700134    0.50000000    2.73000002
   17.40805435  158.21099854    0.50000000    2.73000002
   17.41110992  154.70100403    0.51999998    2.73000002
   17.41694450  154.70100403    0.51999998    2.73000002
   17.42111015  159.58399963    0.52999997    2.71000004
   17.42416573  159.25999451    0.55000001    2.71000004
   17.42749977  158.26699829    0.56999999    2.71000004
   17.43055534  158.79100037    0.58999997    2.71000004
   17.43388748  163.92799377    0.58999997    2.71000004
   17.43722153  159.04600525    0.56999999    2.71000004
   17.44027710  161.50999451    0.56999999    2.71000004
   17.44361115  154.61399841    0.56999999    2.71000004
   17.44694328  159.46299744    0.55000001    2.71000004
   17.45000076  158.70700073    0.55000001    2.71000004
   17.45333481  161.50300598    0.55000001    2.71000004
   17.45444489  160.82200623    0.55000001    2.71000004
   17.45972252  160.82200623    0.52999997    2.71000004
   17.46389008  157.71400452    0.52999997    2.73000002
   17.46694565  150.57899475    0.52999997    2.73000002
   17.47027779  151.61399841    0.52999997    2.71000004
   17.48777771  147.30999756    0.55000001    2.71000004
   17.49027824  148.22799683    0.55000001    2.71000004
   17.49361229  141.19900513    0.55000001    2.73000002
   17.49666786  144.29200745    0.52999997    2.71000004
   17.50277710  144.29200745    0.52999997    2.71000004
   17.50694466  145.84599304    0.52999997    2.73000002
   17.51000023  144.64300537    0.52999997    2.73000002
   17.51333427  146.30799866    0.55000001    2.71000004
   17.51666641  141.00199890    0.52999997    2.71000004
   17.51972198  137.31500244    0.52999997    2.71000004
   17.52111053  139.65199280    0.52999997    2.71000004
   17.52361107  142.25599670    0.51999998    2.71000004
   17.52666664  151.97000122    0.50000000    2.73000002
   17.53000069  154.15899658    0.50000000    2.73000002
   17.53333282  139.73399353    0.50000000    2.73000002
   17.53638840  143.84700012    0.47999999    2.71000004
   17.53972244  139.32099915    0.47999999    2.73000002
   17.54555511  139.32099915    0.47999999    2.73000002
   17.54972076  132.91799927    0.47999999    2.73000002
   17.55305481  138.46299744    0.47999999    2.73000002
   17.55444336  149.10299683    0.47999999    2.73000002
   17.55666542  129.76300049    0.47999999    2.73000002
   17.55972099  136.81399536    0.47999999    2.73000002
   17.56305504  138.82600403    0.47999999    2.73000002
   17.56638718  136.55400085    0.47999999    2.73000002
   17.56944466  136.69999695    0.47999999    2.73000002
   17.57277870  134.13200378    0.47999999    2.73000002
   17.57611275  136.11000061    0.47999999    2.73000002
   17.57916832  140.16499329    0.47999999    2.73000002
   17.58250046  137.42999268    0.47999999    2.73000002
   17.58833313  137.42999268    0.47999999    2.73000002
   17.59250069  147.59599304    0.50000000    2.73000002
   17.59583473  144.43600464    0.50000000    2.73000002
   17.59889030  148.83599854    0.50000000    2.73000002
   17.60222244  147.47799683    0.51999998    2.71000004
   17.60555649  143.88200378    0.51999998    2.71000004
   17.60861206  135.29600525    0.51999998    2.71000004
   17.61194420  150.74899292    0.52999997    2.71000004
   17.61527824  148.19099426    0.52999997    2.71000004
   17.61833382  135.82600403    0.55000001    2.71000004
   17.62111092  140.82899475    0.55000001    2.71000004
   17.62194443  135.32800293    0.52999997    2.71000004
   17.62500000  133.97999573    0.52999997    2.71000004
   17.63138962  133.97999573    0.51999998    2.73000002
   17.63527679  132.98500061    0.51999998    2.73000002
   17.63861084  144.96000671    0.51999998    2.71000004
   17.64194489  143.69900513    0.50000000    2.71000004
   17.64500046  132.56599426    0.50000000    2.73000002
   17.64833260  133.47500610    0.50000000    2.73000002
   17.65166664  138.77999878    0.51999998    2.71000004
   17.65444374  152.89900208    0.51999998    2.71000004
   17.65527725  137.41000366    0.51999998    2.71000004
   17.65861130  138.29200745    0.51999998    2.71000004
   17.66166687  140.49400330    0.51999998    2.71000004
   17.66499901  139.99200439    0.52999997    2.73000002
   17.66833305  148.89399719    0.52999997    2.71000004
   17.67416573  148.89399719    0.51999998    2.71000004
   17.67833328  136.66700745    0.52999997    2.71000004
   17.68138885  141.08399963    0.51999998    2.71000004
   17.68472099  143.84500122    0.51999998    2.71000004
   17.68777657  144.96299744    0.51999998    2.71000004
   17.68833160  139.91999817    0.51999998    2.71000004
   17.69166565  143.27000427    0.52999997    2.73000002
   17.69472122  147.96299744    0.51999998    2.71000004
   17.69805527  143.51899719    0.51999998    2.71000004
   17.70111275  144.59899902    0.51999998    2.73000002
   17.70444489  147.24400330    0.51999998    2.73000002
   17.70777893  139.17399597    0.51999998    2.73000002
   17.71083450  147.73300171    0.52999997    2.71000004
   17.71694565  147.73300171    0.55000001    2.71000004
   17.72111130  157.35800171    0.55000001    2.71000004
   17.72166634  155.87500000    0.55000001    2.71000004
   17.72500038  151.74099731    0.55000001    2.71000004
   17.72805595  148.18099976    0.52999997    2.71000004
   17.73139000  152.79600525    0.52999997    2.71000004
   17.73444557  155.47700500    0.52999997    2.73000002
   17.73777771  146.85000610    0.52999997    2.73000002
   17.74111176  145.63499451    0.52999997    2.71000004
   17.74416733  148.61000061    0.51999998    2.71000004
   17.74749947  141.35899353    0.51999998    2.71000004
   17.75083351  149.46600342    0.51999998    2.71000004
   17.75388908  144.62899780    0.51999998    2.71000004
   17.75444412  147.96400452    0.51999998    2.71000004
   17.75972176  147.96400452    0.51999998    2.71000004
   17.76388931  148.96800232    0.51999998    2.71000004
   17.76722145  147.30000305    0.51999998    2.71000004
   17.77055550  154.05900574    0.51999998    2.73000002
   17.77361107  152.86900330    0.51999998    2.73000002
   17.77694511  146.78999329    0.51999998    2.71000004
   17.78000069  146.39999390    0.51999998    2.73000002
   17.78333282  144.86399841    0.52999997    2.71000004
   17.78666687  149.77799988    0.51999998    2.73000002
   17.78777695  162.34399414    0.51999998    2.73000002
   17.79027748  137.87300110    0.51999998    2.73000002
   17.79361153  147.85699463    0.52999997    2.71000004
   17.79666710  142.33999634    0.51999998    2.71000004
   17.80277634  142.33999634    0.51999998    2.71000004
   17.80666542  153.38699341    0.51999998    2.71000004
   17.80999947  143.17999268    0.50000000    2.71000004
   17.81333351  156.89300537    0.50000000    2.71000004
   17.81638718  149.49099731    0.51999998    2.71000004
   17.81972313  163.73399353    0.50000000    2.71000004
   17.82111168  150.07099915    0.50000000    2.71000004
   17.82333374  143.04600525    0.50000000    2.71000004
   17.82666779  157.83299255    0.50000000    2.71000004
   17.82972336  150.34700012    0.50000000    2.73000002
   17.83305550  146.02400208    0.47999999    2.71000004
   17.83638954  168.25999451    0.50000000    2.71000004
   17.83944511  157.68800354    0.50000000    2.71000004
   17.84555626  157.68800354    0.47999999    2.71000004
   17.84972191  140.72099304    0.47999999    2.73000002
   17.85277748  149.55400085    0.47999999    2.73000002
   17.85444450  160.52499390    0.47999999    2.73000002
   17.85666656  148.42799377    0.47999999    2.73000002
   17.86000061  145.95899963    0.47999999    2.73000002
   17.86305618  135.99699402    0.46000001    2.73000002
   17.86638832  128.31799316    0.47999999    2.73000002
   17.86944389  148.20599365    0.47999999    2.73000002
   17.87277794  150.82600403    0.47999999    2.73000002
   17.87611198  139.71400452    0.46000001    2.71000004
   17.87916756  139.56199646    0.46000001    2.71000004
   17.88249969  143.88200378    0.46000001    2.73000002
   17.88833237  143.88200378    0.46000001    2.73000002
   17.89249992  136.50000000    0.44000000    2.73000002
   17.89583397  146.61199951    0.44000000    2.73000002
   17.89888954  137.26699829    0.44000000    2.73000002
   17.90222168  131.98100281    0.44000000    2.73000002
   17.90555573  143.46200562    0.44000000    2.73000002
   17.90861130  140.78700256    0.41999999    2.73000002
   17.91194344  144.07000732    0.44000000    2.73000002
   17.91527748  154.47300720    0.41999999    2.73000002
   17.91833305  141.05000305    0.41999999    2.73000002
   17.92111015  142.64100647    0.41999999    2.73000002
   17.92194366  146.97900391    0.41999999    2.73000002
   17.92527771  138.20700073    0.41999999    2.73000002
   17.93111038  138.20700073    0.41999999    2.73000002
   17.93527603  142.77299500    0.41999999    2.73000002
   17.93861008  145.58000183    0.41999999    2.75000000
   17.94166565  137.36199951    0.41999999    2.75000000
   17.94499969  145.25399780    0.41999999    2.73000002
   17.94833183  145.48100281    0.41999999    2.73000002
   17.95138931  152.80000305    0.41999999    2.73000002
   17.95444489  143.50300598    0.44000000    2.73000002
   17.95499992  151.08700562    0.44000000    2.73000002
   17.95833397  143.40199280    0.47999999    2.73000002
   17.96138954  158.54100037    0.46000001    2.73000002
   17.96472359  141.18499756    0.46000001    2.73000002
   17.96805573  137.71600342    0.50000000    2.73000002
   17.97416687  137.71600342    0.46000001    2.73000002
   17.97805595  148.68400574    0.44000000    2.73000002
   17.98139000  135.81500244    0.47999999    2.73000002
   17.98472214  151.40600586    0.47999999    2.71000004
   17.98777771  139.81100464    0.46000001    2.73000002
   17.98833275  142.41000366    0.46000001    2.73000002
   17.99166679  142.97700500    0.46000001    2.73000002
   17.99472237  135.61900330    0.44000000    2.73000002
   17.99805641  133.61099243    0.46000001    2.73000002
   18.00111198  132.62399292    0.46000001    2.73000002
   18.00444412  122.42299652    0.46000001    2.75000000
   18.00777817  146.68099976    0.44000000    2.73000002
   18.01083374  140.54899597    0.41999999    2.73000002
   18.01694489  140.54899597    0.41999999    2.75000000
   18.02111053  120.32399750    0.41999999    2.73000002
   18.02166557  131.04299927    0.41999999    2.73000002
   18.02472115  143.52299500    0.41999999    2.73000002
   18.02805519  138.89999390    0.41999999    2.73000002
   18.03138924  138.36900330    0.41999999    2.73000002
   18.03444481  138.05999756    0.41999999    2.73000002
   18.03777695  150.32600403    0.41999999    2.73000002
   18.04083252  148.31199646    0.41999999    2.73000002
   18.04416656  138.58000183    0.44000000    2.73000002
   18.04749870  147.71499634    0.44000000    2.73000002
   18.05055428  137.63099670    0.46000001    2.71000004
   18.05388832  135.50999451    0.47999999    2.71000004
   18.05499840  140.07400513    0.47999999    2.71000004
   18.05972099  140.07400513    0.50000000    2.71000004
   18.06388855  143.00900269    0.50000000    2.73000002
   18.06722260  141.63800049    0.50000000    2.73000002
   18.07027817  142.49400330    0.50000000    2.71000004
   18.07361221  139.33399963    0.50000000    2.71000004
   18.07694626  140.93299866    0.51999998    2.73000002
   18.08000183  140.88400269    0.50000000    2.71000004
   18.08333397  138.91700745    0.51999998    2.71000004
   18.08666801  144.49200439    0.51999998    2.71000004
   18.08833313  140.13600159    0.51999998    2.71000004
   18.09000015  143.28100586    0.51999998    2.71000004
   18.09333420  141.98500061    0.51999998    2.71000004
   18.09666824  139.21200562    0.50000000    2.71000004
   18.10250092  139.21200562    0.47999999    2.71000004
   18.10666656  141.51100159    0.50000000    2.71000004
   18.11000061  138.62500000    0.50000000    2.73000002
   18.11305618  139.24699402    0.50000000    2.71000004
   18.11638832  136.73599243    0.50000000    2.71000004
   18.11972237  139.57400513    0.50000000    2.71000004
   18.12166595  133.97700500    0.50000000    2.71000004
   18.12333298  148.92999268    0.47999999    2.71000004
   18.12666702  140.93800354    0.47999999    0.46000001
   18.13000107  139.42599487    0.47999999    2.71000004
   18.13305473  143.85499573    0.47999999    2.71000004
   18.13638878  135.27600098    0.46000001    2.73000002
   18.13944435  143.96899414    0.46000001    2.73000002
   18.14555550  143.96899414    0.46000001    2.73000002
   18.14944458  136.23500061    0.44000000    2.73000002
   18.15277672  138.68299866    0.44000000    2.71000004
   18.15499878  142.43400574    0.44000000    2.71000004
   18.15638924  141.39100647    0.44000000    2.71000004
   18.15972137  139.63400269    0.44000000    2.71000004
   18.16305542  144.01100159    0.44000000    2.71000004
   18.16611099  133.69900513    0.44000000    2.73000002
   18.16944313  138.22399902    0.44000000    2.73000002
   18.17249870  131.27200317    0.44000000    2.71000004
   18.17583275  134.97099304    0.44000000    2.71000004
   18.17916679  143.10099792    0.44000000    2.73000002
   18.18222237  147.07600403    0.44000000    2.73000002
   18.18833160  147.07600403    0.44000000    2.73000002
   18.19249916  144.28300476    0.46000001    2.73000002
   18.19555473  150.52999878    0.46000001    2.73000002
   18.19888878  150.81900024    0.44000000    2.73000002
   18.20222282  142.24400330    0.44000000    2.73000002
   18.20527840  165.18899536    0.44000000    2.73000002
   18.20861244  176.40499878    0.44000000    2.73000002
   18.21166801  182.14999390    0.46000001    2.71000004
   18.21500015  184.44299316    0.46000001    2.71000004
   18.21833420  192.34399414    0.46000001    2.73000002
   18.22138977  174.60800171    0.46000001    2.71000004
   18.22194481  168.82899475    0.46000001    2.71000004
   18.22527885  186.75999451    0.46000001    2.71000004
   18.23111153  186.75999451    0.47999999    2.73000002
   18.23555565  166.06900024    0.50000000    2.71000004
   18.23861122  164.48300171    0.47999999    2.71000004
   18.24194527  174.77499390    0.47999999    2.71000004
   18.24500084  151.41799927    0.47999999    2.71000004
   18.24833298  161.94799805    0.47999999    2.71000004
   18.25166702  159.26300049    0.47999999    2.71000004
   18.25472260  146.96400452    0.47999999    2.71000004
   18.25527763  142.21800232    0.47999999    2.71000004
   18.25833321  143.86799622    0.47999999    2.73000002
   18.26166725  139.91200256    0.47999999    2.73000002
   18.26472282  169.03999329    0.47999999    2.73000002
   18.26805496  160.59199524    0.47999999    2.73000002
   18.27388954  160.59199524    0.47999999    2.71000004
   18.27805519  167.10800171    0.47999999    2.71000004
   18.28138924  156.83099365    0.47999999    2.71000004
   18.28444481  181.74400330    0.47999999    2.73000002
   18.28777695  179.23199463    0.47999999    2.71000004
   18.28861046  160.35099792    0.47999999    2.71000004
   18.29138756  165.41000366    0.47999999    2.71000004
   18.29472160  163.95799255    0.47999999    2.71000004
   18.29777718  179.51899719    0.47999999    2.71000004
   18.30111122  165.28300476    0.47999999    2.71000004
   18.30416679  161.03199768    0.47999999    2.73000002
   18.30749893  167.58599854    0.47999999    2.71000004
   18.31083298  175.78799438    0.47999999    2.71000004
   18.31666756  175.78799438    0.47999999    2.73000002
   18.32083511  166.82699585    0.47999999    2.73000002
   18.32194519  173.15100098    0.47999999    2.71000004
   18.32472229  186.60200500    0.47999999    2.71000004
   18.32805634  177.31399536    0.47999999    2.71000004
   18.33111191  185.98300171    0.46000001    2.71000004
   18.33444595  175.08000183    0.46000001    2.71000004
   18.33777809  176.25300598    0.47999999    2.71000004
   18.34083366  163.52699280    0.47999999    2.73000002
   18.34416771  164.49600220    0.47999999    2.71000004
   18.34722328  177.26600647    0.47999999    2.71000004
   18.35055542  175.28900146    0.47999999    2.71000004
   18.35388947  163.71699524    0.47999999    2.71000004
   18.35527802  158.95799255    0.47999999    2.71000004
   18.35972214  158.95799255    0.47999999    2.71000004
   18.36388969  159.06900024    0.47999999    2.71000004
   18.36694527  154.85899353    0.47999999    2.71000004
   18.37027740  176.76899719    0.47999999    2.71000004
   18.37333298  167.47799683    0.47999999    2.71000004
   18.37666702  179.57400513    0.47999999    2.71000004
   18.38000107  172.12600708    0.46000001    2.71000004
   18.38305473  158.44099426    0.46000001    2.71000004
   18.38638878  167.35800171    0.47999999    2.71000004
   18.38861084  165.36300659    0.46000001    2.71000004
   18.38999939  151.12899780    0.46000001    2.71000004
   18.39333344  160.91400146    0.46000001    2.71000004
   18.39638901  168.70100403    0.47999999    2.73000002
   18.40250015  168.70100403    0.47999999    2.71000004
   18.40666580  165.20599365    0.47999999    2.71000004
   18.40999985  157.77600098    0.47999999    2.71000004
   18.41305542  158.80099487    0.47999999    2.71000004
   18.41638756  161.42399597    0.47999999    2.71000004
   18.41972160  171.20899963    0.47999999    2.71000004
   18.42194366  175.48599243    0.47999999    2.71000004
   18.42333221  169.59500122    0.47999999    2.71000004
   18.42666626  159.95199585    0.47999999    2.71000004
   18.42972183  171.14199829    0.47999999    2.71000004
   18.43305397  173.31199646    0.47999999    2.71000004
   18.43638802  171.65499878    0.47999999    2.71000004
   18.43944359  179.40800476    0.47999999    2.71000004
   18.44527626  179.40800476    0.46000001    2.71000004
   18.44944382  178.91200256    0.47999999    2.71000004
   18.45277786  160.20199585    0.47999999    2.71000004
   18.45527840  172.20399475    0.46000001    2.71000004
   18.45639038  178.64599609    0.46000001    2.71000004
   18.45972252  159.16000366    0.46000001    2.71000004
   18.46277809  162.28500366    0.46000001    2.71000004
   18.46611214  162.83200073    0.46000001    2.71000004
   18.46944427  162.13900757    0.46000001    2.71000004
   18.47249985  164.97500610    0.46000001    2.71000004
   18.47583389  156.22999573    0.46000001    2.71000004
   18.47888947  151.40899658    0.46000001    2.71000004
   18.48222351  155.35499573    0.47999999    2.71000004
   18.48805618  155.35499573    0.63000000    2.71000004
   18.50666618  164.71499634    1.05999994    2.71000004
   18.50972176  167.44799805    1.00000000    2.71000004
   18.51305580  175.45599365    0.89999998    2.71000004
   18.51638794  177.74499512    0.98000002    2.71000004
   18.51944351  174.85099792    1.01999998    2.71000004
   18.52277756  171.00700378    1.03999996    2.69000006
   18.52583313  161.47500610    1.11000001    2.71000004
   18.53138924  161.47500610    0.94000000    2.71000004
   18.53555489  157.18099976    0.89999998    2.71000004
   18.53861046  166.23399353    0.83999997    2.71000004
   18.53972244  155.89900208    0.83999997    2.71000004
   18.54222107  162.58900452    0.76999998    2.71000004
   18.54555511  161.31900024    0.73000002    2.71000004
   18.54888916  164.37600708    0.69000000    2.71000004
   18.55194283  169.16000366    0.64999998    2.71000004
   18.55527687  151.28900146    0.64999998    2.71000004
   18.55833244  156.06700134    0.63000000    2.71000004
   18.56166649  151.14900208    0.64999998    2.71000004
   18.56499863  144.54800415    0.63000000    2.71000004
   18.56805611  150.24699402    0.58999997    2.71000004
   18.57416725  150.24699402    0.58999997    2.71000004
   18.57833481  137.58799744    0.56999999    2.71000004
   18.58139038  140.13900757    0.56999999    2.69000006
   18.58472252  136.32099915    0.56999999    2.69000006
   18.58805656  127.06199646    0.56999999    2.71000004
   18.59138870  146.72300720    0.56999999    2.71000004
   18.59444427  131.09700012    0.56999999    2.71000004
   18.59777832  138.69700623    0.61000001    2.69000006
   18.60083389  137.80599976    0.61000001    2.71000004
   18.60416794  133.24899292    0.58999997    2.71000004
   18.60639000  137.78199768    0.56999999    2.71000004
   18.60777855  133.68899536    0.56999999    2.71000004
   18.61111069  158.43699646    0.55000001    2.71000004
   18.61694527  158.43699646    0.52999997    2.69000006
   18.62111092  155.58399963    0.51999998    2.71000004
   18.62444496  160.15600586    0.51999998    2.71000004
   18.62750053  158.11399841    0.51999998    2.71000004
   18.63083267  154.37600708    0.50000000    2.69000006
   18.63416672  169.02499390    0.50000000    2.71000004
   18.63722229  149.64700317    0.50000000    2.71000004
   18.63972282  137.85000610    0.50000000    2.71000004
   18.64083290  157.41400146    0.50000000    2.69000006
   18.64416695  129.62199402    0.50000000    2.69000006
   18.64749908  155.85499573    0.50000000    2.71000004
   18.65055466  139.78900146    0.50000000    2.71000004
   18.65388870  162.00500488    0.50000000    2.69000006
   18.65972137  162.00500488    0.50000000    2.69000006
   18.66388893  149.37500000    0.50000000    2.69000006
   18.66722107  152.62399292    0.51999998    2.69000006
   18.67055511  163.11599731    0.51999998    2.69000006
   18.67305565  149.86099243    0.51999998    2.69000006
   18.67388916  150.04899597    0.51999998    2.69000006
   18.67722130  173.24299622    0.51999998    2.71000004
   18.68055534  161.20700073    0.51999998    2.71000004
   18.68361092  168.42599487    0.51999998    2.69000006
   18.68694305  169.86199951    0.51999998    2.69000006
   18.69027710  161.48800659    0.51999998    2.71000004
   18.69333267  153.37699890    0.51999998    2.69000006
   18.69666672  169.77299500    0.51999998    2.69000006
   18.70277786  169.77299500    0.51999998    2.71000004
   18.70666695  158.16000366    0.51999998    2.71000004
   18.71000099  172.58500671    0.51999998    2.69000006
   18.71333504  162.60899353    0.51999998    2.71000004
   18.71638870  176.57000732    0.51999998    2.69000006
   18.71972275  178.99099731    0.52999997    2.69000006
   18.72305679  161.95700073    0.52999997    2.69000006
   18.72611237  152.41700745    0.52999997    2.69000006
   18.72944450  157.40600586    0.51999998    2.69000006
   18.73250008  168.94900513    0.52999997    2.71000004
   18.73583412  175.33200073    0.52999997    2.69000006
   18.73916626  177.21699524    0.51999998    2.69000006
   18.73972321  176.82899475    0.51999998    2.69000006
   18.74555588  176.82899475    0.51999998    2.69000006
   18.74972153  179.61900330    0.51999998    2.69000006
   18.75277710  170.27600098    0.52999997    2.69000006
   18.75611115  166.07299805    0.51999998    2.69000006
   18.75944519  175.72399902    0.51999998    2.69000006
   18.76250076  174.24299622    0.51999998    2.69000006
   18.76583290  160.49299622    0.51999998    2.69000006
   18.76916695  179.95100403    0.51999998    2.69000006
   18.77222252  165.50700378    0.51999998    2.71000004
   18.77305603  155.03700256    0.51999998    2.71000004
   18.77583313  147.15600586    0.51999998    2.69000006
   18.77916718  158.50399780    0.51999998    2.69000006
   18.78249931  157.10699463    0.51999998    2.69000006
   18.78833199  157.10699463    0.51999998    2.69000006
   18.79249954  162.87600708    0.51999998    2.69000006
   18.79555511  151.79400635    0.52999997    2.69000006
   18.79888916  156.74400330    0.51999998    2.69000006
   18.80222130  150.77499390    0.51999998    2.69000006
   18.80527687  163.76600647    0.51999998    2.69000006
   18.80638885  156.36300659    0.51999998    2.69000006
   18.80888748  155.97900391    0.51999998    2.69000006
   18.81222153  161.64799500    0.52999997    2.69000006
   18.81555557  162.98300171    0.51999998    2.69000006
   18.81861115  166.55499268    0.52999997    2.69000006
   18.82194519  166.72799683    0.52999997    2.69000006
   18.82527924  165.23699951    0.52999997    2.69000006
   18.83111191  165.23699951    0.55000001    2.69000006
   18.83527756  163.39500427    0.55000001    2.69000006
   18.83861160  169.07699585    0.55000001    2.69000006
   18.83972359  169.27600098    0.55000001    2.69000006
   18.84222221  178.77799988    0.55000001    2.69000006
   18.84527779  172.41999817    0.55000001    2.69000006
   18.84861183  171.71499634    0.55000001    2.69000006
   18.85166740  172.51800537    0.55000001    2.69000006
   18.85499954  159.83299255    0.55000001    2.69000006
   18.85833359  152.30400085    0.55000001    2.69000006
   18.86138916  156.05900574    0.55000001    2.69000006
   18.86472321  166.67700195    0.55000001    2.69000006
   18.86805534  179.55400085    0.55000001    2.69000006
   18.87416649  179.55400085    0.55000001    2.69000006
   18.87833405  177.63200378    0.55000001    2.69000006
   18.88138962  181.93499756    0.56999999    2.67000008
   18.88472176  182.43499756    0.56999999    2.67000008
   18.88777733  167.57899475    0.56999999    2.67000008
   18.89111137  177.30700684    0.56999999    2.67000008
   18.89444351  179.89399719    0.56999999    2.67000008
   18.89749908  178.37600708    0.56999999    2.67000008
   18.90083313  171.30900574    0.56999999    2.67000008
   18.90416718  189.39799500    0.56999999    2.67000008
   18.90638924  158.40400696    0.56999999    2.67000008
   18.90749931  184.41200256    0.56999999    2.67000008
   18.91083336  177.69299316    0.56999999    2.69000006
   18.91694450  177.69299316    0.55000001    2.67000008
   18.92111015  178.92999268    0.56999999    2.67000008
   18.92416573  173.90499878    0.55000001    2.67000008
   18.92749977  165.95500183    0.55000001    2.69000006
   18.93083191  158.62899780    0.55000001    2.69000006
   18.93388748  166.85099792    0.55000001    2.69000006
   18.93722153  178.32299805    0.55000001    2.67000008
   18.93972206  156.36700439    0.55000001    2.69000006
   18.94111061  169.84899902    0.55000001    2.69000006
   18.94416618  173.19999695    0.56999999    2.67000008
   18.94749832  159.85899353    0.55000001    2.69000006
   18.95055580  167.63999939    0.55000001    2.69000006
   18.95388985  153.99600220    0.55000001    2.69000006
   18.95972252  153.99600220    0.55000001    2.69000006
   18.96389008  172.98599243    0.55000001    2.69000006
   18.96722221  159.26699829    0.55000001    2.69000006
   18.97027779  161.53100586    0.55000001    2.69000006
   18.97305679  160.05599976    0.55000001    2.69000006
   18.97416687  165.18099976    0.55000001    2.69000006
   18.97722244  162.71000671    0.55000001    2.69000006
   18.98055649  157.63400269    0.55000001    2.69000006
   18.98361206  160.95300293    0.55000001    2.67000008
   18.98694420  141.16600037    0.55000001    2.67000008
   18.99027824  157.96600342    0.56999999    2.69000006
   18.99333382  150.71899414    0.55000001    2.69000006
   18.99666786  171.31199646    0.55000001    2.69000006
   19.00250053  171.31199646    0.56999999    2.69000006
   19.00666618  160.39599609    0.56999999    2.69000006
   19.01000023  172.48399353    0.56999999    2.67000008
   19.01333427  162.21299744    0.56999999    2.67000008
   19.01638794  150.45399475    0.56999999    2.69000006
   19.01972198  154.65499878    0.56999999    2.69000006
   19.02305603  165.60899353    0.56999999    2.67000008
   19.02611160  166.75100708    0.55000001    2.69000006
   19.02944374  171.33200073    0.55000001    2.67000008
   19.03277779  181.85200500    0.55000001    2.69000006
   19.03583336  166.46000671    0.52999997    2.67000008
   19.03916550  164.64700317    0.52999997    2.67000008
   19.03972244  171.48899841    0.55000001    2.67000008
   19.04527664  171.48899841    0.52999997    2.69000006
   19.04944420  167.46299744    0.52999997    2.69000006
   19.05277634  163.22200012    0.52999997    2.67000008
   19.05611038  165.35800171    0.52999997    2.69000006
   19.05916595  172.05599976    0.55000001    2.67000008
   19.06250000  170.56900024    0.52999997    2.67000008
   19.06555557  152.49699402    0.55000001    2.67000008
   19.06888962  169.85499573    0.55000001    2.67000008
   19.07222366  176.35899353    0.55000001    2.69000006
   19.07305717  172.99400330    0.55000001    2.69000006
   19.07555580  163.09899902    0.55000001    2.67000008
   19.07888985  173.11599731    0.55000001    2.67000008
   19.08222389  159.68699646    0.55000001    2.67000008
   19.08833313  159.68699646    0.55000001    2.67000008
   19.09250069  146.44700623    0.56999999    2.67000008
   19.09555626  150.70700073    0.56999999    2.67000008
   19.09889030  161.97700500    0.58999997    2.67000008
   19.10194397  157.86000061    0.58999997    2.67000008
   19.10527802  149.22900391    0.61000001    2.67000008
   19.10639000  160.40699768    0.61000001    2.67000008
   19.10888863  155.51600647    0.58999997    2.66000009
   19.11222267  161.00100708    0.58999997    2.66000009
   19.11555672  158.25999451    0.61000001    2.67000008
   19.11861038  165.78700256    0.61000001    2.66000009
   19.12194443  176.70599365    0.61000001    2.66000009
   19.12527847  168.66600037    0.61000001    2.67000008
   19.13111115  168.66600037    0.61000001    2.67000008
   19.13527679  178.31599426    0.61000001    2.66000009
   19.13833237  162.81100464    0.61000001    2.67000008
   19.13972282  149.19099426    0.61000001    2.67000008
   19.14222145  181.51800537    0.61000001    2.67000008
   19.14527702  159.99600220    0.61000001    2.67000008
   19.14861107  159.81799316    0.61000001    2.66000009
   19.15194321  154.40199280    0.61000001    2.66000009
   19.15499878  167.01300049    0.63000000    2.66000009
   19.15833282  185.46600342    0.63000000    2.66000009
   19.16138840  170.55499268    0.63000000    2.66000009
   19.16472244  179.27499390    0.63000000    2.66000009
   19.16805458  167.43499756    0.63000000    2.66000009
   19.17416573  167.43499756    0.63000000    2.66000009
   19.17833328  175.60699463    0.63000000    2.66000009
   19.18138885  163.56199646    0.63000000    2.66000009
   19.18472099  178.09500122    0.63000000    2.66000009
   19.18805504  144.65699768    0.63000000    2.66000009
   19.19111061  175.13299561    0.64999998    2.66000009
   19.19444275  182.94099426    0.64999998    2.66000009
   19.19749832  178.52099609    0.64999998    2.67000008
   19.20083427  183.39500427    0.64999998    2.66000009
   19.20416832  185.07299805    0.64999998    2.66000009
   19.20639038  167.33700562    0.64999998    2.67000008
   19.20777893  168.33500671    0.64999998    2.67000008
   19.21083450  173.82099915    0.64999998    2.67000008
   19.21666718  173.82099915    0.64999998    2.67000008
   19.22083473  169.70100403    0.64999998    2.64000010
   19.22416687  159.65100098    0.64999998    2.66000009
   19.22750092  163.92300415    0.64999998    2.66000009
   19.23055649  167.76699829    0.64999998    2.66000009
   19.23388863  173.61500549    0.64999998    2.66000009
   19.23722267  177.03100586    0.64999998    2.64000010
   19.23972321  164.53999329    0.64999998    2.64000010
   19.24111176  174.54200745    0.64999998    2.66000009
   19.24416733  165.55400085    0.64999998    2.66000009
   19.24749947  155.88200378    0.64999998    2.66000009
   19.25055504  160.52999878    0.64999998    2.66000009
   19.25388908  163.89399719    0.64999998    2.66000009
   19.25972176  163.89399719    0.64999998    2.66000009
   19.26388931  174.22200012    0.64999998    2.64000010
   19.26694489  165.08000183    0.67000002    2.66000009
   19.27027702  168.56100464    0.67000002    2.66000009
   19.27305603  184.41799927    0.64999998    2.66000009
   19.27388954  201.35699463    0.64999998    2.66000009
   19.27694511  169.72099304    0.64999998    2.66000009
   19.28027725  162.13999939    0.64999998    2.66000009
   19.28333282  167.58799744    0.64999998    2.66000009
   19.28666687  190.68400574    0.64999998    2.66000009
   19.28999901  161.26800537    0.64999998    2.66000009
   19.29305458  152.99499512    0.64999998    2.66000009
   19.29638863  163.35200500    0.64999998    2.64000010
   19.30249977  163.35200500    0.67000002    2.64000010
   19.30666542  156.83700562    0.69000000    2.64000010
   19.30972099  193.94999695    0.67000002    2.64000010
   19.31305504  171.46299744    0.67000002    2.64000010
   19.31638718  161.68400574    0.69000000    2.64000010
   19.31944466  158.90400696    0.67000002    2.64000010
   19.32277870  152.89399719    0.69000000    2.64000010
   19.32611275  156.39100647    0.69000000    2.66000009
   19.32916832  157.41900635    0.69000000    2.64000010
   19.33250046  173.24800110    0.69000000    2.64000010
   19.33555603  162.39199829    0.69000000    2.64000010
   19.33889008  161.76499939    0.69000000    2.64000010
   19.33972359  158.60600281    0.69000000    2.64000010
   19.34527779  158.60600281    0.69000000    2.66000009
   19.34944534  162.80299377    0.67000002    2.64000010
   19.35277748  172.65400696    0.67000002    2.64000010
   19.35583305  143.61000061    0.67000002    2.66000009
   19.35916710  148.40699768    0.67000002    2.64000010
   19.36250114  151.77400208    0.67000002    2.64000010
   19.36583328  161.94799805    0.69000000    2.64000010
   19.36888885  175.23199463    0.69000000    2.64000010
   19.37222290  172.30400085    0.69000000    2.66000009
   19.37305641  167.65199280    0.69000000    2.66000009
   19.37583351  168.48300171    0.69000000    2.64000010
   19.37888908  176.00799561    0.69000000    2.64000010
   19.38222313  172.63800049    0.67000002    2.64000010
   19.38805580  172.63800049    0.67000002    2.64000010
   19.39222145  173.03900146    0.67000002    2.64000010
   19.39555550  164.80200195    0.67000002    2.66000009
   19.39888954  211.33900452    0.67000002    2.64000010
   19.40194321  181.92999268    0.67000002    2.64000010
   19.40527725  149.10000610    0.69000000    2.64000010
   19.40638924  149.87100220    0.69000000    2.64000010
   19.40888786  128.85400391    0.67000002    2.66000009
   19.41194344  132.97900391    0.67000002    2.66000009
   19.41527748  155.51499939    0.69000000    2.64000010
   19.41833305  158.31300354    0.67000002    2.64000010
   19.42166519  154.25100708    0.67000002    2.64000010
   19.42499924  159.92399597    0.67000002    2.64000010
   19.43111038  159.92399597    0.64999998    2.64000010
   19.43499947  180.12800598    0.64999998    2.66000009
   19.43833160  177.62699890    0.64999998    2.66000009
   19.43972206  178.71299744    0.67000002    2.64000010
   19.44222069  182.74200439    0.67000002    2.64000010
   19.44527626  185.77900696    0.67000002    2.64000010
   19.44861031  182.37500000    0.67000002    2.64000010
   19.45194435  176.87699890    0.67000002    2.64000010
   19.45499992  181.48800659    0.69000000    2.64000010
   19.45833397  192.98800659    0.69000000    2.64000010
   19.46166801  172.31199646    0.69000000    2.64000010
   19.46472359  175.09899902    0.69000000    2.64000010
   19.46805573  167.83599854    0.70999998    2.64000010
   19.47389030  167.83599854    0.70999998    2.64000010
   19.47805595  176.96099854    0.70999998    2.64000010
   19.48111153  159.79600525    0.70999998    2.64000010
   19.48444557  175.08399963    0.70999998    2.64000010
   19.48777771  172.31199646    0.69000000    2.64000010
   19.49083328  165.83599854    0.70999998    2.64000010
   19.49416733  159.74000549    0.76999998    2.64000010
   19.49749947  154.05700684    0.76999998    2.64000010
   19.50055504  170.19799805    0.73000002    2.64000010
   19.50388908  167.57200623    0.76999998    2.64000010
   19.50638962  166.29800415    0.80000001    2.64000010
   19.52722168  166.29800415    0.94000000    2.61999989
   19.53111076  152.82200623    1.03999996    2.64000010
   19.53444481  156.97099304    0.94000000    2.64000010
   19.53777695  154.71299744    1.01999998    2.64000010
   19.53972244  145.20899963    0.88000000    2.61999989
   19.54138756  153.14100647    0.88000000    2.61999989
   19.54472160  155.77099609    0.81999999    2.64000010
   19.54777718  152.70799255    0.75000000    2.64000010
   19.55111122  156.13400269    0.79000002    2.61999989
   19.55444336  158.06700134    0.79000002    2.61999989
   19.55749893  158.22300720    0.75000000    2.64000010
   19.56083298  153.45700073    0.75000000    2.64000010
   19.56388855  147.43899536    0.81999999    2.61999989
   19.56972313  147.43899536    0.79000002    2.64000010
   19.57389069  145.50599670    0.75000000    2.64000010
