    HOUR (UT)   FLARE FACTOR    SKY TESTER    SUN TESTER
   11.00944424   -1.00000000   -1.00000000   -1.00000000
   11.14805508   92.79470062    1.07000005    2.55999994
   11.15138817   94.30059814    1.05999994    2.55999994
   11.15472221   89.12570190    1.05999994    2.55999994
   11.15805531   90.84459686    1.05999994    2.55999994
   11.16111088   94.15049744    1.03999996    2.57999992
   11.16805553   94.15049744    1.00000000    2.57999992
   11.17194462   89.25540161    1.00000000    2.57999992
   11.17527771   92.39109802    1.00000000    2.57999992
   11.17861176   86.93379974    0.98000002    2.57999992
   11.18111134   95.25299835    0.98000002    2.59999990
   11.18194485   88.66909790    0.98000002    2.59999990
   11.18527794   93.12429810    0.98000002    2.59999990
   11.18861103   90.36019897    0.95999998    2.57999992
   11.19166660   88.86409760    0.94000000    2.59999990
   11.19499969   88.91200256    0.94000000    2.59999990
   11.19833374   83.49859619    0.94000000    2.59999990
   11.20138836   94.42009735    0.95999998    2.57999992
   11.20472240   90.54440308    0.94000000    2.59999990
   11.21083355   90.54440308    0.94000000    2.59999990
   11.21500015   92.00289917    0.94000000    2.59999990
   11.21805477   92.11840057    0.94000000    2.59999990
   11.22138882   99.07039642    0.94000000    2.59999990
   11.22472191   96.15969849    0.95999998    2.59999990
   11.22777748   89.76540375    0.95999998    2.59999990
   11.23111057   90.30290222    0.95999998    2.59999990
   11.23444462   93.58660126    0.95999998    2.59999990
   11.23750019   86.07910156    0.95999998    2.59999990
   11.24083328   93.10800171    0.95999998    2.59999990
   11.24416733   85.64869690    0.95999998    2.59999990
   11.24722290   93.76930237    0.95999998    2.59999990
   11.24777794   94.27950287    0.95999998    2.59999990
   11.25361156   94.27950287    0.98000002    2.59999990
   11.25777817   86.99379730    0.98000002    2.59999990
   11.26111126   92.18409729    0.95999998    2.59999990
   11.26416683   95.33589935    0.98000002    2.61999989
   11.26749992   83.90090179    0.98000002    2.61999989
   11.27083302   92.90100098    0.98000002    2.61999989
   11.27388859   84.75460052    0.95999998    2.61999989
   11.27750015   86.01409912    0.95999998    2.61999989
   11.28083324   88.09069824    0.95999998    2.61999989
   11.28111076   88.99210358    0.95999998    2.61999989
   11.28416729   86.67810059    0.95999998    2.61999989
   11.28750038   88.82759857    0.95999998    2.61999989
   11.29055595   89.09629822    0.95999998    2.61999989
   11.29638958   89.09629822    0.98000002    2.61999989
   11.30055618   84.97969818    0.98000002    2.61999989
   11.30388927   86.59490204    0.98000002    2.61999989
   11.30694485   91.12989807    0.98000002    2.61999989
   11.31027794   89.28389740    0.98000002    2.61999989
   11.31361103   93.01210022    0.98000002    2.61999989
   11.31472206   87.60690308    0.98000002    2.61999989
   11.31722260   87.66809845    0.98000002    2.64000010
   11.32055569   91.15299988    0.98000002    2.61999989
   11.32388878   84.48280334    1.00000000    2.61999989
   11.32694435   85.96360016    1.00000000    2.61999989
   11.33027744   91.39209747    1.00000000    2.61999989
   11.33333302   97.61779785    1.00000000    2.61999989
   11.33944416   97.61779785    0.98000002    2.61999989
   11.34333324   84.89939880    0.98000002    2.64000010
   11.34666634   89.11810303    0.95999998    2.64000010
   11.34805489   89.76460266    0.95999998    2.64000010
   11.35027790   81.44799805    0.95999998    2.64000010
   11.35361195   85.50859833    0.95999998    2.64000010
   11.35694504   85.82820129    0.95999998    2.64000010
   11.36000061   85.79180145    0.94000000    2.64000010
   11.36333370   83.88990021    0.94000000    2.64000010
   11.36638927   88.92910004    0.94000000    2.64000010
   11.36972237   84.13269806    0.94000000    2.64000010
   11.37305546   89.38320160    0.94000000    2.64000010
   11.37611103   84.89959717    0.95999998    2.61999989
   11.38222218   84.89959717    0.95999998    2.64000010
   11.38638878   98.43550110    0.98000002    2.64000010
   11.38944435   85.76170349    0.98000002    2.64000010
   11.39277744   88.92040253    0.98000002    2.64000010
   11.39611053   88.83129883    0.98000002    2.64000010
   11.39916611   97.47090149    0.95999998    2.64000010
   11.40249920   84.39420319    0.95999998    2.64000010
   11.40583324   84.51519775    0.98000002    2.66000009
   11.40888882   84.43049622    0.98000002    2.66000009
   11.41222191   87.35109711    0.95999998    2.64000010
   11.41472149   83.88619995    0.95999998    2.64000010
   11.41583252   81.39330292    0.95999998    2.64000010
   11.41916656   87.32749939    0.95999998    2.64000010
   11.42500019   87.32749939    0.95999998    2.64000010
   11.42916679   83.66670227    0.95999998    2.66000009
   11.43249989   84.98120117    0.95999998    2.66000009
   11.43555546   84.20629883    0.98000002    2.66000009
   11.43888855   85.21589661    0.95999998    2.66000009
   11.44194412   83.88009644    0.95999998    2.66000009
   11.44527817   88.33879852    0.95999998    2.66000009
   11.44805527   84.72799683    0.95999998    2.64000010
   11.44888878   84.98909760    0.95999998    2.64000010
   11.45222187   84.24669647    0.95999998    2.66000009
   11.45555496   87.31600189    0.95999998    2.66000009
   11.45888901   82.94960022    0.95999998    2.67000008
   11.46194458   84.03749847    0.94000000    2.66000009
   11.46777725   84.03749847    0.94000000    2.66000009
   11.47194386   84.90440369    0.94000000    2.67000008
   11.47527695   90.37300110    0.94000000    2.66000009
   11.47861099   82.86650085    0.92000002    2.67000008
   11.48138809   79.95980072    0.92000002    2.66000009
   11.48194408   83.55480194    0.92000002    2.66000009
   11.48527813   82.61029816    0.89999998    2.66000009
   11.48861122   86.56279755    0.89999998    2.66000009
   11.49194431   90.81449890    0.89999998    2.66000009
   11.49527836   85.58000183    0.89999998    2.66000009
   11.49861145   86.33489990    0.89999998    2.66000009
   11.50166702   84.34510040    0.89999998    2.67000008
   11.50500011   81.33360291    0.89999998    2.67000008
   11.51083374   81.33360291    0.89999998    2.66000009
   11.51500034   84.30359650    0.89999998    2.67000008
   11.51805496   83.31909943    0.89999998    2.67000008
   11.52138901   88.00479889    0.88000000    2.67000008
   11.52444458   83.25869751    0.88000000    2.67000008
   11.52777767   82.38749695    0.88000000    2.67000008
   11.53111076   83.97820282    0.88000000    2.67000008
   11.53416729   80.98159790    0.88000000    2.67000008
   11.53750038   82.54779816    0.88000000    2.67000008
   11.54083347   81.76889801    0.88000000    2.67000008
   11.54388905   84.30210114    0.88000000    2.67000008
   11.54722309   83.89240265    0.86000001    2.67000008
   11.54805565   80.94460297    0.86000001    2.67000008
   11.55361176   80.94460297    0.86000001    2.67000008
   11.55777836   84.55899811    0.86000001    2.67000008
   11.56083393   85.77339935    0.86000001    2.67000008
   11.56416702   81.92960358    0.86000001    2.69000006
   11.56750011   82.44059753    0.86000001    2.67000008
   11.57055569   80.81279755    0.86000001    2.67000008
   11.57388878   86.39219666    0.86000001    2.67000008
   11.57694435   83.17949677    0.86000001    2.67000008
   11.58027744   83.54039764    0.86000001    2.69000006
   11.58138847   85.01380157    0.86000001    2.69000006
   11.58388901   77.54199982    0.86000001    2.69000006
   11.58722210   77.95010376    0.86000001    2.69000006
   11.59055519   80.34110260    0.86000001    2.67000008
   11.59638882   80.34110260    0.86000001    2.69000006
   11.60055637   81.34580231    0.86000001    2.69000006
   11.60388947   77.96320343    0.86000001    2.69000006
   11.60694504   86.62670135    0.86000001    2.69000006
   11.61027813   85.83809662    0.86000001    2.69000006
   11.61361122   83.48999786    0.86000001    2.69000006
   11.61472225   85.84179688    0.86000001    2.69000006
   11.61694431   79.79170227    0.86000001    2.69000006
   11.62027836   80.97760010    0.86000001    2.69000006
   11.62361145   81.02850342    0.86000001    2.69000006
   11.62666702   78.42500305    0.88000000    2.69000006
   11.63000011   77.68340302    0.88000000    2.69000006
   11.63333321   78.32779694    0.88000000    2.69000006
   11.63916683   78.32779694    0.88000000    2.69000006
   11.64333344   76.83640289    0.88000000    2.69000006
   11.64666653   79.33959961    0.86000001    2.69000006
   11.64805508   82.64810181    0.86000001    2.69000006
   11.64999962   77.29850006    0.86000001    2.69000006
   11.65333271   85.78340149    0.86000001    2.69000006
   11.65666676   81.98010254    0.88000000    2.69000006
   11.65972137   79.26480103    0.88000000    2.69000006
   11.66305542   77.93699646    0.88000000    2.69000006
   11.66611099  201.50399780    0.88000000    2.69000006
   11.66972256   81.70570374    0.89999998    2.69000006
   11.67277813   79.14469910    0.88000000    2.69000006
   11.67611122   79.25029755    0.88000000    2.69000006
   11.68222237   79.25029755    0.86000001    2.69000006
   11.68611145   77.43329620    0.88000000    2.71000004
   11.68944454   80.05380249    0.86000001    2.69000006
   11.69277763   78.56320190    0.86000001    2.71000004
   11.69583321   83.41680145    0.86000001    2.69000006
   11.69916630   80.86129761    0.83999997    2.71000004
   11.70249939   80.08280182    0.83999997    2.69000006
   11.70555496   80.92120361    0.83999997    2.69000006
   11.70888901   80.15440369    0.86000001    2.71000004
   11.71194458   78.03759766    0.83999997    2.71000004
   11.71472168   80.76809692    0.83999997    2.71000004
   11.71555519   80.18049622    0.83999997    2.71000004
   11.71888828   76.73470306    0.83999997    2.71000004
   11.72499943   76.73470306    0.83999997    2.71000004
   11.72916603   80.27050018    0.81999999    2.71000004
   11.73222160   80.21340179    0.81999999    2.71000004
   11.73555565   80.75360107    0.81999999    2.71000004
   11.73888874   77.00430298    0.81999999    2.71000004
   11.74194431   81.78420258    0.81999999    2.71000004
   11.74527836   79.87000275    0.81999999    2.71000004
   11.74805546   79.84239960    0.81999999    2.71000004
   11.74888897   79.28959656    0.81999999    2.71000004
   11.75222206   80.92320251    0.80000001    2.71000004
   11.75555515   83.41339874    0.80000001    2.71000004
   11.75861073   82.85720062    0.80000001    2.71000004
   11.76194477   85.34680176    0.80000001    2.71000004
   11.76777744   85.34680176    0.79000002    2.73000002
   11.77194405   88.93689728    0.79000002    2.73000002
   11.77527714   86.81590271    0.79000002    2.71000004
   11.77833271   85.79660034    0.79000002    2.71000004
   11.78138828   82.00070190    0.79000002    2.71000004
   11.78194427   84.62149811    0.79000002    2.71000004
   11.78527832   83.21549988    0.79000002    2.71000004
   11.78861141   78.27960205    0.79000002    2.73000002
   11.79166698   81.66480255    0.79000002    2.71000004
   11.79500008   84.54660034    0.79000002    2.73000002
   11.79833412   80.28510284    0.79000002    2.73000002
   11.80138874   80.33409882    0.79000002    2.73000002
   11.80472279   78.83439636    0.79000002    2.73000002
   11.81055546   78.83439636    0.79000002    2.73000002
   11.81472206   80.94599915    0.80000001    2.73000002
   11.81805515   80.34580231    0.80000001    2.73000002
   11.82111073   76.46859741    0.80000001    2.73000002
   11.82444477   81.73049927    0.80000001    2.73000002
   11.82777786   79.29319763    0.80000001    2.73000002
   11.83083344   81.22489929    0.80000001    2.73000002
   11.83416653   79.53990173    0.80000001    2.73000002
   11.83749962   81.17340088    0.80000001    2.73000002
   11.84055519   84.14920044    0.80000001    2.73000002
   11.84388828   88.04530334    0.80000001    2.73000002
   11.84694386   81.61370087    0.80000001    2.73000002
   11.84805489   85.45120239    0.80000001    2.73000002
   11.85333347   85.45120239    0.80000001    2.73000002
   11.85750008   81.89649963    0.80000001    2.73000002
   11.86083412   79.10469818    0.81999999    2.73000002
   11.86416721   81.43099976    0.81999999    2.73000002
   11.86722279   81.95279694    0.81999999    2.73000002
   11.87055588   82.62640381    0.81999999    2.75000000
   11.87388897   83.64129639    0.81999999    2.75000000
   11.87694454   79.99939728    0.81999999    2.75000000
   11.88027763   78.86979675    0.81999999    2.73000002
   11.88138866   78.71289825    0.81999999    2.73000002
   11.88361073   82.77539825    0.81999999    2.73000002
   11.88694477   85.76119995    0.81999999    2.73000002
   11.89027786   85.34490204    0.81999999    2.73000002
   11.89638901   85.34490204    0.81999999    2.75000000
   11.90055561   81.29530334    0.81999999    2.75000000
   11.90361118   85.58910370    0.83999997    2.75000000
   11.90694427   82.50119781    0.81999999    2.73000002
   11.91027737   83.21199799    0.83999997    2.73000002
   11.91333294   95.26450348    0.81999999    2.75000000
   11.91472149   82.29920197    0.81999999    2.75000000
   11.91694450   81.26809692    0.81999999    2.73000002
   11.92027855   90.19380188    0.81999999    2.73000002
   11.92361164   85.55300140    0.80000001    2.75000000
   11.92666721   81.05359650    0.80000001    2.75000000
   11.93000031   79.03880310    0.81999999    2.75000000
   11.93333340   85.81150055    0.80000001    2.75000000
   11.93916702   85.81150055    0.80000001    2.73000002
   11.94333363   87.64469910    0.80000001    2.75000000
   11.94666672   82.45390320    0.80000001    2.75000000
   11.94805527   82.45570374    0.80000001    2.75000000
   11.94999981   83.23560333    0.80000001    2.75000000
   11.95333290   86.71140289    0.81999999    2.75000000
   11.95666695   79.46910095    0.81999999    2.75000000
   11.95972157   84.29340363    0.80000001    2.75000000
   11.96305561   79.67690277    0.80000001    2.75000000
   11.96638870   84.05519867    0.80000001    2.75000000
   11.96944427   81.81670380    0.79000002    2.75000000
   11.97277737   79.89499664    0.79000002    2.75000000
   11.97611046   81.91690063    0.79000002    2.75000000
   11.98194408   81.91690063    0.79000002    2.75000000
   11.98611164   80.97329712    0.79000002    2.75000000
   11.98944473   86.32330322    0.76999998    2.75000000
   11.99250031   80.00039673    0.76999998    2.75000000
   11.99583340   84.59670258    0.76999998    2.75000000
   11.99916649   83.87359619    0.76999998    2.75000000
   12.00222206   88.80390167    0.76999998    2.75000000
   12.00555515   90.81719971    0.76999998    2.75000000
   12.00888920   77.60500336    0.76999998    2.75000000
   12.01194477   85.44349670    0.76999998    2.75000000
   12.01472187   86.12010193    0.79000002    2.76999998
   12.01583290   89.78890228    0.79000002    2.76999998
   12.01888847   83.73079681    0.76999998    2.75000000
   12.02472210   83.73079681    0.79000002    2.75000000
   12.02888870   87.64440155    0.79000002    2.76999998
   12.03222179   81.32270050    0.79000002    2.76999998
   12.03555584   79.38200378    0.79000002    2.76999998
   12.03861141   80.95629883    0.79000002    2.76999998
   12.04194450   84.72869873    0.79000002    2.76999998
   12.04527855   80.83460236    0.79000002    2.76999998
   12.04805565   78.89119720    0.79000002    2.76999998
   12.04861164   81.73149872    0.79000002    2.76999998
   12.05194473   80.28269958    0.79000002    2.76999998
   12.05527782   92.33360291    0.79000002    2.76999998
   12.05833340   84.55549622    0.79000002    2.76999998
   12.06166649   82.17030334    0.80000001    2.76999998
   12.06777763   82.17030334    0.79000002    2.76999998
   12.07194424   78.25430298    0.79000002    2.76999998
   12.07499981   88.01889801    0.79000002    2.76999998
   12.07833290   82.98210144    0.76999998    2.76999998
   12.08138847   85.37840271    0.76999998    2.76999998
   12.08166695   84.14119720    0.76999998    2.76999998
   12.08500004   90.50759888    0.76999998    2.76999998
   12.08833313   87.40640259    0.76999998    2.75000000
   12.09166622   84.82170105    0.76999998    2.76999998
   12.09472179   80.95179749    0.76999998    2.76999998
   12.09805489   90.85820007    0.76999998    2.76999998
   12.10111141   85.19190216    0.76999998    2.76999998
   12.10444450   87.13899994    0.76999998    2.76999998
   12.11055565   87.13899994    0.79000002    2.76999998
   12.11472225   84.35240173    0.79000002    2.76999998
   12.11527824   88.06210327    0.79000002    2.76999998
   12.11833382   83.84780121    0.76999998    2.78999996
   12.12166691   81.75019836    0.79000002    2.76999998
   12.12472248   87.95269775    0.79000002    2.78999996
   12.12805557   86.09110260    0.79000002    2.78999996
   12.13138866   85.87860107    0.79000002    2.78999996
   12.13444424   82.18019867    0.79000002    2.76999998
   12.13777733   79.82119751    0.79000002    2.76999998
   12.14111137   80.31839752    0.79000002    2.76999998
   12.14416695   78.06790161    0.79000002    2.76999998
   12.14777756   86.41390228    0.79000002    2.76999998
   12.14805508   79.66989899    0.79000002    2.76999998
   12.16888905   79.66989899    0.75000000    2.78999996
   12.17277813   79.59989929    0.75000000    2.78999996
   12.17611122   88.43930054    0.75000000    2.78999996
   12.17944431   89.28399658    0.75000000    2.78999996
   12.18138885   85.54080200    0.75000000    2.78999996
   12.18333340   83.78029633    0.75000000    2.78999996
   12.18666649   86.56759644    0.75000000    2.78999996
   12.18972206   94.61090088    0.75000000    2.78999996
   12.19305515   83.40139771    0.75000000    2.78999996
   12.19611073   84.02929688    0.75000000    2.78999996
   12.19944477   80.89630127    0.75000000    2.78999996
   12.20277786   88.21749878    0.75000000    2.78999996
   12.20583344   78.67780304    0.75000000    2.78999996
   12.21166611   78.67780304    0.75000000    2.78999996
   12.21555519   87.62789917    0.75000000    2.78999996
   12.21888828   78.65200043    0.75000000    2.78999996
   12.22222137   82.85849762    0.75000000    2.78999996
   12.22527695   79.03199768    0.75000000    2.78999996
   12.22861099   80.11100006    0.75000000    2.78999996
   12.23194408   83.72329712    0.75000000    2.78999996
   12.23500061   83.87599945    0.75000000    2.78999996
   12.23833370   84.85160065    0.75000000    2.78999996
   12.24166679   85.40820313    0.75000000    2.78999996
   12.24472237   85.13379669    0.76999998    2.78999996
   12.24805546   83.02770233    0.75000000    2.78999996
   12.24861145   78.19049835    0.75000000    2.78999996
   12.25444412   78.19049835    0.76999998    2.78999996
   12.25861073   89.34819794    0.75000000    2.78999996
   12.26166630   87.33260345    0.76999998    2.78999996
   12.26500034   86.79399872    0.79000002    2.78999996
   12.26833344   87.23970032    0.79000002    2.80999994
   12.27138901   94.51999664    0.79000002    2.80999994
   12.27472210   84.31040192    0.80000001    2.78999996
   12.27805519   88.80410004    0.79000002    2.78999996
   12.28111076   91.62290192    0.80000001    2.78999996
   12.28194427   81.53119659    0.80000001    2.78999996
   12.28472233   87.70780182    0.79000002    2.80999994
   12.28805637   92.08519745    0.79000002    2.80999994
   12.29138947   83.30549622    0.79000002    2.78999996
   12.29722309   83.30549622    0.80000001    2.80999994
   12.30138874   85.28230286    0.80000001    2.78999996
   12.30444431   81.42479706    0.80000001    2.78999996
   12.30777836   78.52069855    0.79000002    2.80999994
   12.31111145   91.87550354    0.80000001    2.78999996
   12.31416702   88.39679718    0.81999999    2.78999996
   12.31527805   87.89489746    0.81999999    2.78999996
   12.31777763   92.65799713    0.81999999    2.78999996
   12.32111073   81.29090118    0.81999999    2.78999996
   12.32444477   82.37149811    0.81999999    2.78999996
   12.32750034   81.83959961    0.81999999    2.78999996
   12.33083344   84.53040314    0.81999999    2.78999996
   12.33388901   84.65589905    0.81999999    2.78999996
   12.34027767   84.65589905    0.79000002    2.78999996
   12.34444427   85.06529999    0.79000002    2.78999996
   12.34749985   92.20690155    0.76999998    2.80999994
   12.34861088   80.14769745    0.76999998    2.80999994
   12.35111141   78.79850006    0.75000000    2.80999994
   12.35444450   85.28119659    0.75000000    2.80999994
   12.35777855   78.38839722    0.75000000    2.80999994
   12.36083412   82.32450104    0.75000000    2.80999994
   12.36416721   78.54460144    0.75000000    2.78999996
   12.36750031   81.51110077    0.75000000    2.80999994
   12.37055588   85.06549835    0.73000002    2.82999992
   12.37388897   88.09179688    0.73000002    2.82999992
   12.37694454   81.56030273    0.73000002    2.80999994
   12.38277817   81.56030273    0.73000002    2.80999994
   12.38694477   84.09790039    0.75000000    2.80999994
   12.39027786   84.71340179    0.75000000    2.80999994
   12.39361095   84.82060242    0.73000002    2.80999994
   12.39666653   88.86250305    0.75000000    2.80999994
   12.39999962   90.48970032    0.75000000    2.80999994
   12.40333271   86.18949890    0.75000000    2.82999992
   12.40638828   82.71569824    0.75000000    2.80999994
   12.40972137   85.32309723    0.75000000    2.80999994
   12.41277695   90.73750305    0.73000002    2.82999992
   12.41527748   86.19110107    0.73000002    2.80999994
   12.41638851   79.18049622    0.73000002    2.80999994
   12.41972256   80.65110016    0.73000002    2.80999994
   12.42583370   80.65110016    0.73000002    2.80999994
   12.43000031   85.96510315    0.73000002    2.82999992
   12.43305588   83.07129669    0.75000000    2.80999994
   12.43638897   90.76670074    0.75000000    2.80999994
   12.43972206   90.01959991    0.73000002    2.80999994
   12.44305515   83.62850189    0.73000002    2.80999994
   12.44611073   83.46269989    0.73000002    2.80999994
   12.44861126   87.84670258    0.73000002    2.80999994
   12.44972229   83.16490173    0.73000002    2.80999994
   12.45305538   88.42230225    0.75000000    2.80999994
   12.45638847   86.95490265    0.75000000    2.80999994
   12.45944405   83.76999664    0.75000000    2.80999994
   12.46277714   81.66290283    0.75000000    2.80999994
   12.46861076   81.66290283    0.75000000    2.80999994
   12.47277737   80.98719788    0.76999998    2.82999992
   12.47583294   78.52269745    0.75000000    2.80999994
   12.47916603   79.05680084    0.75000000    2.80999994
   12.48194408   81.93090057    0.75000000    2.80999994
   12.48277760   76.58290100    0.75000000    2.80999994
   12.48611164   81.05139923    0.76999998    2.80999994
   12.48944473   79.06379700    0.79000002    2.82999992
   12.49250031   78.35279846    0.79000002    2.82999992
   12.49583340   80.08049774    0.76999998    2.82999992
   12.49916649   82.66580200    0.76999998    2.80999994
   12.50222206   80.84200287    0.79000002    2.80999994
   12.50583363   80.87870026    0.79000002    2.82999992
   12.51138878   80.87870026    0.79000002    2.80999994
   12.51555538   83.79389954    0.80000001    2.82999992
   12.51888847   84.44570160    0.80000001    2.82999992
   12.52194405   83.27320099    0.80000001    2.82999992
   12.52527714   84.53630066    0.80000001    2.82999992
   12.52861118   83.72570038    0.79000002    2.82999992
   12.53166676   80.36360168    0.79000002    2.80999994
   12.53500080   84.02960205    0.79000002    2.82999992
   12.53833389   86.31140137    0.76999998    2.82999992
   12.54138947   76.47090149    0.76999998    2.82999992
   12.54472256   80.23829651    0.76999998    2.82999992
   12.54777813   87.43520355    0.79000002    2.82999992
   12.54861164   83.23429871    0.79000002    2.82999992
   12.55416679   83.23429871    0.76999998    2.82999992
   12.55833340   90.66310120    0.76999998    2.82999992
   12.56166649   82.60220337    0.76999998    2.84999990
   12.56500053   82.58560181    0.76999998    2.82999992
   12.56805515   78.32579803    0.76999998    2.82999992
   12.57138920   79.30239868    0.76999998    2.82999992
   12.57472229   76.81479645    0.76999998    2.82999992
   12.57777786   82.14779663    0.75000000    2.82999992
   12.58111095   82.40599823    0.75000000    2.84999990
   12.58194447   79.49929810    0.75000000    2.84999990
   12.58444405   81.03369904    0.73000002    2.84999990
   12.58777714   78.56909943    0.75000000    2.82999992
   12.59111118   84.88430023    0.75000000    2.82999992
   12.59722233   84.88430023    0.76999998    2.84999990
   12.60138893   88.03739929    0.76999998    2.82999992
   12.60444450   84.01450348    0.76999998    2.82999992
   12.60777855   82.89659882    0.79000002    2.82999992
   12.61111164   84.01100159    0.80000001    2.82999992
   12.61416721   83.22699738    0.80000001    2.82999992
   12.61527824   85.36750031    0.80000001    2.82999992
   12.61805534   83.74659729    0.81999999    2.82999992
   12.62111092   87.04499817    0.81999999    2.82999992
   12.62444496   83.78320313    0.80000001    2.82999992
   12.62777805   80.14070129    0.80000001    2.82999992
   12.63083363   86.29900360    0.79000002    2.84999990
   12.63416672   86.44010162    0.76999998    2.84999990
   12.64000034   86.44010162    0.76999998    2.84999990
   12.64416695   82.62270355    0.76999998    2.82999992
   12.64750004   77.45570374    0.79000002    2.84999990
   12.64861107   79.20420074    0.79000002    2.84999990
   12.65083313   87.85379791    0.79000002    2.84999990
   12.65416622   77.09269714    0.79000002    2.84999990
   12.65749931   78.97250366    0.76999998    2.84999990
   12.66055489   80.67130280    0.76999998    2.82999992
   12.66388893   78.20079803    0.76999998    2.82999992
   12.66722298   82.20850372    0.76999998    2.82999992
   12.67027855   88.76740265    0.76999998    2.82999992
   12.67361164   83.00460052    0.75000000    2.82999992
   12.67694473   81.15229797    0.75000000    2.84999990
   12.68277836   81.15229797    0.75000000    2.84999990
   12.68694496   82.51570129    0.75000000    2.84999990
   12.69027805   77.88950348    0.75000000    2.84999990
   12.69333363   90.48220062    0.75000000    2.82999992
   12.69666672   83.19360352    0.75000000    2.84999990
   12.69999981   78.84960175    0.75000000    2.84999990
   12.70305538   83.27010345    0.75000000    2.84999990
   12.70638847   84.16909790    0.75000000    2.82999992
   12.70944405   82.23020172    0.75000000    2.84999990
   12.71277714   78.34729767    0.75000000    2.84999990
   12.71527767   82.29660034    0.75000000    2.84999990
   12.71666622   83.38369751    0.75000000    2.84999990
   12.71972179   85.72669983    0.75000000    2.84999990
   12.72583294   85.72669983    0.75000000    2.84999990
   12.72999954   86.15920258    0.76999998    2.86999989
   12.73305511   88.44049835    0.75000000    2.84999990
   12.73638916   83.16850281    0.75000000    2.84999990
   12.73944473   83.38400269    0.75000000    2.84999990
   12.74277782   84.29959869    0.73000002    2.82999992
   12.74611092   83.43049622    0.73000002    2.84999990
   12.74861145   85.79109955    0.73000002    2.84999990
   12.74972248   83.61820221    0.73000002    2.84999990
   12.75277805   82.07109833    0.75000000    2.84999990
   12.75611115   87.90499878    0.75000000    2.84999990
   12.75916672   82.05269623    0.75000000    2.84999990
   12.76249981   85.04100037    0.75000000    2.82999992
   12.76861095   85.04100037    0.76999998    2.86999989
   12.77277756   87.32820129    0.75000000    2.84999990
   12.77583313   91.66549683    0.75000000    2.84999990
   12.77916622   80.56739807    0.75000000    2.84999990
   12.78194427   84.42929840    0.75000000    2.84999990
   12.78305531   86.55310059    0.75000000    2.84999990
   12.78611183   86.46510315    0.75000000    2.84999990
   12.78944492   89.35340118    0.75000000    2.84999990
   12.79277802   86.35369873    0.75000000    2.86999989
   12.79611111   86.59390259    0.76999998    2.84999990
   12.79944515   88.51899719    0.75000000    2.84999990
   12.80249977   83.53780365    0.75000000    2.84999990
   12.80583382   85.20729828    0.73000002    2.84999990
   12.81138897   85.20729828    0.75000000    2.84999990
   12.81583309   77.83039856    0.75000000    2.82999992
   12.81888866   83.94200134    0.75000000    2.82999992
   12.82222176   77.72810364    0.75000000    2.84999990
   12.82527733   80.97679901    0.75000000    2.86999989
   12.82861137   79.92720032    0.76999998    2.86999989
   12.83194447   82.20950317    0.76999998    2.86999989
   12.83500004   83.16329956    0.76999998    2.86999989
   12.83833313   83.18009949    0.76999998    2.84999990
   12.84166622   84.50640106    0.76999998    2.84999990
   12.84472179   80.83679962    0.76999998    2.84999990
   12.84805489   85.38459778    0.76999998    2.84999990
   12.84861088   80.16950226    0.76999998    2.84999990
   12.85416698   80.16950226    0.79000002    2.84999990
   12.85833359   80.78309631    0.79000002    2.86999989
   12.86166668   80.60369873    0.79000002    2.86999989
   12.86500072   86.67949677    0.79000002    2.86999989
   12.86805534   81.84220123    0.76999998    2.86999989
   12.87138939   89.33260345    0.75000000    2.84999990
   12.87472248   86.44460297    0.75000000    2.86999989
   12.87805557   78.77989960    0.73000002    2.86999989
   12.88111115   82.77010345    0.73000002    2.84999990
   12.88194466   79.86180115    0.73000002    2.84999990
   12.88472176   83.98280334    0.73000002    2.84999990
   12.88777733   84.64409637    0.73000002    2.84999990
   12.89111137   78.21620178    0.73000002    2.86999989
   12.89722252   78.21620178    0.73000002    2.86999989
   12.90111065   76.39040375    0.73000002    2.84999990
   12.90444374   75.79049683    0.70999998    2.86999989
   12.90777779   80.76470184    0.70999998    2.86999989
   12.91083336   85.98860168    0.70999998    2.86999989
   12.91416645   82.62629700    0.70999998    2.86999989
   12.91527748   80.68630219    0.70999998    2.86999989
   12.91777802   81.56819916    0.70999998    2.86999989
   12.92083359   77.05780029    0.73000002    2.84999990
   12.92416668   81.22280121    0.73000002    2.86999989
   12.92750072   76.50569916    0.70999998    2.86999989
   12.93055630   83.42179871    0.70999998    2.86999989
   12.93388939   82.77500153    0.70999998    2.86999989
   12.94000053   82.77500153    0.69000000    2.86999989
   12.94416714   86.08709717    0.69000000    2.86999989
   12.94722271   84.18599701    0.67000002    2.86999989
   12.94861126   87.40630341    0.67000002    2.86999989
   12.95111084   82.64129639    0.69000000    2.86999989
   12.95444393   88.07050323    0.67000002    2.86999989
   12.95749950   80.75879669    0.67000002    2.86999989
   12.96083355   81.09970093    0.67000002    2.86999989
   12.96416664   83.44219971    0.69000000    2.86999989
   12.96722221   80.54509735    0.69000000    2.86999989
   12.97055531   79.65339661    0.69000000    2.86999989
   12.97388840   79.72619629    0.70999998    2.86999989
   12.97694397   83.51550293    0.69000000    2.86999989
   12.98277760   83.51550293    0.69000000    2.86999989
   12.98694515   78.67050171    0.70999998    2.86999989
   12.99000072   82.07579803    0.69000000    2.89000010
   12.99333382   79.75839996    0.69000000    2.86999989
   12.99666691   82.60179901    0.69000000    2.86999989
   12.99972248   83.00559998    0.69000000    2.86999989
   13.00305557   85.46299744    0.69000000    2.86999989
   13.00638866   82.70230103    0.69000000    2.86999989
   13.00944424   86.71440125    0.69000000    2.86999989
   13.01277733   86.66500092    0.67000002    2.86999989
   13.01527786   83.39790344    0.67000002    2.86999989
   13.01638889   81.20529938    0.67000002    2.86999989
   13.01944447   87.32039642    0.67000002    2.86999989
   13.02555561   87.32039642    0.67000002    2.86999989
   13.02972221   79.45220184    0.64999998    2.86999989
   13.03305531   81.15779877    0.64999998    2.86999989
   13.03611183   83.35690308    0.64999998    2.89000010
   13.03944492   84.81040192    0.64999998    2.86999989
   13.04277802   79.09059906    0.64999998    2.89000010
   13.04583359   75.74610138    0.64999998    2.86999989
   13.04861164   79.90859985    0.64999998    2.86999989
   13.04972267   79.33039856    0.64999998    2.86999989
   13.05277824   78.04930115    0.64999998    2.86999989
   13.05611134   79.47350311    0.64999998    2.89000010
   13.05944443   79.54679871    0.64999998    2.89000010
   13.06250000   84.13629913    0.63000000    2.89000010
   13.06833363   84.13629913    0.63000000    2.89000010
   13.07250023   83.64710236    0.64999998    2.89000010
   13.07583332   80.64199829    0.64999998    2.86999989
   13.07916641   85.52269745    0.64999998    2.89000010
   13.08194447   79.79699707    0.64999998    2.89000010
   13.08277798   79.39070129    0.64999998    2.89000010
   13.08583260   84.09030151    0.63000000    2.86999989
   13.08916664   84.80049896    0.64999998    2.86999989
   13.09249973   83.02089691    0.64999998    2.89000010
   13.09555531   79.62200165    0.64999998    2.86999989
   13.09888840   79.72820282    0.64999998    2.86999989
   13.10222244   81.93900299    0.67000002    2.86999989
   13.10527802   79.94190216    0.67000002    2.89000010
   13.11138916   79.94190216    0.67000002    2.89000010
   13.11555576   83.26339722    0.69000000    2.86999989
   13.11861134   81.26779938    0.69000000    2.86999989
   13.12194443   84.67620087    0.69000000    2.86999989
   13.12527752   83.83670044    0.67000002    2.86999989
   13.12833309   80.88880157    0.67000002    2.86999989
   13.13166714   80.00589752    0.67000002    2.89000010
   13.13500023   81.97170258    0.67000002    2.89000010
   13.13805580   83.55449677    0.67000002    2.86999989
   13.14138889   86.29840088    0.67000002    2.86999989
   13.14444447   82.51010132    0.67000002    2.89000010
   13.14777756   80.19380188    0.67000002    2.89000010
   13.14861107   81.33910370    0.64999998    2.89000010
   13.15416622   81.33910370    0.64999998    2.89000010
   13.15833282   86.19509888    0.64999998    2.89000010
   13.16166592   94.65579987    0.64999998    2.89000010
   13.16472149   93.75930023    0.64999998    2.89000010
   13.18222237   86.36640167    0.61000001    2.89000010
   13.18472195   82.55480194    0.61000001    2.89000010
   13.18777752   85.74590302    0.61000001    2.89000010
   13.19111156   90.38490295    0.63000000    2.89000010
   13.19722271   90.38490295    0.64999998    2.86999989
   13.20138836   78.53890228    0.64999998    2.86999989
   13.20444393   83.98829651    0.64999998    2.89000010
   13.20777798   80.59780121    0.64999998    2.89000010
   13.21111107   87.28690338    0.64999998    2.89000010
   13.21416664   81.32599640    0.67000002    2.89000010
   13.21555519   84.61569977    0.67000002    2.89000010
   13.21805477   82.92279816    0.67000002    2.89000010
   13.22111034   82.39209747    0.67000002    2.89000010
   13.22444439   80.74459839    0.69000000    2.89000010
   13.22777748   81.31510162    0.67000002    2.89000010
   13.23083305   80.16169739    0.67000002    2.89000010
   13.23416710   82.03929901    0.69000000    2.89000010
   13.24000072   82.03929901    0.64999998    2.89000010
   13.24416733   80.44589996    0.67000002    2.89000010
   13.24722290   78.00019836    0.67000002    2.89000010
   13.24888897   80.66030121    0.67000002    2.89000010
   13.25111103   82.55629730    0.67000002    2.89000010
   13.25416660   81.24310303    0.67000002    2.89000010
   13.25749969   77.47190094    0.67000002    2.86999989
   13.26055527   80.46880341    0.67000002    2.89000010
   13.26388931   80.51550293    0.67000002    2.89000010
   13.26722240   79.92240143    0.67000002    2.89000010
   13.27027798   81.84059906    0.67000002    2.89000010
   13.27361107   87.16259766    0.67000002    2.91000009
   13.27694416   83.20680237    0.67000002    2.89000010
   13.28277779   83.20680237    0.67000002    2.89000010
   13.28694534   82.94049835    0.69000000    2.91000009
   13.29027843   78.77110291    0.69000000    2.91000009
   13.29333401   77.55470276    0.67000002    2.91000009
   13.29666710   91.61289978    0.67000002    2.89000010
   13.30000019   84.82479858    0.67000002    2.91000009
   13.30305576   82.96600342    0.64999998    2.89000010
   13.30638885   81.39479828    0.64999998    2.89000010
   13.30944443   86.38169861    0.64999998    2.91000009
   13.31277752   79.63929749    0.64999998    2.91000009
   13.31555557   81.12249756    0.63000000    2.91000009
   13.31666660   81.55529785    0.63000000    2.91000009
   13.31972218   83.53579712    0.64999998    2.89000010
   13.32583332   83.53579712    0.61000001    2.89000010
   13.32999992   82.12169647    0.61000001    2.89000010
   13.33333302   84.29389954    0.61000001    2.91000009
   13.33638859   80.43810272    0.61000001    2.91000009
   13.33972168   80.50479889    0.63000000    2.89000010
   13.34277725   82.87229919    0.63000000    2.91000009
   13.34611034   83.69960022    0.63000000    2.91000009
   13.34888840   81.22779846    0.63000000    2.91000009
   13.35000038   88.80870056    0.63000000    2.91000009
   13.35305595   82.80709839    0.63000000    2.91000009
   13.35638905   87.38339996    0.63000000    2.91000009
   13.35944462   79.44879913    0.64999998    2.91000009
   13.36277771   86.62429810    0.64999998    2.91000009
   13.36861134   86.62429810    0.63000000    2.91000009
   13.37277794   75.37789917    0.63000000    2.91000009
   13.37583351   83.39920044    0.61000001    2.91000009
   13.37916660   84.91770172    0.61000001    2.91000009
   13.38222218   81.33149719    0.61000001    2.91000009
   13.38277817   90.20030212    0.61000001    2.91000009
   13.38611126   78.27819824    0.63000000    2.91000009
   13.38944435   80.07129669    0.61000001    2.89000010
   13.39249992   89.01139832    0.58999997    2.91000009
   13.39583302   77.55449677    0.58999997    2.91000009
   13.39916611   78.08190155    0.56999999    2.91000009
   13.40222168   79.32119751    0.56999999    2.91000009
   13.40555477   78.84680176    0.55000001    2.91000009
   13.41138840   78.84680176    0.56999999    2.91000009
   13.41555500   82.17089844    0.56999999    2.91000009
   13.41611099   81.33450317    0.56999999    2.91000009
   13.41916656   76.55889893    0.56999999    2.91000009
   13.42250061   76.58219910    0.56999999    2.93000007
   13.42555618   76.73919678    0.58999997    2.91000009
   13.42888927   82.76619720    0.58999997    2.91000009
   13.43222237   80.79550171    0.56999999    2.91000009
   13.43527794   81.93090057    0.56999999    2.91000009
   13.43861103   85.90309906    0.56999999    2.89000010
   13.44194412   81.69640350    0.56999999    2.91000009
   13.44499969   78.67810059    0.58999997    2.91000009
   13.44833374   81.18720245    0.58999997    2.91000009
   13.44888878   80.56169891    0.58999997    2.91000009
   13.45416641   80.56169891    0.61000001    2.91000009
   13.45833302   79.24600220    0.63000000    2.91000009
   13.46166611   81.89219666    0.64999998    2.91000009
   13.46472168   75.57839966    0.64999998    2.91000009
   13.46805477   85.71520233    0.64999998    2.91000009
   13.47138882   83.42759705    0.64999998    2.91000009
   13.47444439   82.93990326    0.64999998    2.91000009
   13.47777748   80.61789703    0.67000002    2.91000009
   13.48083305   84.09279633    0.67000002    2.91000009
   13.48222160   82.04239655    0.67000002    2.91000009
   13.48472214   80.91929626    0.69000000    2.91000009
   13.48777771   80.49819946    0.69000000    2.91000009
   13.49111176   80.46739960    0.63000000    2.91000009
   13.49694443   80.46739960    0.61000001    2.91000009
   13.50111103   81.50150299    0.58999997    2.91000009
   13.50444412   79.78600311    0.58999997    2.91000009
   13.50777817   80.09670258    0.58999997    2.91000009
   13.51083374   84.02629852    0.56999999    2.93000007
   13.51416683   79.98590088    0.56999999    2.91000009
   13.51555538   85.28209686    0.56999999    2.91000009
   13.51777744   83.55519867    0.56999999    2.91000009
   13.52111053   78.78780365    0.56999999    2.91000009
   13.52416611   82.86730194    0.55000001    2.93000007
   13.52750015   78.89040375    0.55000001    2.93000007
   13.53083324   84.34410095    0.56999999    2.91000009
   13.53388977   84.98480225    0.56999999    2.91000009
   13.54000092   84.98480225    0.56999999    2.91000009
   13.54416752   81.73400116    0.55000001    2.93000007
   13.54722309   83.80419922    0.56999999    2.93000007
   13.54888916   80.80860138    0.56999999    2.93000007
   13.55111122   82.80940247    0.56999999    2.91000009
   13.55444431   83.56529999    0.56999999    2.91000009
   13.55749989   88.88230133    0.58999997    2.91000009
   13.56083393   81.65260315    0.56999999    2.91000009
   13.56388950   86.31369781    0.56999999    2.91000009
   13.56722260   78.77970123    0.58999997    2.91000009
   13.57055569   81.11090088    0.61000001    2.91000009
   13.57361126   92.60109711    0.61000001    2.91000009
   13.57694435   79.65540314    0.58999997    2.91000009
   13.58277798   79.65540314    0.58999997    2.93000007
   13.58694458   77.27359772    0.58999997    2.93000007
   13.59000015   77.46970367    0.58999997    2.93000007
   13.59333324   81.21350098    0.58999997    2.93000007
   13.59666634   77.17800140    0.58999997    2.93000007
   13.59972191   78.77490234    0.58999997    2.93000007
   13.60305595   81.21810150    0.58999997    2.91000009
   13.60638905   89.75350189    0.58999997    2.91000009
   13.60944462   77.54519653    0.58999997    2.91000009
   13.61277771   87.36289978    0.56999999    2.93000007
   13.61555576   79.44439697    0.56999999    2.91000009
   13.61638927   83.53099823    0.56999999    2.91000009
   13.61944485   79.58850098    0.56999999    2.93000007
   13.62555599   79.58850098    0.56999999    2.91000009
   13.62972260   82.32019806    0.56999999    2.93000007
   13.63305569   85.06089783    0.58999997    2.93000007
   13.63638878   77.87789917    0.61000001    2.93000007
   13.63944435   78.49680328    0.61000001    2.94000006
   13.64277744   82.01300049    0.61000001    2.93000007
   13.64611053   79.23320007    0.61000001    2.93000007
   13.64888859   86.28040314    0.61000001    2.93000007
   13.64999962   78.04319763    0.61000001    2.93000007
   13.65305519   79.28469849    0.61000001    2.91000009
   13.65638828   79.22399902    0.61000001    2.93000007
   13.65972137   83.09190369    0.61000001    2.93000007
   13.66277695   79.26319885    0.58999997    2.93000007
   13.66833401   79.26319885    0.56999999    2.91000009
   13.67250061   73.87290192    0.58999997    2.91000009
   13.67583370   84.67610168    0.58999997    2.93000007
   13.67916679   77.94439697    0.56999999    2.93000007
   13.68222237   76.95010376    0.56999999    2.93000007
   13.68277836   79.32019806    0.56999999    2.93000007
   13.68583298   80.20819855    0.56999999    2.93000007
   13.68916702   85.15070343    0.56999999    2.91000009
   13.69250011   82.29550171    0.56999999    2.93000007
   13.69555569   81.37889862    0.56999999    2.91000009
   13.69888878   78.28299713    0.58999997    2.93000007
   13.70194435   83.67630005    0.58999997    2.93000007
   13.70527744   81.54689789    0.58999997    2.93000007
   13.71138859   81.54689789    0.58999997    2.93000007
   13.71555519   79.90170288    0.61000001    2.93000007
   13.71583271   79.03569794    0.61000001    2.93000007
   13.71916580   77.42179871    0.61000001    2.93000007
   13.72249985   80.21600342    0.63000000    2.93000007
   13.72555542   81.26100159    0.63000000    2.93000007
   13.72888851   87.51860046    0.63000000    2.93000007
   13.73222160   79.71459961    0.69000000    2.93000007
   13.73527813   78.37930298    0.69000000    2.93000007
   13.73861122   85.04129791    0.73000002    2.93000007
   13.74194431   79.72299957    0.69000000    2.91000009
   13.74499989   88.81719971    0.69000000    2.91000009
   13.74833393   79.51599884    0.64999998    2.91000009
   13.74916649   79.90119934    0.63000000    2.93000007
   13.75416660   79.90119934    0.63000000    2.93000007
   13.75833321   80.80139923    0.61000001    2.93000007
   13.76138878   82.40380096    0.58999997    2.93000007
   13.76472187   85.55180359    0.58999997    2.93000007
   13.76805496   79.22879791    0.58999997    2.93000007
   13.77111053   78.31790161    0.58999997    2.94000006
   13.77444458   87.12409973    0.58999997    2.94000006
   13.77777767   79.01550293    0.58999997    2.94000006
   13.78083324   79.32520294    0.56999999    2.93000007
   13.78249931   80.23829651    0.56999999    2.93000007
   13.78444481   82.31860352    0.56999999    2.93000007
   13.78777790   80.56330109    0.55000001    2.93000007
   13.79083347   84.04440308    0.55000001    2.93000007
   13.79694462   84.04440308    0.55000001    2.93000007
   13.80111122   80.93460083    0.55000001    2.93000007
   13.80444431   77.75669861    0.56999999    2.93000007
   13.80749989   74.45300293    0.56999999    2.93000007
   13.81083393   79.00939941    0.55000001    2.94000006
   13.81416702   79.85279846    0.55000001    2.91000009
   13.81583309   81.89469910    0.55000001    2.91000009
   13.81750011   77.52980042    0.55000001    2.94000006
   13.82083321   76.88179779    0.55000001    2.94000006
   13.82388878   81.62039948    0.55000001    2.93000007
   13.82722187   80.81140137    0.56999999    2.93000007
   13.83055592   81.25949860    0.56999999    2.93000007
   13.83361053   82.38079834    0.58999997    2.94000006
   13.83972168   82.38079834    0.58999997    2.93000007
   13.84388828   84.05349731    0.58999997    2.93000007
   13.84722233   77.71540070    0.58999997    2.94000006
   13.84944439   77.66590118    0.58999997    2.94000006
   13.85083389   82.17320251    0.61000001    2.93000007
   13.85416698   78.13220215    0.61000001    2.93000007
   13.85722256   76.61129761    0.61000001    2.93000007
   13.86055565   80.40889740    0.61000001    2.93000007
   13.86388969   80.38390350    0.63000000    2.93000007
   13.86694431   81.58129883    0.63000000    2.93000007
   13.87027836   79.30169678    0.61000001    2.94000006
   13.87361145   77.54450226    0.61000001    2.93000007
   13.87694454   83.66500092    0.61000001    2.93000007
   13.88277817   83.66500092    0.61000001    2.93000007
   13.88694477   89.20200348    0.58999997    2.93000007
   13.89000034   78.95659637    0.58999997    2.94000006
   13.89333344   89.30100250    0.58999997    2.93000007
   13.89638901   90.70130157    0.61000001    2.94000006
   13.89972210   84.60389709    0.61000001    2.93000007
   13.90305519   85.31829834    0.58999997    2.94000006
   13.90638828   85.16770172    0.58999997    2.94000006
   13.90944386   81.48950195    0.58999997    2.94000006
   13.91277695   80.94409943    0.58999997    2.94000006
   13.91611099   84.96510315    0.58999997    2.93000007
   13.91638851   84.56600189    0.58999997    2.93000007
   13.91972256   83.84790039    0.58999997    2.94000006
   13.92555618   83.84790039    0.56999999    2.94000006
   13.92972279   86.24520111    0.56999999    2.94000006
   13.93305588   87.86360168    0.56999999    2.93000007
   13.93611145   79.38089752    0.56999999    2.94000006
   13.93944454   90.37969971    0.56999999    2.94000006
   13.94277763   80.88510132    0.55000001    2.94000006
   13.94583321   87.53790283    0.55000001    2.94000006
   13.94916630   82.47769928    0.52999997    2.93000007
   13.94972229   90.05570221    0.52999997    2.93000007
   13.95277786   87.08809662    0.52999997    2.94000006
   13.95611095   81.19450378    0.52999997    2.94000006
   13.95916653   83.00070190    0.52999997    2.94000006
   13.96249962   87.83460236    0.52999997    2.94000006
   13.96861076   87.83460236    0.52999997    2.94000006
   13.97277737   81.19989777    0.52999997    2.93000007
   13.97611046   88.41950226    0.52999997    2.93000007
   13.97916603   77.74179840    0.51999998    2.94000006
   13.98249912   82.51450348    0.52999997    2.94000006
   13.98305511   82.40350342    0.52999997    2.94000006
   13.98611164   79.03739929    0.52999997    2.94000006
   13.98944473   81.79399872    0.52999997    2.94000006
   13.99250031   83.91380310    0.52999997    2.94000006
   13.99583340   89.31230164    0.52999997    2.94000006
   13.99916649   83.58370209    0.52999997    2.94000006
   14.00222206   85.35639954    0.52999997    2.94000006
   14.00555515   84.52320099    0.52999997    2.94000006
   14.01138878   84.52320099    0.52999997    2.94000006
   14.01527786   84.74069977    0.52999997    2.94000006
   14.01638889   84.94619751    0.52999997    2.94000006
   14.01888847   88.53269958    0.55000001    2.94000006
   14.02222157   87.42680359    0.55000001    2.94000006
   14.02527714   86.68379974    0.55000001    2.94000006
   14.02861118   83.88629913    0.55000001    2.94000006
   14.03194427   83.42160034    0.56999999    2.93000007
   14.03500080   83.14510345    0.55000001    2.93000007
   14.03833389   85.28459930    0.55000001    2.93000007
   14.04166698   88.78520203    0.56999999    2.94000006
   14.04472256   87.74299622    0.58999997    2.94000006
   14.04805565   87.27100372    0.58999997    2.94000006
   14.04972267   80.34259796    0.61000001    2.94000006
   14.05416679   80.34259796    0.61000001    2.94000006
   14.05833340   84.34059906    0.58999997    2.96000004
   14.06138897   90.95970154    0.58999997    2.94000006
   14.06472206   89.11499786    0.63000000    2.94000006
   14.06777763   84.54879761    0.63000000    2.94000006
   14.07111073   92.56159973    0.61000001    2.93000007
   14.07444477   81.68769836    0.58999997    2.94000006
   14.07750034   79.86399841    0.55000001    2.94000006
   14.08083344   82.74389648    0.55000001    2.94000006
   14.08305550   86.38529968    0.61000001    2.94000006
   14.08444405   82.01390076    0.61000001    2.94000006
   14.08777714   83.82710266    0.58999997    2.96000004
   14.09083271   84.97530365    0.58999997    2.94000006
   14.09694386   84.97530365    0.58999997    2.94000006
   14.10111141   90.26959991    0.58999997    2.94000006
   14.10416698   85.76069641    0.58999997    2.94000006
   14.10750008   84.38809967    0.58999997    2.94000006
   14.11083412   84.96949768    0.58999997    2.94000006
   14.11388969   86.44940186    0.58999997    2.94000006
   14.11638927   88.13189697    0.58999997    2.94000006
   14.11750031   87.88230133    0.58999997    2.94000006
   14.12083340   86.20719910    0.58999997    2.94000006
   14.12388897   79.37940216    0.58999997    2.94000006
   14.12722206   87.01609802    0.58999997    2.94000006
   14.13027763   79.81559753    0.58999997    2.94000006
   14.13361073   86.47010040    0.58999997    2.94000006
   14.13972187   86.47010040    0.58999997    2.94000006
   14.14388847   90.09310150    0.58999997    2.94000006
   14.14722252   84.71260071    0.58999997    2.94000006
   14.14972210   86.50350189    0.58999997    2.94000006
   14.15083313   84.41660309    0.58999997    2.94000006
   14.15416622   80.52140045    0.58999997    2.94000006
   14.15722179   83.86129761    0.58999997    2.94000006
   14.16055489   80.54859924    0.58999997    2.94000006
   14.16361046   80.71690369    0.58999997    2.94000006
   14.16694450   80.15489960    0.58999997    2.94000006
   14.17027855   81.19370270    0.58999997    2.94000006
   14.17333412   82.92299652    0.58999997    2.94000006
   14.17666721   86.25219727    0.58999997    2.94000006
   14.18249989   86.25219727    0.58999997    2.94000006
   14.20111084   84.58660126    0.58999997    2.94000006
   14.20416641   85.13410187    0.58999997    2.94000006
   14.20749950   85.84739685    0.61000001    2.94000006
   14.21083355   86.94850159    0.51999998    2.96000004
   14.21388912   83.48059845    0.50000000    2.94000006
   14.21722221   80.45230103    0.51999998    2.94000006
   14.22027779   82.08640289    0.51999998    2.94000006
   14.22555542   82.08640289    0.51999998    2.93000007
   14.22972202   85.68129730    0.52999997    2.94000006
   14.23305511   86.57420349    0.51999998    2.94000006
   14.23388958   87.28119659    0.52999997    2.93000007
   14.23666668   84.05329895    0.52999997    2.94000006
   14.24000072   89.52770233    0.52999997    2.93000007
   14.24305534   80.34770203    0.52999997    2.94000006
   14.24638939   82.65589905    0.55000001    2.94000006
   14.24972248   85.99909973    0.55000001    2.94000006
   14.25305557   81.40110016    0.52999997    2.94000006
   14.25611115   88.40309906    0.55000001    2.94000006
   14.25944424   81.39969635    0.56999999    2.94000006
   14.26249981   83.83119965    0.56999999    2.94000006
   14.26861095   83.83119965    0.56999999    2.94000006
   14.27277756   84.02799988    0.55000001    2.94000006
   14.27583313   83.31539917    0.55000001    2.94000006
   14.27916622   82.45020294    0.56999999    2.94000006
   14.28249931   84.42489624    0.56999999    2.94000006
   14.28555584   83.11640167    0.55000001    2.94000006
   14.28888893   85.37049866    0.55000001    2.94000006
   14.29194450   82.83560181    0.56999999    2.94000006
   14.29527855   81.53620148    0.61000001    2.94000006
   14.29861164   85.21469879    0.61000001    2.94000006
   14.30111122   82.48139954    0.61000001    2.94000006
   14.30249977   86.27709961    0.61000001    2.94000006
   14.30583382   80.08360291    0.61000001    2.94000006
   14.31138897   80.08360291    0.58999997    2.96000004
   14.31555557   77.23840332    0.58999997    2.94000006
   14.31861115   80.00229645    0.56999999    2.94000006
   14.32194424   82.78250122    0.58999997    2.94000006
   14.32527733   77.28479767    0.58999997    2.96000004
   14.32833290   81.86530304    0.61000001    2.94000006
   14.33166695   78.34729767    0.58999997    2.96000004
   14.33416653   79.66809845    0.61000001    2.94000006
   14.33527756   78.99639893    0.61000001    2.94000006
   14.33861065   86.57810211    0.58999997    2.94000006
   14.34166622   79.09850311    0.58999997    2.94000006
   14.34499931   87.22000122    0.58999997    2.94000006
   14.34833336   79.54949951    0.56999999    2.94000006
   14.35416698   79.54949951    0.56999999    2.94000006
   14.35833359   80.08139801    0.58999997    2.96000004
   14.36166668   83.29199982    0.61000001    2.94000006
   14.36472225   86.46610260    0.58999997    2.94000006
   14.36750031   83.38210297    0.58999997    2.94000006
   14.36833382   84.50969696    0.58999997    2.94000006
   14.37166691   85.47010040    0.58999997    2.94000006
   14.37500000   84.91690063    0.58999997    2.94000006
   14.37805557   85.00939941    0.58999997    2.94000006
   14.38138866   83.66190338    0.58999997    2.96000004
   14.38444424   81.92220306    0.58999997    2.96000004
   14.38777733   84.52420044    0.56999999    2.94000006
   14.39111137   84.36009979    0.58999997    2.94000006
   14.39694405   84.36009979    0.58999997    2.94000006
   14.40111065   84.25229645    0.58999997    2.94000006
   14.40444374   81.53260040    0.58999997    2.94000006
   14.40777779   87.57779694    0.58999997    2.94000006
   14.41083336   79.20639801    0.61000001    2.94000006
   14.41416645   77.31610107    0.61000001    2.94000006
   14.41750050   84.03849792    0.58999997    2.96000004
   14.42083359   82.80110168    0.58999997    2.96000004
   14.42388916   85.35260010    0.58999997    2.94000006
   14.42722225   83.57679749    0.61000001    2.94000006
   14.43055630   81.90160370    0.61000001    2.94000006
   14.43361092   87.05840302    0.63000000    2.94000006
   14.43416691   82.73560333    0.63000000    2.94000006
   14.44000053   82.73560333    0.63000000    2.94000006
   14.44416714   84.31950378    0.61000001    2.94000006
   14.44722271   89.77230072    0.58999997    2.94000006
   14.45055580   80.01740265    0.58999997    2.94000006
   14.45388889   82.39920044    0.58999997    2.94000006
   14.45694447   84.28679657    0.56999999    2.94000006
   14.46027756   84.41470337    0.56999999    2.96000004
   14.46361065   85.56639862    0.52999997    2.96000004
   14.46666622   81.89730072    0.52999997    2.96000004
   14.46749973   83.67739868    0.51999998    2.96000004
   14.47027779   80.79850006    0.51999998    2.96000004
   14.47361088   82.00920105    0.52999997    2.96000004
   14.47666645   80.15129852    0.52999997    2.96000004
   14.48277760   80.15129852    0.55000001    2.96000004
   14.48694515   79.77929688    0.52999997    2.96000004
   14.49000072   77.72350311    0.55000001    2.96000004
   14.49333382   85.80860138    0.55000001    2.96000004
   14.49666691   80.68440247    0.52999997    2.94000006
   14.49972248   85.02539825    0.52999997    2.96000004
   14.50083351   82.49259949    0.52999997    2.96000004
   14.50333309   81.90239716    0.52999997    2.96000004
   14.50666714   79.30870056    0.52999997    2.96000004
   14.50972176   85.27480316    0.52999997    2.96000004
   14.51305580   84.26219940    0.52999997    2.96000004
   14.51638889   79.01229858    0.51999998    2.96000004
   14.51944447   82.23429871    0.51999998    2.96000004
   14.52555561   82.23429871    0.55000001    2.96000004
   14.52972221   84.56909943    0.55000001    2.96000004
   14.53305531   88.67939758    0.55000001    2.96000004
   14.53416729   84.31729889    0.55000001    2.96000004
   14.53694534   84.71080017    0.55000001    2.96000004
   14.54027843   82.42050171    0.56999999    2.96000004
   14.54333401   80.07499695    0.56999999    2.96000004
   14.54666710   82.24250031    0.55000001    2.96000004
   14.54972267   80.41649628    0.52999997    2.96000004
   14.55305576   84.29799652    0.52999997    2.94000006
   14.55638885   80.94969940    0.52999997    2.96000004
   14.55944443   80.65660095    0.55000001    2.96000004
   14.56277752   81.25650024    0.55000001    2.96000004
   14.56833363   81.25650024    0.56999999    2.96000004
   14.57250023   77.89189911    0.56999999    2.96000004
   14.57583332   82.85310364    0.55000001    2.96000004
   14.57916641   77.66809845    0.55000001    2.94000006
   14.58222198   82.42620087    0.55000001    2.96000004
   14.58555508   81.13040161    0.56999999    2.96000004
   14.58888817   83.44290161    0.56999999    2.96000004
   14.59194374   80.51860046    0.56999999    2.96000004
   14.59527779   86.66159821    0.56999999    2.96000004
   14.59861088   82.30919647    0.58999997    2.96000004
   14.60083389   82.33309937    0.58999997    2.96000004
   14.60222244   80.76270294    0.58999997    2.96000004
   14.60555553   85.76860046    0.61000001    2.96000004
   14.61138916   85.76860046    0.63000000    2.96000004
   14.61527824   81.41870117    0.64999998    2.96000004
   14.61861134   83.16729736    0.64999998    2.96000004
   14.62194443   79.79799652    0.64999998    2.96000004
   14.62500000   77.15059662    0.64999998    2.96000004
   14.62833309   78.94049835    0.67000002    2.94000006
   14.63166714   77.90110016    0.67000002    2.96000004
   14.63416672   81.60399628    0.67000002    2.96000004
   14.63527775   79.12599945    0.67000002    2.94000006
   14.63861084   79.53389740    0.67000002    2.94000006
   14.64166641   80.98519897    0.67000002    2.94000006
   14.64499950   79.81739807    0.64999998    2.96000004
   14.64833355   83.12819672    0.67000002    2.94000006
   14.65416622   83.12819672    0.64999998    2.94000006
   14.65833282   78.13749695    0.64999998    2.96000004
   14.66138840   83.32769775    0.64999998    2.96000004
   14.66472149   80.61090088    0.64999998    2.94000006
   14.66750050   80.81839752    0.67000002    2.96000004
   14.66833401   82.53939819    0.67000002    2.96000004
   14.67166710   81.22530365    0.67000002    2.94000006
   14.67500019   80.42800140    0.67000002    2.94000006
   14.67805576   79.27500153    0.69000000    2.94000006
   14.68138885   83.12429810    0.69000000    2.96000004
   14.68444443   81.73480225    0.67000002    2.96000004
   14.68777752   83.48840332    0.67000002    2.96000004
   14.69111156   87.57050323    0.69000000    2.96000004
   14.69694424   87.57050323    0.69000000    2.94000006
   14.70111084   82.09439850    0.69000000    2.96000004
   14.70444393   79.72409821    0.69000000    2.96000004
   14.70749950   80.56649780    0.69000000    2.94000006
   14.71083355   79.78790283    0.67000002    2.96000004
   14.71416664   81.81009674    0.64999998    2.96000004
   14.71722221   81.47070313    0.64999998    2.94000006
   14.72055531   80.90200043    0.64999998    2.96000004
   14.72361088   81.02839661    0.64999998    2.96000004
   14.72694397   81.72689819    0.67000002    2.96000004
   14.73027706   83.40519714    0.64999998    2.98000002
   14.73333359   80.50730133    0.67000002    2.94000006
   14.73416710   81.66269684    0.67000002    2.94000006
   14.73972225   81.66269684    0.67000002    2.96000004
   14.74388885   79.93920135    0.67000002    2.96000004
   14.74722290   82.54239655    0.67000002    2.94000006
   14.75055599   79.48799896    0.67000002    2.96000004
   14.75361156   83.01319885    0.69000000    2.96000004
   14.75694466   77.84660339    0.70999998    2.96000004
   14.76027775   81.05539703    0.70999998    2.96000004
   14.76333332   86.14080048    0.67000002    2.96000004
   14.76666641   86.74130249    0.63000000    2.96000004
   14.76749992   80.63739777    0.63000000    2.96000004
   14.77027798   83.78459930    0.63000000    2.96000004
   14.77361107   81.86740112    0.63000000    2.96000004
   14.77666664   84.00589752    0.63000000    2.96000004
   14.78277779   84.00589752    0.64999998    2.96000004
   14.78694534   77.28780365    0.61000001    2.96000004
   14.79027843   84.98320007    0.61000001    2.96000004
   14.79333401   81.49739838    0.61000001    2.96000004
   14.79666710   84.39620209    0.58999997    2.96000004
   14.80000019   84.03019714    0.58999997    2.96000004
   14.80083370   82.29139709    0.56999999    2.98000002
   14.80361176   81.07350159    0.56999999    2.98000002
   14.80694485   81.20729828    0.56999999    2.96000004
   14.81000042   84.36479950    0.56999999    2.96000004
   14.81333351   81.62300110    0.56999999    2.96000004
   14.81666660   81.66960144    0.56999999    2.96000004
   14.81972218   83.63590240    0.56999999    2.96000004
   14.82555580   83.63590240    0.56999999    2.96000004
   14.82972240   75.33229828    0.56999999    2.96000004
   14.83277798   82.67199707    0.56999999    2.96000004
   14.83416653   78.59980011    0.56999999    2.96000004
   14.83638859   83.11889648    0.56999999    2.96000004
   14.83972168   81.94380188    0.56999999    2.98000002
   14.84277725   81.74289703    0.56999999    2.96000004
   14.84611034   80.21440125    0.56999999    2.96000004
   14.84944439   82.60359955    0.56999999    2.96000004
   14.85249996   82.82189941    0.56999999    2.96000004
   14.85583401   83.90010071    0.58999997    2.98000002
   14.85916710   81.32530212    0.61000001    2.96000004
   14.86222267   81.10559845    0.61000001    2.96000004
   14.86833382   81.10559845    0.64999998    2.96000004
   14.87250042   80.89659882    0.69000000    2.96000004
   14.87583351   80.42269897    0.69000000    2.96000004
   14.87888908   79.36750031    0.69000000    2.96000004
   14.88222218   82.92949677    0.69000000    2.96000004
   14.88527775   82.34400177    0.70999998    2.96000004
   14.88861084   81.17389679    0.69000000    2.98000002
   14.89194393   81.78029633    0.69000000    2.94000006
   14.89499950   80.03730011    0.69000000    2.94000006
   14.89833355   81.96040344    0.69000000    2.96000004
   14.90083313   80.97119904    0.70999998    2.96000004
   14.90194416   79.33750153    0.70999998    2.96000004
   14.90527725   83.86900330    0.70999998    2.96000004
   14.91111088   83.86900330    0.70999998    2.96000004
   14.91527748   88.62680054    0.70999998    2.96000004
   14.91861153   82.73860168    0.73000002    2.96000004
   14.92166710   81.03060150    0.73000002    2.96000004
   14.92500019   80.83660126    0.70999998    2.96000004
   14.92833328   78.90409851    0.70999998    2.98000002
   14.93138885   80.06359863    0.70999998    2.98000002
   14.93416691   79.28800201    0.69000000    2.98000002
   14.93500042   77.24379730    0.69000000    2.98000002
   14.93833351   74.93959808    0.70999998    2.96000004
   14.94138908   77.51770020    0.70999998    2.96000004
   14.94472218   79.58670044    0.70999998    2.96000004
   14.94805527   78.38459778    0.70999998    2.96000004
   14.95416641   78.38459778    0.70999998    2.96000004
   14.95833302   81.86100006    0.70999998    2.96000004
   14.96138859   81.08619690    0.70999998    2.96000004
   14.96472168   82.39849854    0.73000002    2.96000004
   14.96749973   81.81259918    0.73000002    2.96000004
   14.96833324   81.95259857    0.73000002    2.96000004
   14.97166634   79.13549805    0.73000002    2.96000004
   14.97472191   78.72209930    0.73000002    2.96000004
   14.97805500   79.34950256    0.73000002    2.96000004
   14.98138809   83.15989685    0.73000002    2.96000004
   14.98444462   82.25720215    0.73000002    2.96000004
   14.98777771   78.63059998    0.75000000    2.96000004
   14.99111176   80.12680054    0.76999998    2.96000004
   14.99694443   80.12680054    0.76999998    2.96000004
   15.00111103   79.53540039    0.79000002    2.96000004
   15.00416660   80.84449768    0.79000002    2.96000004
   15.00749969   79.26560211    0.79000002    2.96000004
   15.01083374   84.48040009    0.76999998    2.96000004
   15.01388931   82.35970306    0.75000000    2.96000004
   15.01722240   83.04100037    0.75000000    2.96000004
   15.02055550   79.19660187    0.75000000    2.98000002
   15.02361107   80.91310120    0.75000000    2.96000004
   15.02694416   82.97589874    0.75000000    2.96000004
   15.02999973   81.83090210    0.75000000    2.96000004
   15.03333378   83.70459747    0.73000002    2.96000004
   15.03416729   84.63680267    0.73000002    2.96000004
   15.03972244   84.63680267    0.75000000    2.94000006
   15.04388905   80.83329773    0.79000002    2.98000002
   15.04722309   81.72619629    0.80000001    2.96000004
   15.05027771   87.53160095    0.80000001    2.96000004
   15.05361176   85.80130005    0.80000001    2.96000004
   15.05666733   80.98940277    0.81999999    2.96000004
   15.06000042   83.68280029    0.80000001    2.96000004
   15.06333351   81.74220276    0.79000002    2.96000004
   15.06638908   82.60119629    0.76999998    2.98000002
   15.06750011   85.25000000    0.76999998    2.98000002
   15.06999969   86.30549622    0.76999998    2.96000004
   15.07333374   83.99549866    0.76999998    2.96000004
   15.07638836   83.22319794    0.75000000    2.96000004
   15.08249950   83.22319794    0.75000000    2.96000004
   15.08666611   82.93389893    0.75000000    2.96000004
   15.09000015   80.13480377    0.76999998    2.96000004
   15.09305477   85.58650208    0.76999998    2.96000004
   15.09638882   81.32039642    0.76999998    2.96000004
   15.09972191   84.94429779    0.76999998    2.96000004
   15.10083389   83.30020142    0.79000002    2.96000004
   15.10333347   78.49530029    0.79000002    2.96000004
   15.10666752   83.33159637    0.79000002    2.96000004
   15.10972214   82.00710297    0.76999998    2.96000004
   15.11305618   83.63040161    0.76999998    2.96000004
   15.11638927   83.37640381    0.76999998    2.96000004
   15.11944485   84.16439819    0.76999998    2.96000004
   15.12583351   84.16439819    0.80000001    2.96000004
   15.13000011   78.41439819    0.81999999    2.96000004
   15.13305569   79.61740112    0.81999999    2.98000002
   15.13416672   84.38680267    0.81999999    2.98000002
   15.13666630   77.54010010    0.83999997    2.96000004
   15.14000034   80.70220184    0.88000000    2.96000004
   15.14361095   83.01609802    0.95999998    2.94000006
   15.14666653   91.65830231    0.95999998    2.94000006
   15.14999962   91.09709930    1.11000001    2.96000004
   15.15333271   88.85939789    1.21000004    2.94000006
   15.15638828   76.90200043    1.21000004    2.96000004
   15.15972137   76.39119720    1.23000002    2.94000006
   15.16305542   78.93129730    1.23000002    2.94000006
   15.16833401   78.93129730    1.25000000    2.96000004
   15.17250061   82.13929749    1.25000000    2.96000004
   15.17555618   76.90080261    1.26999998    2.96000004
   15.17888927   78.85389709    1.28999996    2.94000006
   15.18222237   77.39510345    1.28999996    2.94000006
   15.18527794   77.95549774    1.26999998    2.94000006
   15.18861103   79.23809814    1.26999998    2.94000006
   15.19166660   83.35230255    1.25000000    2.94000006
   15.19499969   79.58820343    1.16999996    2.94000006
   15.19833374   76.19360352    1.16999996    2.96000004
   15.20111084   81.29979706    1.16999996    2.96000004
   15.22166634   81.29979706    0.94000000    2.94000006
   15.22583294   82.90010071    0.92000002    2.96000004
   15.22888851   76.75930023    0.89999998    2.94000006
   15.23222160   78.84660339    0.89999998    2.96000004
   15.23444462   82.70919800    0.89999998    2.94000006
   15.23583317   89.12789917    0.89999998    2.94000006
   15.23916721   79.08280182    0.89999998    2.94000006
   15.24222279   84.92919922    0.94000000    2.96000004
   15.24555588   78.57730103    1.00000000    2.96000004
   15.24888897   75.52709961    1.01999998    2.96000004
   15.25194454   76.77149963    1.01999998    2.96000004
   15.25527763   79.04570007    1.03999996    2.94000006
   15.25861073   84.63829803    1.03999996    2.96000004
   15.26444435   84.63829803    1.01999998    2.96000004
   15.26833344   82.19409943    1.00000000    2.96000004
   15.27166653   76.65429688    0.92000002    2.96000004
   15.27499962   78.01119995    0.83999997    2.96000004
   15.27805519   81.35720062    0.83999997    2.96000004
   15.28138828   77.24220276    0.81999999    2.96000004
   15.28472233   84.98500061    0.80000001    2.96000004
   15.28777790   81.65769958    0.80000001    2.96000004
   15.29111195   78.61869812    0.80000001    2.98000002
   15.29416752   80.63690186    0.81999999    2.96000004
   15.29750061   77.32929993    0.81999999    2.96000004
   15.30083370   79.23789978    0.81999999    2.96000004
   15.30138874   81.02639771    0.81999999    2.96000004
   15.30722237   81.02639771    0.81999999    2.96000004
   15.31138897   80.22319794    0.83999997    2.96000004
   15.41666698   -1.00000000   -1.00000000   -1.00000000
   15.56416702   -1.00000000   -1.00000000   -1.00000000
   15.69138908   -1.00000000   -1.00000000   -1.00000000
   15.72111034   87.95700073    1.00000000    2.96000004
   15.72444439   81.88339996    0.98000002    2.96000004
   15.72749996   88.20629883    0.98000002    2.96000004
   15.73083305   88.57270050    0.95999998    2.96000004
   15.73416710   92.28790283    0.95999998    2.96000004
   15.73722267   84.38500214    0.95999998    2.96000004
   15.74138927   84.38500214    0.98000002    2.96000004
   15.74555588   86.16320038    0.98000002    2.96000004
   15.74888897   85.66729736    1.01999998    2.96000004
   15.75194454   84.35790253    1.07000005    2.96000004
   15.75444412   84.67289734    1.11000001    2.94000006
   15.75555515   83.31819916    1.11000001    2.94000006
   15.75888920   80.28820038    1.09000003    2.94000006
   15.76222229   85.96430206    1.09000003    2.94000006
   15.76527786   84.10790253    1.09000003    2.94000006
   15.76861095   82.43689728    1.13000000    2.96000004
   15.77194405   83.27919769    1.11000001    2.96000004
   15.77499962   83.01339722    1.09000003    2.96000004
   15.77833271   82.72119904    1.07000005    2.96000004
   15.78416729   82.72119904    1.09000003    2.96000004
   15.78833389   80.44960022    1.05999994    2.96000004
   15.79166698   83.31819916    1.01999998    2.96000004
   15.79472256   80.45379639    0.95999998    2.96000004
   15.79805565   76.07089996    0.92000002    2.96000004
   15.80138874   77.00769806    0.92000002    2.98000002
   15.80472279   81.58709717    0.92000002    2.98000002
   15.80777836   81.33350372    0.92000002    2.94000006
   15.81111145   81.11940002    0.88000000    2.96000004
   15.81444454   82.75309753    0.86000001    2.96000004
   15.81750011   82.35559845    0.83999997    2.96000004
   15.82083321   80.91210175    0.81999999    2.96000004
   15.82138920   79.26519775    0.81999999    2.96000004
   15.82722187   79.26519775    0.79000002    2.96000004
   15.83111095   80.67700195    0.76999998    2.96000004
   15.83444405   81.47489929    0.79000002    2.96000004
   15.83777714   78.04389954    0.79000002    2.96000004
   15.84083271   80.81030273    0.80000001    2.96000004
   15.84416676   79.81240082    0.79000002    2.98000002
   15.84722233   79.99440002    0.80000001    2.96000004
   15.85055637   80.73059845    0.83999997    2.96000004
   15.85388947   90.82610321    0.83999997    2.96000004
   15.85472298   78.98799896    0.83999997    2.96000004
   15.85722256   83.61109924    0.83999997    2.96000004
   15.86055565   80.55100250    0.83999997    2.96000004
   15.86388969   82.73210144    0.81999999    2.94000006
   15.86999989   82.73210144    0.81999999    2.96000004
   15.87416649   83.25710297    0.81999999    2.96000004
   15.87722206   84.30100250    0.80000001    2.98000002
   15.88055611   78.70600128    0.80000001    2.98000002
   15.88388920   84.94529724    0.80000001    2.98000002
   15.88694477   80.31710052    0.79000002    2.96000004
   15.88805580   82.70619965    0.79000002    2.96000004
   15.89055538   83.54660034    0.76999998    2.96000004
   15.89388847   80.63990021    0.76999998    2.96000004
   15.89722252   85.09970093    0.75000000    2.98000002
   15.90027714   79.81990051    0.76999998    2.96000004
   15.90361118   81.79750061    0.79000002    2.96000004
   15.90694427   84.80259705    0.79000002    2.96000004
   15.91305542   84.80259705    0.83999997    2.96000004
   15.91722298   82.53720093    0.81999999    2.98000002
   15.92027855   84.37539673    0.83999997    2.96000004
   15.92138958   81.62509918    0.83999997    2.96000004
   15.92388916   83.12650299    0.86000001    2.96000004
   15.92722225   81.26799774    0.86000001    2.96000004
   15.93055630   83.99250031    0.86000001    2.96000004
   15.93361092   83.82199860    0.83999997    2.96000004
   15.93694496   82.17050171    0.83999997    2.96000004
   15.94000053   86.15740204    0.81999999    2.96000004
   15.94333363   86.85340118    0.83999997    2.96000004
   15.94666672   88.42530060    0.83999997    2.96000004
   15.94972229   83.01940155    0.83999997    2.96000004
   15.95555496   83.01940155    0.83999997    2.96000004
   15.95972157   82.42099762    0.81999999    2.96000004
   15.96305561   82.70040131    0.81999999    2.96000004
   15.96638870   81.13469696    0.83999997    2.96000004
   15.96944427   77.50260162    0.83999997    2.96000004
   15.97277737   85.02510071    0.88000000    2.98000002
   15.97611046   83.91159821    0.94000000    2.96000004
   15.97916603   78.74739838    0.92000002    2.98000002
   15.98249912   82.98950195    0.89999998    2.96000004
   15.98583317   81.48290253    0.94000000    2.98000002
   15.98805618   83.58159637    0.94000000    2.98000002
   15.98916721   80.65979767    0.81999999    2.98000002
   15.99250031   83.26689911    0.81999999    2.98000002
   15.99861145   83.26689911    0.80000001    2.98000002
   16.00250053   86.62999725    0.80000001    2.98000002
   16.00583267   83.26740265    0.80000001    2.96000004
   16.00916672   86.20210266    0.79000002    2.98000002
   16.01222229   81.91200256    0.79000002    2.96000004
   16.01555634   77.21610260    0.80000001    2.96000004
   16.01888847   82.13320160    0.81999999    2.96000004
   16.02138901   82.54019928    0.81999999    2.96000004
   16.02222252   83.36589813    0.80000001    2.98000002
   16.02555466   80.81880188    0.80000001    2.98000002
   16.02888870   83.69660187    0.80000001    2.96000004
   16.03194427   80.49009705    0.79000002    2.96000004
   16.03527641   83.49880219    0.79000002    2.98000002
   16.04138756   83.49880219    0.79000002    2.96000004
   16.04555511   88.34850311    0.76999998    2.96000004
   16.04861069   84.37290192    0.73000002    2.98000002
   16.05194283   83.11640167    0.75000000    2.98000002
   16.05472183   81.60079956    0.75000000    2.98000002
   16.05555534   77.44909668    0.75000000    2.98000002
   16.05888748   81.06590271    0.75000000    2.98000002
   16.06222153   81.82430267    0.75000000    2.98000002
   16.06527710   79.35880280    0.76999998    2.96000004
   16.06861115   82.16979980    0.76999998    2.96000004
   16.07194519   81.08000183    0.79000002    2.96000004
   16.07500076   81.54239655    0.79000002    2.96000004
   16.07833481   78.45300293    0.79000002    2.96000004
   16.08416748   78.45300293    0.80000001    2.98000002
   16.08833313   80.98049927    0.83999997    2.98000002
   16.09138870   84.02819824    0.83999997    2.96000004
   16.09472275   83.42970276    0.83999997    2.96000004
   16.09805679   84.44229889    0.83999997    2.96000004
   16.10111237   78.89140320    0.83999997    2.96000004
   16.10444450   86.59279633    0.81999999    2.96000004
   16.10777855   82.78749847    0.80000001    2.96000004
   16.11083412   79.87210083    0.79000002    2.96000004
   16.11416626   84.40329742    0.79000002    2.96000004
   16.11722183   79.90110016    0.79000002    2.98000002
   16.12055588   81.40959930    0.79000002    2.96000004
   16.12138939   81.24169922    0.79000002    2.96000004
   16.12694550   81.24169922    0.83999997    2.96000004
   16.13111115   80.10150146    0.83999997    2.98000002
   16.13444519   85.69889832    0.83999997    2.96000004
   16.13777733   81.77380371    0.83999997    2.96000004
   16.14083290   79.42299652    0.83999997    2.96000004
   16.14416695   80.37390137    0.83999997    2.96000004
   16.14749908   80.05210114    0.86000001    2.96000004
   16.15055466   81.65489960    0.88000000    2.96000004
   16.15388870   79.52799988    0.86000001    2.98000002
   16.15472221   85.68569946    0.86000001    2.98000002
   16.15749931   82.41590118    0.86000001    2.98000002
   16.16055489   85.05439758    0.86000001    2.96000004
   16.16388893   82.23950195    0.88000000    2.96000004
   16.17000008   82.23950195    0.86000001    2.96000004
   16.17416573   79.49179840    0.88000000    2.98000002
   16.17722130   83.95800018    0.88000000    2.96000004
   16.18055534   82.33350372    0.88000000    2.96000004
   16.18361092   85.06459808    0.88000000    2.96000004
   16.18694305   84.66429901    0.83999997    2.98000002
   16.18805504   83.09470367    0.83999997    2.98000002
   16.19055557   80.40309906    0.81999999    2.96000004
   16.19388771   81.64659882    0.80000001    2.96000004
   16.19722176   83.70950317    0.79000002    2.98000002
   16.20027924   80.64739990    0.76999998    2.98000002
   16.20361137   83.85510254    0.79000002    2.96000004
   16.20694542   81.84380341    0.79000002    2.96000004
   16.21277809   81.84380341    0.79000002    2.98000002
   16.21694565   80.54199982    0.79000002    2.96000004
   16.22000122   86.53639984    0.79000002    2.98000002
   16.22138977   84.93699646    0.79000002    2.98000002
   16.22389030   81.90769958    0.80000001    2.98000002
   16.22694588   79.76159668    0.79000002    2.96000004
   16.23027802   81.64859772    0.80000001    2.96000004
   16.23333359   83.46790314    0.80000001    2.96000004
   16.23666763   81.19979858    0.81999999    2.98000002
   16.23999977   84.86940002    0.81999999    2.96000004
   16.24305534   83.40769958    0.79000002    2.98000002
   16.24638939   82.01650238    0.76999998    2.98000002
   16.24972153   83.02459717    0.79000002    2.98000002
   16.25555611   83.02459717    0.86000001    2.98000002
   16.25972176   79.08399963    0.89999998    2.96000004
   16.26305580   85.43470001    0.92000002    2.96000004
   16.26611137   80.42179871    0.92000002    2.94000006
   16.26944351   82.14399719    0.92000002    2.96000004
   16.27249908   82.25240326    0.92000002    2.94000006
   16.27583313   85.29499817    0.92000002    2.96000004
   16.27916718   85.61289978    0.88000000    2.98000002
   16.28222275   80.09349823    0.86000001    2.96000004
   16.28555489   80.09120178    0.86000001    2.96000004
   16.28805542   79.61150360    0.86000001    2.96000004
   16.28916550   78.66780090    0.86000001    2.96000004
   16.29222107   82.13269806    0.88000000    2.96000004
   16.29833221   82.13269806    0.89999998    2.96000004
   16.30249977   83.06919861    0.88000000    2.96000004
   16.30583191   82.55960083    0.88000000    2.96000004
   16.30888748   82.70400238    0.89999998    2.96000004
   16.31222153   83.69290161    0.89999998    2.96000004
   16.31555557   81.33599854    0.92000002    2.96000004
   16.31861115   84.94170380    0.92000002    2.98000002
   16.32139015   81.57910156    0.89999998    2.96000004
   16.32250023   79.98639679    0.92000002    2.98000002
   16.32555580   81.38130188    0.94000000    2.96000004
   16.32888985   86.14640045    0.95999998    2.96000004
   16.33194542   84.65160370    0.95999998    2.96000004
   16.33527756   84.38659668    0.95999998    2.96000004
   16.34138870   84.38659668    1.00000000    2.96000004
   16.34527779   79.01339722    1.01999998    2.96000004
   16.34861183   81.85019684    1.03999996    2.96000004
   16.35194397   80.16010284    1.05999994    2.96000004
   16.35472298   86.69969940    1.07000005    2.96000004
   16.35555649   81.20179749    1.07000005    2.96000004
   16.35861206   79.73429871    1.11000001    2.94000006
   16.36194420   81.54579926    1.11000001    2.96000004
   16.36499977   81.68229675    1.09000003    2.96000004
   16.36833382   86.67919922    1.09000003    2.96000004
   16.37166595   78.15470123    1.09000003    2.96000004
   16.37472153   81.17089844    1.13000000    2.96000004
   16.37805557   86.80090332    1.14999998    2.96000004
   16.38416672   86.80090332    1.14999998    2.96000004
   16.38833237   84.58950043    1.14999998    2.96000004
   16.39138794   85.41089630    1.14999998    2.96000004
   16.39472198   80.79340363    1.13000000    2.96000004
   16.39777756   84.46800232    1.11000001    2.96000004
   16.40111160   89.37570190    1.11000001    2.96000004
   16.40444374   85.82119751    1.09000003    2.96000004
   16.40749931  205.24600220    1.11000001    2.94000006
   16.41083336   80.84619904    1.13000000    2.94000006
   16.41416550   76.41339874    0.09000000    0.51999998
   16.41722107   82.56459808    0.05000000    0.25999999
   16.42055511   83.32740021    0.05000000    0.25999999
   16.42138863   84.39409637    0.05000000    0.25999999
   16.42694473   84.39409637    0.05000000    0.25999999
   16.43111038   80.19380188    0.05000000    0.25999999
   16.43444443   84.39640045    0.05000000    0.25999999
   16.43750000   82.19159698    0.05000000    0.25999999
   16.44083214   84.66899872    0.05000000    0.25999999
   16.44388771   79.95580292    0.05000000    0.25999999
   16.44722176   80.53549957    0.05000000    0.25999999
   16.45055580   79.49700165    0.05000000    0.25999999
   16.45361137   80.18180084    0.05000000    0.25999999
   16.45472336   80.90080261    0.05000000    0.25999999
   16.45750046   82.40869904    0.05000000    0.25999999
   16.46055603   79.73500061    0.05000000    0.25999999
   16.46389008   82.43730164    0.05000000    0.25999999
   16.46972275   82.43730164    0.05000000    0.25999999
   16.47389030   83.77799988    0.05000000    0.25999999
   16.47722244   80.08730316    0.05000000    0.25999999
   16.48027802   79.22969818    0.05000000    0.25999999
   16.48361206   81.89720154    0.05000000    0.25999999
   16.48694420   78.89170074    0.05000000    0.25999999
   16.48805618   74.15059662    0.05000000    0.25999999
   16.49055672   76.85060120    0.05000000    0.25999999
   16.49361229   79.92739868    0.05000000    0.25999999
   16.49694443   77.75730133    0.05000000    0.25999999
   16.50027847   77.18779755    0.05000000    0.25999999
   16.50333405   82.28130341    0.05000000    0.25999999
   16.50666618   81.94609833    0.05000000    0.25999999
   16.51250076   81.94609833    0.05000000    0.25999999
   16.51666641   81.55870056    0.05000000    0.25999999
   16.52000046   77.19180298    0.05000000    0.25999999
   16.52138901   80.50189972    0.05000000    0.25999999
   16.52361107   80.66780090    0.05000000    0.25999999
   16.52666664   80.94120026    0.05000000    0.25999999
   16.53000069   81.70189667    0.05000000    0.25999999
   16.53333282   82.86730194    0.05000000    0.25999999
   16.53638840   80.71430206    0.05000000    0.25999999
   16.53972244   78.85369873    0.05000000    0.25999999
   16.54305458   81.16750336    0.05000000    0.25999999
   16.54611015   80.03070068    0.05000000    0.25999999
   16.54944420   81.88539886    0.05000000    0.25999999
   16.55555534   81.88539886    0.05000000    0.25999999
   16.55972099   81.49980164    0.05000000    0.25999999
   16.56277657   82.78369904    0.05000000    0.25999999
   16.56611061   76.93450165    0.05000000    0.25999999
   16.56944466   82.77809906    0.05000000    0.25999999
   16.57277870   80.14900208    0.05000000    0.25999999
   16.57583427   80.82589722    0.05000000    0.25999999
   16.57916832   84.80740356    0.05000000    0.25999999
   16.58222389   79.56240082    0.05000000    0.25999999
   16.58555603   78.88729858    0.05000000    0.25999999
   16.58805656   79.62190247    0.05000000    0.25999999
   16.58916664   80.05370331    0.05000000    0.25999999
   16.59222221   78.59870148    0.05000000    0.25999999
   16.59833336   78.59870148    0.05000000    0.25999999
   16.60250092   80.00090027    0.05000000    0.25999999
   16.60555649   77.69450378    0.05000000    0.25999999
   16.60888863   78.09490204    0.05000000    0.25999999
   16.61222267   81.56250000    0.05000000    0.25999999
   16.61527824   80.70570374    0.05000000    0.25999999
   16.61861038   84.83979797    0.05000000    0.25999999
   16.62138939   77.88970184    0.05000000    0.25999999
   16.62222290   82.02420044    0.05000000    0.25999999
   16.62527847   81.51100159    0.05000000    0.25999999
   16.62861061   77.85659790    0.05000000    0.25999999
   16.63194466   76.93659973    0.05000000    0.25999999
   16.63500023   79.63849640    0.05000000    0.25999999
   16.64111137   79.63849640    0.05000000    0.25999999
   16.64527702   80.40789795    0.05000000    0.25999999
   16.64861107   77.76439667    0.05000000    0.25999999
   16.65166664   80.19259644    0.05000000    0.25999999
   16.65472221   77.46669769    0.05000000    0.25999999
   16.65555573   80.94719696    0.05000000    0.25999999
   16.65861130   79.04239655    0.05000000    0.25999999
   16.66194344   79.62329865    0.05000000    0.25999999
   16.66527748   81.15920258    0.05000000    0.25999999
   16.66833305   79.97460175    0.05000000    0.25999999
   16.67166519   78.90450287    0.05000000    0.25999999
   16.67472076   78.43080139    0.05000000    0.25999999
   16.67805481   76.70020294    0.05000000    0.25999999
   16.68416595   76.70020294    0.05000000    0.25999999
   16.68805504   77.87249756    0.05000000    0.25999999
   16.69138718   78.60590363    0.05000000    0.25999999
   16.69472122   81.36959839    0.05000000    0.25999999
   16.69777679   79.86630249    0.05000000    0.25999999
   16.70111275   78.49659729    0.05000000    0.25999999
   16.70444489   78.19519806    0.05000000    0.25999999
   16.70750046   76.10870361    0.05000000    0.25999999
   16.71083450   78.01399994    0.05000000    0.25999999
   16.71389008   79.92649841    0.05000000    0.25999999
   16.71722221   74.98049927    0.05000000    0.25999999
   16.72055626   81.69370270    0.05000000    0.25999999
   16.72138977   78.03540039    0.05000000    0.25999999
   16.74222183   78.03540039    0.05000000    0.25999999
   16.74638939   81.56369781    0.05000000    0.25999999
   16.74944496   78.89910126    0.05000000    0.25999999
   16.75277710   76.86049652    0.05000000    0.25999999
   16.75472260   78.22160339    0.05000000    0.25999999
   16.75638962   77.79000092    0.05000000    0.25999999
   16.75944519   85.12079620    0.05000000    0.25999999
   16.76277733   81.79190063    0.05000000    0.25999999
   16.76611137   79.44650269    0.05000000    0.25999999
   16.76916695   78.21829987    0.05000000    0.25999999
   16.77249908   77.16320038    0.05000000    0.25999999
   16.77583313   79.28970337    0.05000000    0.25999999
   16.77888870   80.43789673    0.05000000    0.25999999
   16.78499985   80.43789673    0.05000000    0.25999999
   16.78888893   76.52999878    0.05000000    0.25999999
   16.79222107   77.84349823    0.05000000    0.25999999
   16.79555511   81.60359955    0.05000000    0.25999999
   16.79861069   78.45649719    0.05000000    0.25999999
   16.80194283   82.47519684    0.05000000    0.25999999
   16.80527687   78.59369659    0.05000000    0.25999999
   16.80833244   77.02020264    0.05000000    0.25999999
   16.81166649   78.49770355    0.05000000    0.25999999
   16.81472206   79.76129913    0.05000000    0.25999999
   16.81805611   78.17569733    0.05000000    0.25999999
   16.82139015   80.52929688    0.05000000    0.25999999
   16.82194519   78.14679718    0.05000000    0.25999999
   16.82777786   78.14679718    0.05000000    0.25999999
   16.83194542   81.16829681    0.05000000    0.25999999
   16.83500099   81.85710144    0.05000000    0.25999999
   16.83833313   80.82740021    0.05000000    0.25999999
   16.84166718   77.89649963    0.05000000    0.25999999
   16.84472275   80.25029755    0.05000000    0.25999999
   16.84805679   79.62830353    0.05000000    0.25999999
   16.85111237   77.63870239    0.05000000    0.25999999
   16.85444450   80.29930115    0.05000000    0.25999999
   16.85527802   77.76660156    0.05000000    0.25999999
   16.85805511   78.80760193    0.05000000    0.25999999
   16.86138916   79.27919769    0.05000000    0.25999999
   16.86444473   78.57929993    0.05000000    0.25999999
   16.87055588   78.57929993    0.05000000    0.25999999
   16.87472153   84.08499908    0.05000000    0.25999999
   16.87805557   76.84529877    0.05000000    0.25999999
   16.88111115   80.29709625    0.05000000    0.25999999
   16.88444519   78.59459686    0.05000000    0.25999999
   16.88750076   79.88189697    0.05000000    0.25999999
   16.88861084   77.70200348    0.05000000    0.25999999
   16.89111137   79.53790283    0.05000000    0.25999999
   16.89444351   76.02780151    0.05000000    0.25999999
   16.89749908   75.11479950    0.05000000    0.25999999
   16.90083313   81.70069885    0.05000000    0.25999999
   16.90416718   78.16889954    0.05000000    0.25999999
   16.90722275   80.07640076    0.05000000    0.25999999
   16.91333389   80.07640076    0.05000000    0.25999999
   16.91749954   76.34760284    0.05000000    0.25999999
   16.92083359   75.98049927    0.05000000    0.25999999
   16.92194366   78.06890106    0.05000000    0.25999999
   16.92444420   83.14089966    0.05000000    0.25999999
   16.92777634   75.61309814    0.05000000    0.25999999
   16.93111038   79.82939911    0.05000000    0.25999999
   16.93416595   77.38459778    0.05000000    0.25999999
   16.93750000   77.09600067    0.05000000    0.25999999
   16.94055557   79.08599854    0.05000000    0.25999999
   16.94388771   82.34369659    0.05000000    0.25999999
   16.94722176   79.00650024    0.05000000    0.25999999
   16.95027924   78.07920074    0.05000000    0.25999999
   16.95639038   78.07920074    0.05000000    0.25999999
   16.96027946   79.37429810    0.05000000    0.25999999
   16.96361160   81.24829865    0.05000000    0.25999999
   16.96694565   84.09020233    0.05000000    0.25999999
   16.97000122   80.05509949    0.05000000    0.25999999
   16.97333336   81.19550323    0.05000000    0.25999999
   16.97666740   82.25730133    0.05000000    0.25999999
   16.97972298   85.99710083    0.05000000    0.25999999
   16.98305511   77.65889740    0.05000000    0.25999999
   16.98611069   84.15920258    0.05000000    0.25999999
   16.98861122   78.25060272    0.05000000    0.25999999
   16.98972321   81.08860016    0.05000000    0.25999999
   16.99305534   77.61340332    0.05000000    0.25999999
   16.99916649   77.61340332    0.05000000    0.25999999
   17.00333405   77.82029724    0.05000000    0.25999999
   17.00638962   80.77069855    0.05000000    0.25999999
   17.00972176   78.95130157    0.05000000    0.25999999
   17.01277733   78.45290375    0.05000000    0.25999999
   17.01611137   76.95349884    0.05000000    0.25999999
   17.01944351   76.02660370    0.05000000    0.25999999
   17.02194405   78.51660156    0.05000000    0.25999999
   17.02277756   79.41549683    0.05000000    0.25999999
   17.02611160   80.67800140    0.05000000    0.25999999
   17.02944374   80.60759735    0.05000000    0.25999999
   17.03249931   78.93139648    0.05000000    0.25999999
   17.03583336   79.13390350    0.05000000    0.25999999
   17.04194450   79.13390350    0.05000000    0.25999999
   17.04611015   79.69319916    0.05000000    0.25999999
   17.04916573   77.99130249    0.05000000    0.25999999
   17.05249977   79.33489990    0.05000000    0.25999999
   17.05527687   82.98059845    0.05000000    0.25999999
   17.05611038   82.22750092    0.05000000    0.25999999
   17.05944443   76.58519745    0.05000000    0.25999999
   17.06277657   79.72070313    0.05000000    0.25999999
   17.06583214   74.86920166    0.05000000    0.25999999
   17.06916809   79.08999634    0.05000000    0.25999999
   17.07222366   77.06719971    0.05000000    0.25999999
   17.07555580   79.42539978    0.05000000    0.25999999
   17.07888985   83.05000305    0.05000000    0.25999999
   17.08472252   83.05000305    0.05000000    0.25999999
   17.08889008   80.13510132    0.05000000    0.25999999
   17.09222221   80.22599792    0.05000000    0.25999999
   17.09527779   82.04730225    0.05000000    0.25999999
   17.09861183   79.44069672    0.05000000    0.25999999
   17.10194397   82.41809845    0.05000000    0.25999999
   17.10499954   79.60639954    0.05000000    0.25999999
   17.10833359   79.51090240    0.05000000    0.25999999
   17.11138916   77.41359711    0.05000000    0.25999999
   17.11472321   81.38629913    0.05000000    0.25999999
   17.11805534   79.35410309    0.05000000    0.25999999
   17.12111092   79.93219757    0.05000000    0.25999999
   17.12194443   81.04599762    0.05000000    0.25999999
   17.12777710   81.04599762    0.05000000    0.25999999
   17.13166618   79.17459869    0.05000000    0.25999999
   17.13500023   78.80049896    0.05000000    0.25999999
   17.13833237   83.21739960    0.05000000    0.25999999
   17.14138794   81.05169678    0.05000000    0.25999999
   17.14472198   76.17019653    0.05000000    0.25999999
   17.14805603   80.44499969    0.05000000    0.25999999
   17.15111160   81.11160278    0.05000000    0.25999999
   17.15444374   80.28970337    0.05000000    0.25999999
   17.15527725   83.07759857    0.05000000    0.25999999
   17.15777779   77.31729889    0.05000000    0.25999999
   17.16110992   78.82510376    0.05000000    0.25999999
   17.16444397   79.30010223    0.05000000    0.25999999
   17.17055511   79.30010223    0.05000000    0.25999999
   17.17472076   77.79930115    0.05000000    0.25999999
   17.17777634   83.50530243    0.05000000    0.25999999
   17.18111038   82.14230347    0.05000000    0.25999999
   17.18444443   85.51049805    0.05000000    0.25999999
   17.18750000   79.55809784    0.05000000    0.25999999
   17.18861008   75.30200195    0.05000000    0.25999999
   17.19111061   83.77380371    0.05000000    0.25999999
   17.19444275   82.12210083    0.05000000    0.25999999
   17.19777679   79.21340179    0.05000000    0.25999999
   17.20083427   93.65110016    0.05000000    0.25999999
   17.20416832   85.13150024    0.05000000    0.25999999
   17.20750046   79.69409943    0.05000000    0.25999999
   17.21333504   79.69409943    0.05000000    0.25999999
   17.21750069   76.88529968    0.05000000    0.25999999
   17.22083473   75.79129791    0.05000000    0.25999999
   17.22194481   77.95339966    0.05000000    0.25999999
   17.22416687   78.12560272    0.05000000    0.25999999
   17.22750092   76.33760071    0.05000000    0.25999999
   17.23083305   76.09729767    0.05000000    0.25999999
   17.23388863   74.47480011    0.05000000    0.25999999
   17.23722267   77.95130157    0.05000000    0.25999999
   17.24055672   76.70369720    0.05000000    0.25999999
   17.24361229   75.66419983    0.05000000    0.25999999
   17.24694443   75.43759918    0.05000000    0.25999999
   17.25000000   79.86060333    0.05000000    0.25999999
   17.25611115   79.86060333    0.05000000    0.25999999
   17.26027870   79.40309906    0.05000000    0.25999999
   17.26361084   74.73419952    0.05000000    0.25999999
   17.26666641   79.23320007    0.05000000    0.25999999
   17.27000046   77.28739929    0.05000000    0.25999999
   17.27333260   78.89890289    0.05000000    0.25999999
   17.27638817   76.95850372    0.05000000    0.25999999
   17.27972221   78.15599823    0.05000000    0.25999999
   17.28277779   76.02510071    0.05000000    0.25999999
   17.28610992   76.85240173    0.05000000    0.25999999
   17.28861046   75.12349701    0.05000000    0.25999999
   17.28972244   75.83689880    0.05000000    0.25999999
   17.29305458   76.19689941    0.05000000    0.25999999
   17.29888916   76.19689941    0.05000000    0.25999999
   17.30305481   75.43199921    0.05000000    0.25999999
   17.30638885   74.63690186    0.05000000    0.25999999
   17.30972099   80.71749878    0.05000000    0.25999999
   17.31277657   78.25019836    0.05000000    0.25999999
   17.31611061   75.80210114    0.05000000    0.25999999
   17.31944466   79.30750275    0.05000000    0.25999999
   17.32194519   80.73439789    0.05000000    0.25999999
   17.32277870   79.30449677    0.05000000    0.25999999
   17.32611275   79.55950165    0.05000000    0.25999999
   17.32944489   84.80180359    0.05000000    0.25999999
   17.33277893   79.12069702    0.05000000    0.25999999
   17.33583450   83.27829742    0.05000000    0.25999999
   17.34194565   83.27829742    0.05000000    0.25999999
   17.34611130   80.93800354    0.05000000    0.25999999
   17.34916687   80.82849884    0.05000000    0.25999999
   17.35250092   81.40850067    0.05000000    0.25999999
   17.35527802   77.90290070    0.05000000    0.25999999
   17.35583305   77.27159882    0.05000000    0.25999999
   17.35916710   78.51039886    0.05000000    0.25999999
   17.36250114   77.53620148    0.05000000    0.25999999
   17.36555672   77.93389893    0.05000000    0.25999999
   17.36888885   79.06610107    0.05000000    0.25999999
   17.37222290   76.82820129    0.05000000    0.25999999
   17.37527847   77.25289917    0.05000000    0.25999999
   17.37861061   75.60810089    0.05000000    0.25999999
   17.38472176   75.60810089    0.05000000    0.25999999
   17.38888931   77.13130188    0.05000000    0.25999999
   17.39194489   78.91860199    0.05000000    0.25999999
   17.39527702   76.09829712    0.05000000    0.25999999
   17.39861107   80.66290283    0.05000000    0.25999999
   17.40166664   77.48000336    0.05000000    0.25999999
   17.40499878   75.33699799    0.05000000    0.25999999
   17.40833282   76.95159912    0.05000000    0.25999999
   17.41138840   80.82279968    0.05000000    0.25999999
   17.41472244   78.60279846    0.05000000    0.25999999
   17.41805458   76.34570313    0.05000000    0.25999999
   17.42111015   75.80149841    0.05000000    0.25999999
   17.42194366   77.46620178    0.05000000    0.25999999
   17.42749977   77.46620178    0.05000000    0.25999999
   17.43166542   78.64800262    0.05000000    0.25999999
   17.43499947   80.22689819    0.05000000    0.25999999
   17.43805504   78.25039673    0.05000000    0.25999999
   17.44138718   74.85710144    0.05000000    0.25999999
   17.44472122   78.15660095    0.05000000    0.25999999
   17.44777679   79.60870361    0.05000000    0.25999999
   17.45111275   77.76629639    0.05000000    0.25999999
   17.45416832   80.39830017    0.05000000    0.25999999
   17.45527840   78.38089752    0.05000000    0.25999999
   17.45805550   77.88559723    0.05000000    0.25999999
   17.46111107   78.13610077    0.05000000    0.25999999
   17.46444511   77.93499756    0.05000000    0.25999999
   17.47027779   77.93499756    0.05000000    0.25999999
   17.47444534   77.82910156    0.05000000    0.25999999
   17.47777748   77.12139893    0.05000000    0.25999999
   17.48111153   80.66200256    0.05000000    0.25999999
   17.48416710   78.15090179    0.05000000    0.25999999
   17.48750114   77.69339752    0.05000000    0.25999999
   17.48861122   80.94409943    0.05000000    0.25999999
   17.49111176   79.97170258    0.05000000    0.25999999
   17.49416733   79.90239716    0.05000000    0.25999999
   17.49749947   75.79409790    0.05000000    0.25999999
   17.50055504   82.70120239    0.05000000    0.25999999
   17.50388908   78.71289825    0.05000000    0.25999999
   17.50722313   75.88420105    0.05000000    0.25999999
   17.51333427   75.88420105    0.05000000    0.25999999
   17.51749992   74.04810333    0.05000000    0.25999999
   17.52055550   78.21170044    0.05000000    0.25999999
   17.52194405   75.18930054    0.05000000    0.25999999
   17.52444458   74.55359650    0.05000000    0.25999999
   17.52750015   76.85679626    0.05000000    0.25999999
   17.53083229   75.58769989    0.05000000    0.25999999
   17.53388786   75.74600220    0.05000000    0.25999999
   17.53722191   75.14630127    0.05000000    0.25999999
   17.54055595   82.11109924    0.05000000    0.25999999
   17.54361153   79.10079956    0.05000000    0.25999999
   17.54694366   75.93620300    0.05000000    0.25999999
   17.55027771   78.52230072    0.05000000    0.25999999
   17.55611038   78.52230072    0.05000000    0.25999999
   17.56027794   76.81670380    0.05000000    0.25999999
   17.56361008   79.37400055    0.05000000    0.25999999
   17.56666756   78.10630035    0.05000000    0.25999999
   17.57000160   74.95130157    0.05000000    0.25999999
   17.57305717   76.80139923    0.05000000    0.25999999
   17.57638931   80.45749664    0.05000000    0.25999999
   17.57972336   78.17350006    0.05000000    0.25999999
   17.58305550   80.04579926    0.05000000    0.25999999
   17.58611107   80.52590179    0.05000000    0.25999999
   17.58861160   82.23570251    0.05000000    0.25999999
   17.59000015   80.10569763    0.05000000    0.25999999
   17.59305573   79.84690094    0.05000000    0.25999999
   17.59889030   79.84690094    0.05000000    0.25999999
   17.60305595   79.31490326    0.05000000    0.25999999
   17.60639000   77.72869873    0.05000000    0.25999999
   17.60944557   81.19100189    0.05000000    0.25999999
   17.61277771   77.64990234    0.05000000    0.25999999
   17.61611176   79.69159698    0.05000000    0.25999999
   17.61916733   79.03459930    0.05000000    0.25999999
   17.62194443   77.63400269    0.05000000    0.25999999
   17.62305641   78.12190247    0.05000000    0.25999999
   17.62611198   77.34980011    0.05000000    0.25999999
   17.62944412   75.57800293    0.05000000    0.25999999
   17.63249969   77.01740265    0.05000000    0.25999999
   17.63583374   81.63330078    0.05000000    0.25999999
   17.64166641   81.63330078    0.05000000    0.25999999
   17.64583397   75.15350342    0.05000000    0.25999999
   17.64916611   78.70670319    0.05000000    0.25999999
   17.65250015   79.96510315    0.05000000    0.25999999
   17.65527725   80.57029724    0.05000000    0.25999999
   17.65611076   78.12120056    0.05000000    0.25999999
   17.65916634   79.40029907    0.05000000    0.25999999
   17.66250038   82.08329773    0.05000000    0.25999999
   17.66583252   78.89320374    0.05000000    0.25999999
   17.66888809   78.17900085    0.05000000    0.25999999
   17.67222214   81.56970215    0.05000000    0.25999999
   17.67527771   76.59310150    0.05000000    0.25999999
   17.67860985   77.88860321    0.05000000    0.25999999
   17.68472099   77.88860321    0.05000000    0.25999999
   17.68888855   77.65450287    0.05000000    0.25999999
   17.69194412   80.90799713    0.05000000    0.25999999
   17.69527626   78.66139984    0.05000000    0.25999999
   17.69861031   76.07260132    0.05000000    0.25999999
   17.70166779   78.73960114    0.05000000    0.25999999
   17.70499992   77.13089752    0.05000000    0.25999999
   17.70805550   78.74780273    0.05000000    0.25999999
   17.71138954   79.55449677    0.05000000    0.25999999
   17.71472359   77.59100342    0.05000000    0.25999999
   17.71777916   79.19640350    0.05000000    0.25999999
   17.72111130   79.50109863    0.05000000    0.25999999
   17.72194481   77.22109985    0.05000000    0.25999999
   17.72750092   77.22109985    0.05000000    0.25999999
   17.73166656   76.85620117    0.05000000    0.25999999
   17.73500061   79.71410370    0.05000000    0.25999999
   17.73805618   77.28440094    0.05000000    0.25999999
   17.75555611   75.45400238    0.05000000    0.25999999
   17.75805473   75.59490204    0.05000000    0.25999999
   17.76138878   79.94879913    0.05000000    0.25999999
   17.76444435   77.61499786    0.05000000    0.25999999
   17.77055550   77.61499786    0.05000000    0.25999999
   17.77472115   76.69259644    0.05000000    0.25999999
   17.77777672   79.44329834    0.05000000    0.25999999
   17.78111076   77.46820068    0.05000000    0.25999999
   17.78444481   83.54689789    0.05000000    0.25999999
   17.78750038   77.86250305    0.05000000    0.25999999
   17.78888893   81.57720184    0.05000000    0.25999999
   17.79111099   78.59140015    0.05000000    0.25999999
   17.79416656   78.16490173    0.05000000    0.25999999
   17.79749870   78.32769775    0.05000000    0.25999999
   17.80083275   82.25039673    0.05000000    0.25999999
   17.80388832   78.99749756    0.05000000    0.25999999
   17.80722237   79.07379913    0.05000000    0.25999999
   17.81333351   79.07379913    0.05000000    0.25999999
   17.81750107   77.76640320    0.05000000    0.25999999
   17.82083511   77.20240021    0.05000000    0.25999999
   17.82222366   78.32610321    0.05000000    0.25999999
   17.82444572   76.58280182    0.05000000    0.25999999
   17.82750130   78.45349884    0.05000000    0.25999999
   17.83083344   80.78649902    0.05000000    0.25999999
   17.83416748   76.31670380    0.05000000    0.25999999
   17.83722305   75.80020142    0.05000000    0.25999999
   17.84055710   75.90090179    0.05000000    0.25999999
   17.84388924   81.16600037    0.05000000    0.25999999
   17.84722328   78.75080109    0.05000000    0.25999999
   17.85027885   74.01789856    0.05000000    0.25999999
   17.85611153   74.01789856    0.05000000    0.25999999
   17.86027908   83.70760345    0.05000000    0.25999999
   17.86361122   78.97170258    0.05000000    0.25999999
   17.86666679   79.17610168    0.05000000    0.25999999
   17.87000084   77.03009796    0.05000000    0.25999999
   17.87333298   80.62329865    0.05000000    0.25999999
   17.87638855   80.11029816    0.05000000    0.25999999
   17.87972260   76.94699860    0.05000000    0.25999999
   17.88305473   76.65180206    0.05000000    0.25999999
   17.88611031   78.18930054    0.05000000    0.25999999
   17.88888931   78.98860168    0.05000000    0.25999999
   17.88972282   77.32409668    0.05000000    0.25999999
   17.89277840   79.12619781    0.05000000    0.25999999
   17.89916611   79.12619781    0.05000000    0.25999999
   17.90305519   77.32659912    0.05000000    0.25999999
   17.90638924   77.29550171    0.05000000    0.25999999
   17.90972137   78.21980286    0.05000000    0.25999999
   17.91277695   75.44819641    0.05000000    0.25999999
   17.91611099   77.22429657    0.05000000    0.25999999
   17.91944313   79.80629730    0.05000000    0.25999999
   17.92222214   79.33679962    0.05000000    0.25999999
   17.92305565   78.03839874    0.05000000    0.25999999
   17.92611122   77.69200134    0.05000000    0.25999999
   17.92944336   79.89910126    0.05000000    0.25999999
   17.93277740   76.88189697    0.05000000    0.25999999
   17.93583298   79.75810242    0.05000000    0.25999999
   17.94194412   79.75810242    0.05000000    0.25999999
   17.94610977   79.44989777    0.05000000    0.25999999
   17.94916534   76.82700348    0.05000000    0.25999999
   17.95250130   78.74949646    0.05000000    0.25999999
   17.95555687   78.68350220    0.05000000    0.25999999
   17.95611191   78.07520294    0.05000000    0.25999999
   17.95916748   82.48249817    0.05000000    0.25999999
   17.96250153   75.65370178    0.05000000    0.25999999
   17.96583366   85.50679779    0.05000000    0.25999999
   17.96888924   75.98690033    0.05000000    0.25999999
   17.97222328   77.18779755    0.05000000    0.25999999
   17.97555542   76.99310303    0.05000000    0.25999999
   17.97861099   78.14579773    0.05000000    0.25999999
   17.98472214   78.14579773    0.05000000    0.25999999
   17.98888969   78.44409943    0.05000000    0.25999999
   17.98944473   78.02320099    0.05000000    0.25999999
   17.99250031   78.35690308    0.05000000    0.25999999
   17.99583435   76.11859894    0.05000000    0.25999999
   17.99916649   79.16829681    0.05000000    0.25999999
   18.00222206   77.91860199    0.05000000    0.25999999
   18.00555611   77.82039642    0.05000000    0.25999999
   18.00888824   78.06909943    0.05000000    0.25999999
   18.01194382   79.96900177    0.05000000    0.25999999
   18.01527786   78.39969635    0.05000000    0.25999999
   18.01861000   79.58129883    0.05000000    0.25999999
   18.02166557   78.13330078    0.05000000    0.25999999
   18.02277756   78.08180237    0.05000000    0.25999999
   18.02750015   78.08180237    0.05000000    0.25999999
   18.03166580   77.24530029    0.05000000    0.25999999
   18.03499985   76.93090057    0.05000000    0.25999999
   18.03805542   75.32430267    0.05000000    0.25999999
   18.04138756   78.34970093    0.05000000    0.25999999
   18.04472160   81.49720001    0.05000000    0.25999999
   18.04777718   78.71559906    0.05000000    0.25999999
   18.05111122   75.72209930    0.05000000    0.25999999
   18.05444336   77.39070129    0.05000000    0.25999999
   18.05611038   75.54409790    0.05000000    0.25999999
   18.05777740   76.24179840    0.05000000    0.25999999
   18.06110954   76.16649628    0.05000000    0.25999999
   18.06444359   76.01399994    0.05000000    0.25999999
   18.07027817   76.01399994    0.05000000    0.25999999
   18.07444572   75.92209625    0.05000000    0.25999999
   18.07777786   75.86049652    0.05000000    0.25999999
   18.08111191   78.55190277    0.05000000    0.25999999
   18.08416748   77.02780151    0.05000000    0.25999999
   18.08750153   77.29280090    0.05000000    0.25999999
   18.08944511   75.56980133    0.05000000    0.25999999
   18.09083366   79.26100159    0.05000000    0.25999999
   18.09416771   74.79589844    0.05000000    0.25999999
   18.09749985   79.30449677    0.05000000    0.25999999
   18.10055542   80.94069672    0.05000000    0.25999999
   18.10388947   78.97650146    0.05000000    0.25999999
   18.10722351   80.47399902    0.05000000    0.25999999
   18.11333466   80.47399902    0.05000000    0.25999999
   18.11750031   80.38279724    0.05000000    0.25999999
   18.12055588   81.44650269    0.05000000    0.25999999
   18.12277794   77.38320160    0.05000000    0.25999999
   18.12444496   76.34559631    0.05000000    0.25999999
   18.12750053   77.03220367    0.05000000    0.25999999
   18.13083267   77.68319702    0.05000000    0.25999999
   18.13388824   81.28890228    0.05000000    0.25999999
   18.13722229   79.69290161    0.05000000    0.25999999
   18.14055634   74.65239716    0.05000000    0.25999999
   18.14361191   81.22969818    0.05000000    0.25999999
   18.14694405   78.99230194    0.05000000    0.25999999
   18.15027809   80.62550354    0.05000000    0.25999999
   18.15611076   80.62550354    0.05000000    0.25999999
   18.16027832   77.73359680    0.05000000    0.25999999
   18.16361046   78.39350128    0.05000000    0.25999999
   18.16666603   78.08809662    0.05000000    0.25999999
   18.17000008   81.13459778    0.05000000    0.25999999
   18.17305565   80.68329620    0.05000000    0.25999999
   18.17638779   77.36000061    0.05000000    0.25999999
   18.17972183   77.37470245    0.05000000    0.25999999
   18.18305397   76.62940216    0.05000000    0.25999999
   18.18610954   80.58779907    0.05000000    0.25999999
   18.18944359   82.52670288    0.05000000    0.25999999
   18.18999863   83.21170044    0.05000000    0.25999999
   18.19305420   77.42400360    0.05000000    0.25999999
   18.19888878   77.42400360    0.05000000    0.25999999
   18.20305634   77.28170013    0.05000000    0.25999999
   18.20639038   76.36869812    0.05000000    0.25999999
   18.20944595   76.06140137    0.05000000    0.25999999
   18.21277809   73.73919678    0.05000000    0.25999999
   18.21611214   76.73739624    0.05000000    0.25999999
   18.21916771   80.43000031    0.05000000    0.25999999
   18.22249985   78.12290192    0.05000000    0.25999999
   18.22305679   77.58100128    0.05000000    0.25999999
   18.22638893   77.65440369    0.05000000    0.25999999
   18.22944450   80.21720123    0.05000000    0.25999999
   18.23277855   81.81620026    0.05000000    0.25999999
   18.23583412   79.18019867    0.05000000    0.25999999
   18.24194527   79.18019867    0.05000000    0.25999999
   18.24583435   81.20549774    0.05000000    0.25999999
   18.24916649   77.13839722    0.05000000    0.25999999
   18.25250053   83.77649689    0.05000000    0.25999999
   18.25555611   76.16670227    0.05000000    0.25999999
   18.25638962   78.93859863    0.05000000    0.25999999
   18.25944519   80.50640106    0.05000000    0.25999999
   18.26250076   76.71389771    0.05000000    0.25999999
   18.26583290   82.03749847    0.05000000    0.25999999
   18.26916695   76.94249725    0.05000000    0.25999999
   18.27222252   78.58950043    0.05000000    0.25999999
   18.27555466   74.86029816    0.05000000    0.25999999
   18.27861023   78.23130035    0.05000000    0.25999999
   18.28472137   78.23130035    0.05000000    0.25999999
   18.28888893   79.87329865    0.05000000    0.25999999
   18.28972244   76.25050354    0.05000000    0.25999999
   18.29249954   78.11289978    0.05000000    0.25999999
   18.29555511   74.36389923    0.05000000    0.25999999
   18.29888916   74.96379852    0.05000000    0.25999999
   18.30194283   74.45520020    0.05000000    0.25999999
   18.30527687   75.46929932    0.05000000    0.25999999
   18.30861092   75.66010284    0.05000000    0.25999999
   18.31166649   77.42769623    0.05000000    0.25999999
   18.31499863   78.49269867    0.05000000    0.25999999
   18.31833458   78.65720367    0.05000000    0.25999999
   18.32139015   77.18060303    0.05000000    0.25999999
   18.32305717   79.02100372    0.05000000    0.25999999
   18.32750130   79.02100372    0.05000000    0.25999999
   18.33166695   79.65630341    0.05000000    0.25999999
   18.33500099   83.86479950    0.05000000    0.25999999
   18.33805656   77.69400024    0.05000000    0.25999999
   18.34138870   79.83260345    0.05000000    0.25999999
   18.34472275   78.99539948    0.05000000    0.25999999
   18.34777832   80.16030121    0.05000000    0.25999999
   18.35111237   81.34100342    0.05000000    0.25999999
   18.35444450   78.43589783    0.05000000    0.25999999
   18.35639000   80.82029724    0.05000000    0.25999999
   18.35805511   79.19490051    0.05000000    0.25999999
   18.36111069   75.46739960    0.05000000    0.25999999
   18.36444473   78.25650024    0.05000000    0.25999999
   18.37027740   78.25650024    0.05000000    0.25999999
   18.37444496   76.57689667    0.05000000    0.25999999
   18.37777710   79.39810181    0.05000000    0.25999999
   18.38083267   80.85530090    0.05000000    0.25999999
   18.38416672   78.64929962    0.05000000    0.25999999
   18.38750076   75.75360107    0.05000000    0.25999999
   18.38972282   80.72149658    0.05000000    0.25999999
   18.39111137   77.88059998    0.05000000    0.25999999
   18.39416695   77.95690155    0.05000000    0.25999999
   18.39749908   81.24210358    0.05000000    0.25999999
   18.40055466   80.20619965    0.05000000    0.25999999
   18.40388870   78.24649811    0.05000000    0.25999999
   18.40722275   78.84310150    0.05000000    0.25999999
   18.41333389   78.84310150    0.05000000    0.25999999
   18.41722107   79.44249725    0.05000000    0.25999999
   18.42055511   78.46530151    0.05000000    0.25999999
   18.42305565   83.15809631    0.05000000    0.25999999
   18.42444420   81.58239746    0.05000000    0.25999999
   18.42749977   78.12719727    0.05000000    0.25999999
   18.43083191   77.26450348    0.05000000    0.25999999
   18.43388748   80.33799744    0.05000000    0.25999999
   18.43722153   79.71199799    0.05000000    0.25999999
   18.44055557   76.13009644    0.05000000    0.25999999
   18.44361115   75.97699738    0.05000000    0.25999999
   18.44694328   75.67269897    0.05000000    0.25999999
   18.45027924   78.64080048    0.05000000    0.25999999
   18.45611191   78.64080048    0.05000000    0.25999999
   18.46027946   78.67289734    0.05000000    0.25999999
   18.46333504   76.52410126    0.05000000    0.25999999
   18.46666718   76.55100250    0.05000000    0.25999999
   18.47000122   78.79139709    0.05000000    0.25999999
   18.47305679   81.62590027    0.05000000    0.25999999
   18.47638893   75.60399628    0.05000000    0.25999999
   18.47944450   76.98519897    0.05000000    0.25999999
   18.48277855   78.05049896    0.05000000    0.25999999
   18.48611069   75.06559753    0.05000000    0.25999999
   18.48916626   75.30059814    0.05000000    0.25999999
   18.49111176   77.31240082    0.05000000    0.25999999
   18.49305534   80.10269928    0.05000000    0.25999999
   18.49888992   80.10269928    0.05000000    0.25999999
   18.50305557   78.98829651    0.05000000    0.25999999
   18.50611115   78.32240295    0.05000000    0.25999999
   18.50944519   75.94170380    0.05000000    0.25999999
   18.51277733   83.77549744    0.05000000    0.25999999
   18.51638794   78.75479889    0.05000000    0.25999999
   18.51944351   77.94680023    0.05000000    0.25999999
   18.52305603   77.08999634    0.05000000    0.25999999
   18.52444458   77.07959747    0.05000000    0.25999999
   18.52694511   76.65979767    0.05000000    0.25999999
   18.53000069   78.63339996    0.05000000    0.25999999
   18.53333282   78.68640137    0.05000000    0.25999999
   18.53638840   78.71859741    0.05000000    0.25999999
   18.54166603   78.71859741    0.05000000    0.25999999
   18.54583359   75.63050079    0.05000000    0.25999999
   18.54916573   78.47059631    0.05000000    0.25999999
   18.55222130   77.41809845    0.05000000    0.25999999
   18.55555534   74.84390259    0.05000000    0.25999999
   18.55805397   76.83789825    0.05000000    0.25999999
   18.55916595   78.77690125    0.05000000    0.25999999
   18.56250000   81.76029968    0.05000000    0.25999999
   18.56583214   77.98049927    0.05000000    0.25999999
   18.56888962   80.67729950    0.05000000    0.25999999
   18.57222366   77.18129730    0.05000000    0.25999999
   18.57527924   85.04689789    0.05000000    0.25999999
   18.57861137   76.52770233    0.05000000    0.25999999
   18.58444595   76.52770233    0.05000000    0.25999999
   18.58861160   80.10109711    0.05000000    0.25999999
   18.59138870   80.20610046    0.05000000    0.25999999
   18.59222221   80.24440002    0.05000000    0.25999999
   18.59555626   78.80699921    0.05000000    0.25999999
   18.59889030   79.62660217    0.05000000    0.25999999
   18.60194397   78.83989716    0.05000000    0.25999999
   18.60527802   75.55130005    0.05000000    0.25999999
   18.60833359   78.58319855    0.05000000    0.25999999
   18.61166763   77.60959625    0.05000000    0.25999999
   18.61499977   75.11119843    0.05000000    0.25999999
   18.61805534   76.50379944    0.05000000    0.25999999
   18.62138939   82.80639648    0.05000000    0.25999999
   18.62750053   82.80639648    0.05000000    0.25999999
   18.63166618   77.26909637    0.05000000    0.25999999
   18.63472176   79.17729950    0.05000000    0.25999999
   18.63805580   77.99469757    0.05000000    0.25999999
   18.64138794   79.82219696    0.05000000    0.25999999
   18.64444351   77.82949829    0.05000000    0.25999999
   18.64777756   78.64610291    0.05000000    0.25999999
   18.65083313   77.60549927    0.05000000    0.25999999
   18.65416718   76.25469971    0.05000000    0.25999999
   18.65749931   78.73269653    0.05000000    0.25999999
   18.65833282   78.13500214    0.05000000    0.25999999
   18.66110992   76.94190216    0.05000000    0.25999999
   18.66416550   77.46250153    0.05000000    0.25999999
   18.67027664   77.46250153    0.05000000    0.25999999
   18.67444420   76.82700348    0.05000000    0.25999999
   18.67777634   77.50309753    0.05000000    0.25999999
   18.68083191   77.26490021    0.05000000    0.25999999
   18.68416595   79.87149811    0.05000000    0.25999999
   18.68750000   79.12660217    0.05000000    0.25999999
   18.69055557   78.92320251    0.05000000    0.25999999
   18.69166565   78.82409668    0.05000000    0.25999999
   18.69444275   79.93039703    0.05000000    0.25999999
   18.69749832   78.11769867    0.05000000    0.25999999
   18.70083427   79.19470215    0.05000000    0.25999999
   18.70388985   78.62280273    0.05000000    0.25999999
   18.70722389   79.61460114    0.05000000    0.25999999
   18.71305656   79.61460114    0.05000000    0.25999999
   18.71722221   80.88770294    0.05000000    0.25999999
   18.72055626   76.93730164    0.05000000    0.25999999
   18.72361183   81.89060211    0.05000000    0.25999999
   18.72527885   80.46350098    0.05000000    0.25999999
   18.72722244   76.45010376    0.05000000    0.25999999
   18.73055649   80.02410126    0.05000000    0.25999999
   18.73361206   77.97630310    0.05000000    0.25999999
   18.73694420   80.14260101    0.05000000    0.25999999
   18.74027824   78.72899628    0.05000000    0.25999999
   18.74333382   78.74169922    0.05000000    0.25999999
   18.74666786   80.56970215    0.05000000    0.25999999
   18.75000000   79.81749725    0.05000000    0.25999999
   18.75583267   79.81749725    0.05000000    0.25999999
   18.77444458   77.58339691    0.05000000    0.25999999
   18.77750015   78.87069702    0.05000000    0.25999999
   18.78083229   79.72149658    0.05000000    0.25999999
   18.78388786   78.83360291    0.05000000    0.25999999
   18.78722191   77.15360260    0.05000000    0.25999999
   18.79055595   84.85939789    0.05000000    0.25999999
   18.79361153   78.35140228    0.05000000    0.25999999
   18.79888916   78.35140228    0.05000000    0.25999999
   18.80305481   80.78340149    0.05000000    0.25999999
   18.80638885   79.97149658    0.05000000    0.25999999
   18.80749893   82.12030029    0.05000000    0.25999999
   18.80999947   77.98459625    0.05000000    0.25999999
   18.81333351   75.27839661    0.05000000    0.25999999
   18.81666756   80.89089966    0.05000000    0.25999999
   18.81972313   78.69239807    0.05000000    0.25999999
   18.82305717   78.98200226    0.05000000    0.25999999
   18.82611275   75.70439911    0.05000000    0.25999999
   18.82944489   78.28649902    0.05000000    0.25999999
   18.83277893   79.15440369    0.05000000    0.25999999
   18.83583450   77.97889709    0.05000000    0.25999999
   18.84194565   77.97889709    0.05000000    0.25999999
   18.84611130   83.17810059    0.05000000    0.25999999
   18.84916687   77.46410370    0.05000000    0.25999999
   18.85250092   84.07929993    0.05000000    0.25999999
   18.85583305   77.72409821    0.05000000    0.25999999
   18.85888863   75.45020294    0.05000000    0.25999999
   18.86222267   79.26180267    0.05000000    0.25999999
   18.86527824   79.71679688    0.05000000    0.25999999
   18.86861038   77.81639862    0.05000000    0.25999999
   18.87194443   78.31300354    0.05000000    0.25999999
   18.87416649   77.92230225    0.05000000    0.25999999
   18.87527847   78.24430084    0.05000000    0.25999999
   18.87861061   79.98130035    0.05000000    0.25999999
   18.88472176   79.98130035    0.05000000    0.25999999
   18.88888931   80.27850342    0.05000000    0.25999999
   18.89222145   79.79940033    0.05000000    0.25999999
   18.89527702  202.24400330    0.05000000    0.25999999
   18.89861107   78.58670044    0.05000000    0.25999999
   18.90166664   79.63320160    0.05000000    0.25999999
   18.90499878   83.79370117    0.05000000    0.25999999
   18.90749931   77.97509766    0.05000000    0.25999999
   18.90861130   76.95670319    0.05000000    0.25999999
   18.91194344   78.65930176    0.05000000    0.25999999
   18.91499901   78.74040222    0.05000000    0.25999999
   18.91833305   76.67559814    0.05000000    0.25999999
   18.92166519   82.19210052    0.05000000    0.25999999
   18.92749977   82.19210052    0.05000000    0.25999999
   18.93166542   79.46450043    0.05000000    0.25999999
   18.93499947   81.71929932    0.05000000    0.25999999
   18.93805504   78.19329834    0.05000000    0.25999999
   18.94083214   83.73229980    0.05000000    0.25999999
   18.94166565   77.99060059    0.05000000    0.25999999
   18.94499969   78.17800140    0.05000000    0.25999999
   18.94833183   79.31690216    0.05000000    0.25999999
   18.95138931   76.61810303    0.05000000    0.25999999
   18.95472336   76.83319855    0.05000000    0.25999999
   18.95805550   81.57810211    0.05000000    0.25999999
   18.96111107   78.82679749    0.05000000    0.25999999
   18.96444511   78.38839722    0.05000000    0.25999999
   18.97027779   78.38839722    0.05000000    0.25999999
   18.97444534   78.50440216    0.05000000    0.25999999
   18.97777748   80.12439728    0.05000000    0.25999999
   18.98111153   79.31349945    0.05000000    0.25999999
   18.98416710   78.82520294    0.05000000    0.25999999
   18.98750114   79.06169891    0.05000000    0.25999999
   18.99083328   80.06639862    0.05000000    0.25999999
   18.99388885   77.53720093    0.05000000    0.25999999
   18.99722290   79.53949738    0.05000000    0.25999999
   19.00027847   79.78970337    0.05000000    0.25999999
   19.00361061   84.22519684    0.05000000    0.25999999
   19.00694466   78.19480133    0.05000000    0.25999999
   19.00749969   77.14649963    0.05000000    0.25999999
   19.01333427   77.14649963    0.05000000    0.25999999
   19.01749992   81.36270142    0.05000000    0.25999999
   19.02055550   78.93049622    0.05000000    0.25999999
   19.02388954   84.34999847    0.05000000    0.25999999
   19.02722168   79.41020203    0.05000000    0.25999999
   19.03055573   78.94680023    0.05000000    0.25999999
   19.03361130   87.27529907    0.05000000    0.25999999
   19.03694344   75.50209808    0.05000000    0.25999999
   19.03999901   78.56410217    0.05000000    0.25999999
   19.04083252   76.22550201    0.05000000    0.25999999
   19.04361153   79.91449738    0.05000000    0.25999999
   19.04694366   77.51550293    0.05000000    0.25999999
   19.05027771   81.56259918    0.05000000    0.25999999
   19.05611038   81.56259918    0.05000000    0.25999999
   19.06027794   76.82240295    0.05000000    0.25999999
   19.06333351   80.87100220    0.05000000    0.25999999
   19.06666756   80.95829773    0.05000000    0.25999999
   19.07000160   80.53559875    0.05000000    0.25999999
   19.07305717   79.95680237    0.05000000    0.25999999
   19.07416725   77.28549957    0.05000000    0.25999999
   19.07666779   75.54589844    0.05000000    0.25999999
   19.08000183   79.89469910    0.05000000    0.25999999
   19.08333397   80.22979736    0.05000000    0.25999999
   19.08638954   81.83380127    0.05000000    0.25999999
   19.08972359   81.42230225    0.05000000    0.25999999
   19.09277916   78.64340210    0.05000000    0.25999999
   19.09889030   78.64340210    0.05000000    0.25999999
   19.10305595   75.66429901    0.05000000    0.25999999
   19.10639000   76.25720215    0.05000000    0.25999999
   19.10750008   75.63179779    0.05000000    0.25999999
   19.10972214   79.08200073    0.05000000    0.25999999
   19.11305618   74.92099762    0.05000000    0.25999999
   19.11611176   78.94580078    0.05000000    0.25999999
   19.11944389   76.33200073    0.05000000    0.25999999
   19.12277794   76.91359711    0.05000000    0.25999999
   19.12583351   76.50900269    0.05000000    0.25999999
   19.12916756   74.30560303    0.05000000    0.25999999
   19.13249969   78.10790253    0.05000000    0.25999999
   19.13555527   81.17130280    0.05000000    0.25999999
   19.14166641   81.17130280    0.05000000    0.25999999
   19.14583397   77.76049805    0.05000000    0.25999999
   19.14916611   78.86859894    0.05000000    0.25999999
   19.15250015   81.31890106    0.05000000    0.25999999
   19.15555573   81.63069916    0.05000000    0.25999999
   19.15888786   78.50640106    0.05000000    0.25999999
   19.16194344   78.20580292    0.05000000    0.25999999
   19.16527748   77.72329712    0.05000000    0.25999999
   19.16860962   78.58390045    0.05000000    0.25999999
   19.17166519   77.93779755    0.05000000    0.25999999
   19.17416573   76.81680298    0.05000000    0.25999999
   19.17527771   77.00820160    0.05000000    0.25999999
   19.17860985   75.08470154    0.05000000    0.25999999
   19.18472099   75.08470154    0.05000000    0.25999999
   19.18861008   77.26020050    0.05000000    0.25999999
   19.19194412   76.02619934    0.05000000    0.25999999
   19.19527626   75.33460236    0.05000000    0.25999999
   19.19833183   81.51529694    0.05000000    0.25999999
   19.20166779   77.41470337    0.05000000    0.25999999
   19.20499992   78.07969666    0.05000000    0.25999999
   19.20750046   79.10449982    0.05000000    0.25999999
   19.20833397   79.42610168    0.05000000    0.25999999
   19.21166801   76.51670074    0.05000000    0.25999999
   19.21500015   76.94090271    0.05000000    0.25999999
   19.21805573   78.04920197    0.05000000    0.25999999
   19.22138977   76.29689789    0.05000000    0.25999999
   19.22750092   76.29689789    0.05000000    0.25999999
   19.23166656   78.34089661    0.05000000    0.25999999
   19.23472214   80.07649994    0.05000000    0.25999999
   19.23805618   82.59739685    0.05000000    0.25999999
   19.24083328   82.08450317    0.05000000    0.25999999
   19.24166679   82.24240112    0.05000000    0.25999999
   19.24500084   84.32230377    0.05000000    0.25999999
   19.24833298   82.11150360    0.05000000    0.25999999
   19.25138855   81.72519684    0.05000000    0.25999999
   19.25472260   79.54109955    0.05000000    0.25999999
   19.25805473   81.88680267    0.05000000    0.25999999
   19.26111031   78.86849976    0.05000000    0.25999999
   19.26444435   78.58869934    0.05000000    0.25999999
   19.27027702   78.58869934    0.05000000    0.25999999
   19.27444458   79.68450165    0.05000000    0.25999999
   19.27777672   76.80989838    0.05000000    0.25999999
   19.28111076   79.87830353    0.05000000    0.25999999
   19.28416634   77.04149628    0.05000000    0.25999999
   19.28750038   81.28659821    0.05000000    0.25999999
   19.29055595   78.14769745    0.05000000    0.25999999
   19.29388809   77.63099670    0.05000000    0.25999999
   19.29722214   79.10109711    0.05000000    0.25999999
   19.30027771   78.17749786    0.05000000    0.25999999
   19.30360985   79.32610321    0.05000000    0.25999999
   19.30694389   78.53150177    0.05000000    0.25999999
   19.30749893   79.73529816    0.05000000    0.25999999
   19.31305504   79.73529816    0.05000000    0.25999999
   19.31722260   81.77739716    0.05000000    0.25999999
   19.32055664   81.66110229    0.05000000    0.25999999
   19.32389069   79.06349945    0.05000000    0.25999999
   19.32694626   78.42189789    0.05000000    0.25999999
   19.33027840   78.69819641    0.05000000    0.25999999
   19.33333397   77.52169800    0.05000000    0.25999999
   19.33666801   80.78959656    0.05000000    0.25999999
   19.34000015   77.80840302    0.05000000    0.25999999
   19.34083366   79.11119843    0.05000000    0.25999999
   19.34333420   79.38670349    0.05000000    0.25999999
   19.34666824   79.62650299    0.05000000    0.25999999
   19.35000038   81.02279663    0.05000000    0.25999999
   19.35611153   81.02279663    0.05000000    0.25999999
   19.36027908   78.78720093    0.05000000    0.25999999
   19.36333466   81.35849762    0.05000000    0.25999999
   19.36666679   79.87429810    0.05000000    0.25999999
   19.36972237   78.04789734    0.05000000    0.25999999
   19.37305641   79.27960205    0.05000000    0.25999999
   19.37416649   77.26589966    0.05000000    0.25999999
   19.37666702   75.93370056    0.05000000    0.25999999
   19.38000107   79.06120300    0.05000000    0.25999999
   19.38333321   84.42919922    0.05000000    0.25999999
   19.38638878   79.18049622    0.05000000    0.25999999
   19.38972282   80.98090363    0.05000000    0.25999999
   19.39305496   78.88819885    0.05000000    0.25999999
   19.39888954   78.88819885    0.05000000    0.25999999
   19.40305519   79.19529724    0.05000000    0.25999999
   19.40611076   78.64219666    0.05000000    0.25999999
   19.40749931   77.93370056    0.05000000    0.25999999
   19.40972137   79.67150116    0.05000000    0.25999999
   19.41305542   78.93849945    0.05000000    0.25999999
   19.41638756   81.94920349    0.05000000    0.25999999
   19.41944313   76.50099945    0.05000000    0.25999999
   19.42277718   82.18049622    0.05000000    0.25999999
   19.42611122   77.37989807    0.05000000    0.25999999
   19.42916679   82.36569977    0.05000000    0.25999999
   19.43249893   75.23619843    0.05000000    0.25999999
   19.43555450   79.78859711    0.05000000    0.25999999
   19.44166565   79.78859711    0.05000000    0.25999999
   19.44583321   81.15249634    0.05000000    0.25999999
   19.44916534   77.29969788    0.05000000    0.25999999
   19.45222282   79.06009674    0.05000000    0.25999999
   19.45555687   85.05639648    0.05000000    0.25999999
   19.45888901   76.55269623    0.05000000    0.25999999
   19.46194458   78.19470215    0.05000000    0.25999999
   19.46527863   79.55799866    0.05000000    0.25999999
   19.46833420   80.29039764    0.05000000    0.25999999
   19.47166634   79.94290161    0.05000000    0.25999999
   19.47416687   78.94239807    0.05000000    0.25999999
   19.47527885   79.13780212    0.05000000    0.25999999
   19.47861099   76.29900360    0.05000000    0.25999999
   19.48444557   76.29900360    0.05000000    0.25999999
   19.48861122   79.22019958    0.05000000    0.25999999
   19.49194527   80.10260010    0.05000000    0.25999999
   19.49527740   79.71050262    0.05000000    0.25999999
   19.49833298   81.08110046    0.05000000    0.25999999
   19.50166702   78.74160004    0.05000000    0.25999999
   19.50472260   84.76650238    0.05000000    0.25999999
   19.50749969   79.07170105    0.05000000    0.25999999
   19.50833321   83.75980377    0.05000000    0.25999999
   19.51166725   88.54370117    0.05000000    0.25999999
   19.51499939   81.87449646    0.05000000    0.25999999
   19.51805496   80.60829926    0.05000000    0.25999999
   19.52138901   79.94400024    0.05000000    0.25999999
   19.52750015   79.94400024    0.05000000    0.25999999
   19.53166580   78.37709808    0.05000000    0.25999999
   19.53472137   79.91249847    0.05000000    0.25999999
   19.53805542   82.23690033    0.05000000    0.25999999
   19.54083252   79.43170166    0.05000000    0.25999999
   19.54138756   79.42720032    0.05000000    0.25999999
   19.54472160   81.35379791    0.05000000    0.25999999
   19.54805565   81.37120056    0.05000000    0.25999999
   19.55111122   77.64389801    0.05000000    0.25999999
   19.55444336   79.87850189    0.05000000    0.25999999
   19.55777740   80.39759827    0.05000000    0.25999999
   19.56083298   79.13050079    0.05000000    0.25999999
   19.56416512   81.58180237    0.05000000    0.25999999
   19.57027817   81.58180237    0.05000000    0.25999999
   19.57444572   78.38410187    0.05000000    0.25999999
   19.57777786   82.54930115    0.05000000    0.25999999
   19.58083344   79.11979675    0.05000000    0.25999999
   19.58416748   80.74549866    0.05000000    0.25999999
   19.58722305   85.00650024    0.05000000    0.25999999
   19.59055710   78.28869629    0.05000000    0.25999999
   19.59388924   84.22850037    0.05000000    0.25999999
   19.59694481   80.89659882    0.05000000    0.25999999
   19.60027885   82.71520233    0.05000000    0.25999999
   19.60361099   85.06670380    0.05000000    0.25999999
   19.60666656   86.65309906    0.05000000    0.25999999
   19.60750008   81.83129883    0.05000000    0.25999999
   19.61305618   81.83129883    0.05000000    0.25999999
   19.61722183   81.59580231    0.05000000    0.25999999
   19.62055588   78.60399628    0.05000000    0.25999999
   19.62361145   79.66909790    0.05000000    0.25999999
   19.62694550   78.35690308    0.05000000    0.25999999
   19.63027763   80.10939789    0.05000000    0.25999999
   19.63361168   77.58439636    0.05000000    0.25999999
   19.63666725   78.96939850    0.05000000    0.25999999
   19.63999939   80.60500336    0.05000000    0.25999999
   19.64083290   82.01300049    0.05000000    0.25999999
   19.64361191   82.81449890    0.05000000    0.25999999
   19.64666748   80.14379883    0.05000000    0.25999999
   19.64999962   81.70400238    0.05000000    0.25999999
   19.65583229   81.70400238    0.05000000    0.25999999
   19.65999985   86.71140289    0.05000000    0.25999999
   19.66333389   81.03610229    0.05000000    0.25999999
   19.66666603   84.97170258    0.05000000    0.25999999
   19.66972160   85.77050018    0.05000000    0.25999999
   19.67305565   81.31520081    0.05000000    0.25999999
   19.67416573   81.48329926    0.05000000    0.25999999
   19.67666626   83.76689911    0.05000000    0.25999999
   19.67972183   80.39569855    0.05000000    0.25999999
   19.68305397   78.44490051    0.05000000    0.25999999
   19.68610954   79.46910095    0.05000000    0.25999999
   19.68944359   81.10150146    0.05000000    0.25999999
   19.69277763   79.32330322    0.05000000    0.25999999
   19.69888878   79.32330322    0.05000000    0.25999999
   19.70277786   78.05560303    0.05000000    0.25999999
   19.70611191   78.97389984    0.05000000    0.25999999
   19.70750046   81.59539795    0.05000000    0.25999999
   19.71000099   82.32340240    0.05000000    0.25999999
   19.71305656   80.73049927    0.05000000    0.25999999
   19.71638870   81.34660339    0.05000000    0.25999999
   19.71944427   81.05390167    0.05000000    0.25999999
   19.72277832   84.97329712    0.05000000    0.25999999
   19.72611237   79.12409973    0.05000000    0.25999999
   19.72916794   83.59709930    0.05000000    0.25999999
   19.73250008   77.58280182    0.05000000    0.25999999
   19.73583412   82.27799988    0.05000000    0.25999999
   19.74166679   82.27799988    0.05000000    0.25999999
   19.74583435   82.74810028    0.05000000    0.25999999
   19.74888992   76.57929993    0.05000000    0.25999999
   19.75222206   78.79109955    0.05000000    0.25999999
   19.75555611   82.81079865    0.05000000    0.25999999
   19.75861168   81.70269775    0.05000000    0.25999999
   19.76194382   80.59660339    0.05000000    0.25999999
   19.76527786   81.51390076    0.05000000    0.25999999
   19.76833344   82.12629700    0.05000000    0.25999999
   19.77166557   82.38200378    0.05000000    0.25999999
   19.77444458   79.45510101    0.05000000    0.25999999
   19.79500008   79.45510101    0.05000000    0.25999999
   19.79916573   77.66919708    0.05000000    0.25999999
   19.80249977   81.39759827    0.05000000    0.25999999
   19.80555534   78.29750061    0.05000000    0.25999999
   19.80777740   79.95619965    0.05000000    0.25999999
   19.80944443   80.70929718    0.05000000    0.25999999
   19.81250000   77.63819885    0.05000000    0.25999999
   19.81583214   78.57959747    0.05000000    0.25999999
   19.81916809   77.47190094    0.05000000    0.25999999
   19.82222366   76.75830078    0.05000000    0.25999999
   19.82555580   77.71549988    0.05000000    0.25999999
   19.82861137   79.49009705    0.05000000    0.25999999
   19.83194542   77.72940063    0.05000000    0.25999999
   19.83777809   77.72940063    0.05000000    0.25999999
   19.84194565   77.84339905    0.05000000    0.25999999
   19.84527779   80.04930115    0.05000000    0.25999999
   19.84833336   75.10169983    0.05000000    0.25999999
   19.85166740   81.25109863    0.05000000    0.25999999
   19.85499954   78.85540009    0.05000000    0.25999999
   19.85805511   79.52760315    0.05000000    0.25999999
   19.86138916   75.98259735    0.05000000    0.25999999
   19.86444473   77.47239685    0.05000000    0.25999999
   19.86777878   82.05339813    0.05000000    0.25999999
   19.87111092   77.99140167    0.05000000    0.25999999
   19.87416649   80.91059875    0.05000000    0.25999999
   19.87472153   76.92189789    0.05000000    0.25999999
   19.88055611   76.92189789    0.05000000    0.25999999
   19.88472176   78.69049835    0.05000000    0.25999999
   19.88805580   77.84210205    0.05000000    0.25999999
   19.89138794   79.24099731    0.05000000    0.25999999
   19.89444351   77.49559784    0.05000000    0.25999999
   19.89777756   78.24829865    0.05000000    0.25999999
   19.90083313   77.52269745    0.05000000    0.25999999
   19.90416718   78.30210114    0.05000000    0.25999999
   19.90749931   79.28540039    0.05000000    0.25999999
   19.90805435   81.28230286    0.05000000    0.25999999
   19.91110992   79.20410156    0.05000000    0.25999999
   19.91416550   81.93240356    0.05000000    0.25999999
   19.91749954   77.57230377    0.05000000    0.25999999
   19.92361069   77.57230377    0.05000000    0.25999999
   19.92777634   77.34420013    0.05000000    0.25999999
   19.93083191   77.95600128    0.05000000    0.25999999
   19.93416595   76.19879913    0.05000000    0.25999999
   19.93722153   75.38420105    0.05000000    0.25999999
   19.94055557   77.36710358    0.05000000    0.25999999
   19.94138718   80.70850372    0.05000000    0.25999999
   19.94416618   77.46520233    0.05000000    0.25999999
   19.94722176   77.79810333    0.05000000    0.25999999
   19.95055580   80.49990082    0.05000000    0.25999999
   19.95388985   81.00240326    0.05000000    0.25999999
   19.95694542   77.35019684    0.05000000    0.25999999
   19.96027946   78.60810089    0.05000000    0.25999999
   19.96638870   78.60810089    0.05000000    0.25999999
   19.97055626   79.32209778    0.05000000    0.25999999
   19.97361183   78.50759888    0.05000000    0.25999999
   19.97472191   79.63800049    0.05000000    0.25999999
   19.97750092   79.32599640    0.05000000    0.25999999
   19.98083305   80.98079681    0.05000000    0.25999999
   19.98388863   78.25420380    0.05000000    0.25999999
   19.98722267   76.33989716    0.05000000    0.25999999
   19.99027824   76.30429840    0.05000000    0.25999999
   19.99361229   79.13330078    0.05000000    0.25999999
   19.99694443   80.53430176    0.05000000    0.25999999
   20.00000000   77.31510162    0.05000000    0.25999999
   20.00333405   77.75299835    0.05000000    0.25999999
   20.00916672   77.75299835    0.05000000    0.25999999
   20.01333427   76.86389923    0.05000000    0.25999999
   20.01666641   80.97679901    0.05000000    0.25999999
   20.01972198   80.66560364    0.05000000    0.25999999
   20.02305603   77.62259674    0.05000000    0.25999999
   20.02638817   77.44239807    0.05000000    0.25999999
   20.02944374   75.25800323    0.05000000    0.25999999
   20.03277779   80.97309875    0.05000000    0.25999999
   20.03583336   79.02999878    0.05000000    0.25999999
   20.03916550   80.84429932    0.05000000    0.25999999
   20.04138756   80.28679657    0.05000000    0.25999999
   20.04277802   77.66059875    0.05000000    0.25999999
   20.04611015   77.53949738    0.05000000    0.25999999
   20.05194283   77.53949738    0.05000000    0.25999999
   20.05611038   78.13020325    0.05000000    0.25999999
   20.05944443   76.39330292    0.05000000    0.25999999
   20.06277657   80.93109894    0.05000000    0.25999999
   20.06583214   81.87879944    0.05000000    0.25999999
   20.06916809   80.18319702    0.05000000    0.25999999
   20.07222366   77.15910339    0.05000000    0.25999999
   20.07472229   78.95659637    0.05000000    0.25999999
   20.07611275   79.00949860    0.05000000    0.25999999
   20.07944489   82.43350220    0.05000000    0.25999999
   20.08250046   79.29989624    0.05000000    0.25999999
   20.08583450   82.24800110    0.05000000    0.25999999
   20.08889008   80.06890106    0.05000000    0.25999999
   20.09500122   80.06890106    0.05000000    0.25999999
   20.09916687   79.31739807    0.05000000    0.25999999
   20.10222244   80.44450378    0.05000000    0.25999999
   20.10555649   77.80699921    0.05000000    0.25999999
   20.10805511   79.93329620    0.05000000    0.25999999
   20.10916710   82.97489929    0.05000000    0.25999999
   20.11250114   80.08270264    0.05000000    0.25999999
   20.11555672   81.81620026    0.05000000    0.25999999
   20.11888885   85.17449951    0.05000000    0.25999999
   20.12194443   89.11759949    0.05000000    0.25999999
   20.12527847   81.81790161    0.05000000    0.25999999
   20.12861061   79.80619812    0.05000000    0.25999999
   20.13166618   83.48390198    0.05000000    0.25999999
   20.13777733   83.48390198    0.05000000    0.25999999
   20.14194489   78.92810059    0.05000000    0.25999999
   20.14500046   78.72399902    0.05000000    0.25999999
   20.14833260   77.66670227    0.05000000    0.25999999
   20.15166664   80.22250366    0.05000000    0.25999999
   20.15472221   79.27799988    0.05000000    0.25999999
   20.15805435   77.94770050    0.05000000    0.25999999
   20.16110992   78.42700195    0.05000000    0.25999999
   20.16444397   79.07730103    0.05000000    0.25999999
   20.16777802   79.80629730    0.05000000    0.25999999
   20.17083359   78.92900085    0.05000000    0.25999999
   20.17416573   80.73580170    0.05000000    0.25999999
   20.17472076   81.38809967    0.05000000    0.25999999
   20.18055534   81.38809967    0.05000000    0.25999999
   20.18472099   77.78559875    0.05000000    0.25999999
   20.18805504   83.01930237    0.05000000    0.25999999
   20.19111061   82.04109955    0.05000000    0.25999999
   20.19444275   76.62760162    0.05000000    0.25999999
   20.19777679   82.45790100    0.05000000    0.25999999
   20.20083427   80.26069641    0.05000000    0.25999999
   20.20416832   76.70700073    0.05000000    0.25999999
   20.20722389   81.98329926    0.05000000    0.25999999
   20.20805550   79.90309906    0.05000000    0.25999999
   20.21083450   80.80429840    0.05000000    0.25999999
   20.21416664   82.67530060    0.05000000    0.25999999
   20.21722221   79.15080261    0.05000000    0.25999999
   20.22333336   79.15080261    0.05000000    0.25999999
   20.22750092   79.58509827    0.05000000    0.25999999
   20.23083305   83.38410187    0.05000000    0.25999999
   20.23416710   78.30760193    0.05000000    0.25999999
   20.23722267   81.36229706    0.05000000    0.25999999
   20.24055672   82.98729706    0.05000000    0.25999999
   20.24138832   79.79789734    0.05000000    0.25999999
   20.24416733   81.21820068    0.05000000    0.25999999
   20.24749947   79.15779877    0.05000000    0.25999999
   20.25055504   79.80149841    0.05000000    0.25999999
   20.25388908   80.86879730    0.05000000    0.25999999
   20.25722313   78.39499664    0.05000000    0.25999999
   20.26027870   76.73850250    0.05000000    0.25999999
   20.26638794   76.73850250    0.05000000    0.25999999
   20.27055550   76.02850342    0.05000000    0.25999999
   20.27361107   76.76000214    0.05000000    0.25999999
   20.27472115   81.79949951    0.05000000    0.25999999
   20.27722168   77.91629791    0.05000000    0.25999999
   20.28055573   77.43630219    0.05000000    0.25999999
   20.28361130   78.20320129    0.05000000    0.25999999
   20.28694344   80.01300049    0.05000000    0.25999999
   20.29027748   81.59619904    0.05000000    0.25999999
   20.29333305   81.90239716    0.05000000    0.25999999
   20.29666710   83.33409882    0.05000000    0.25999999
   20.29972076   79.60630035    0.05000000    0.25999999
   20.30305481   84.59770203    0.05000000    0.25999999
   20.30916595   84.59770203    0.05000000    0.25999999
   20.31333351   77.46700287    0.05000000    0.25999999
   20.31638718   80.53150177    0.05000000    0.25999999
   20.31972313   82.15100098    0.05000000    0.25999999
   20.32305717   79.01809692    0.05000000    0.25999999
   20.32611275   81.20330048    0.05000000    0.25999999
   20.32944489   79.79949951    0.05000000    0.25999999
   20.33277893   79.32299805    0.05000000    0.25999999
   20.33583450   79.36679840    0.05000000    0.25999999
   20.33916664   84.45089722    0.05000000    0.25999999
   20.34138870   82.89900208    0.05000000    0.25999999
   20.34277916   77.69319916    0.05000000    0.25999999
   20.34611130   82.07949829    0.05000000    0.25999999
   20.35194397   82.07949829    0.05000000    0.25999999
   20.35611153   83.49160004    0.05000000    0.25999999
   20.35944557   79.41860199    0.05000000    0.25999999
   20.36250114   79.36209869    0.05000000    0.25999999
   20.36583328   78.82839966    0.05000000    0.25999999
   20.36916733   80.69989777    0.05000000    0.25999999
   20.37222290   78.29759979    0.05000000    0.25999999
   20.37472153   81.42829895    0.05000000    0.25999999
   20.37583351   81.82749939    0.05000000    0.25999999
   20.37916756   77.66100311    0.05000000    0.25999999
   20.38222313   79.47440338    0.05000000    0.25999999
   20.38555527   82.81340027    0.05000000    0.25999999
   20.38888931   83.75969696    0.05000000    0.25999999
   20.39472198   83.75969696    0.05000000    0.25999999
   20.39888954   81.92089844    0.05000000    0.25999999
   20.40222168   80.77400208    0.05000000    0.25999999
   20.40555573   83.01360321    0.05000000    0.25999999
   20.40805435   81.03279877    0.05000000    0.25999999
   20.40916634   82.53099823    0.05000000    0.25999999
   20.41250038   78.66829681    0.05000000    0.25999999
   20.41555595   78.75199890    0.05000000    0.25999999
   20.41888809   80.06220245    0.05000000    0.25999999
   20.42222214   77.34719849    0.05000000    0.25999999
   20.42527771   79.10050201    0.05000000    0.25999999
   20.42860985   78.84629822    0.05000000    0.25999999
   20.43166542   80.20200348    0.05000000    0.25999999
   20.43777657   80.20200348    0.05000000    0.25999999
   20.44166565   82.21990204    0.05000000    0.25999999
   20.44499969   82.30039978    0.05000000    0.25999999
   20.44833183   82.06510162    0.05000000    0.25999999
   20.45138931   88.06130219    0.05000000    0.25999999
   20.45472336   80.67800140    0.05000000    0.25999999
   20.45805550   84.84829712    0.05000000    0.25999999
   20.46111107   82.81990051    0.05000000    0.25999999
   20.46444511   85.10649872    0.05000000    0.25999999
   20.46750069   78.84539795    0.05000000    0.25999999
   20.47083473   79.04949951    0.05000000    0.25999999
   20.47416687   82.71440125    0.05000000    0.25999999
   20.47472191   81.93640137    0.05000000    0.25999999
   20.48055649   81.93640137    0.05000000    0.25999999
   20.48472214   81.87229919    0.05000000    0.25999999
   20.48777771   84.24700165    0.05000000    0.25999999
   20.49111176   80.80349731    0.05000000    0.25999999
   20.49444389   81.23370361    0.05000000    0.25999999
   20.49777794   80.97540283    0.05000000    0.25999999
   20.50083351   83.30760193    0.05000000    0.25999999
   20.50416756   83.19129944    0.05000000    0.25999999
   20.50749969   80.66780090    0.05000000    0.25999999
   20.50805473   86.47399902    0.05000000    0.25999999
   20.51083374   82.29479980    0.05000000    0.25999999
   20.51416588   80.72830200    0.05000000    0.25999999
   20.51722145   82.66970062    0.05000000    0.25999999
   20.52333260   82.66970062    0.05000000    0.25999999
   20.52750015   86.22560120    0.05000000    0.25999999
   20.53083229   80.82399750    0.05000000    0.25999999
   20.53388786   78.65100098    0.05000000    0.25999999
   20.53722191   79.58119965    0.05000000    0.25999999
   20.54027748   82.47219849    0.05000000    0.25999999
   20.54138756   81.90019989    0.05000000    0.25999999
   20.54388809   78.01419830    0.05000000    0.25999999
   20.54722214  200.34399414    0.05000000    0.25999999
   20.55027771   82.27989960    0.05000000    0.25999999
   20.55360985   78.59819794    0.05000000    0.25999999
   20.55694389   80.21440125    0.05000000    0.25999999
   20.55999947   83.19470215    0.05000000    0.25999999
   20.56611061   83.19470215    0.05000000    0.25999999
   20.57027817   80.33609772    0.05000000    0.25999999
   20.57361221   78.17259979    0.05000000    0.25999999
   20.57500076   79.79730225    0.05000000    0.25999999
   20.57722282   81.43759918    0.05000000    0.25999999
   20.58055687   81.28829956    0.05000000    0.25999999
   20.58388901   82.00479889    0.05000000    0.25999999
   20.58694458   80.66950226    0.05000000    0.25999999
   20.59027863   84.03170013    0.05000000    0.25999999
   20.59361267   84.23179626    0.05000000    0.25999999
   20.59666824   81.73889923    0.05000000    0.25999999
   20.60000038   80.92060089    0.05000000    0.25999999
   20.60305595   85.59510040    0.05000000    0.25999999
   20.60916710   85.59510040    0.05000000    0.25999999
   20.61333466   84.93430328    0.05000000    0.25999999
   20.61638832   88.65090179    0.05000000    0.25999999
   20.61972237   82.02490234    0.05000000    0.25999999
   20.62277794   85.98349762    0.05000000    0.25999999
   20.62611198   83.18060303    0.05000000    0.25999999
   20.62944412   87.78659821    0.05000000    0.25999999
   20.63249969   84.64990234    0.05000000    0.25999999
   20.63583374   82.91510010    0.05000000    0.25999999
   20.63916588   84.78450012    0.05000000    0.25999999
   20.64166641   84.01860046    0.05000000    0.25999999
   20.64249992   87.59929657    0.05000000    0.25999999
   20.64583397   84.39080048    0.05000000    0.25999999
   20.65194321   84.39080048    0.05000000    0.25999999
   20.65611076   84.75800323    0.05000000    0.25999999
   20.65916634   82.32070160    0.05000000    0.25999999
   20.66250038   85.63770294    0.05000000    0.25999999
   20.66583252   82.55590057    0.05000000    0.25999999
   20.66916656   84.36450195    0.05000000    0.25999999
   20.67222214   84.04570007    0.05000000    0.25999999
   20.67499924   81.18360138    0.05000000    0.25999999
   20.67583275   86.49990082    0.05000000    0.25999999
   20.67916679   82.70410156    0.05000000    0.25999999
   20.68222237   82.07009888    0.05000000    0.25999999
   20.68555450   80.63870239    0.05000000    0.25999999
   20.68888855   84.99330139    0.05000000    0.25999999
   20.69472122   84.99330139    0.05000000    0.25999999
   20.69888878   85.71939850    0.05000000    0.25999999
   20.70222282   81.55139923    0.05000000    0.25999999
   20.70527840   85.18119812    0.05000000    0.25999999
   20.70833397   86.24240112    0.05000000    0.25999999
   20.70888901   87.97429657    0.05000000    0.25999999
   20.71222305   82.77140045    0.05000000    0.25999999
   20.71527863   80.74939728    0.05000000    0.25999999
   20.71861076   84.30319977    0.05000000    0.25999999
   20.72194481   83.40219879    0.05000000    0.25999999
   20.72500038   81.58329773    0.05000000    0.25999999
   20.72833443   83.26399994    0.05000000    0.25999999
   20.73166656   82.67610168    0.05000000    0.25999999
   20.73750114   82.67610168    0.05000000    0.25999999
   20.74166679   80.50869751    0.05000000    0.25999999
   20.74500084   83.84010315    0.05000000    0.25999999
   20.74833298   82.15579987    0.05000000    0.25999999
   20.75138855   80.56130219    0.05000000    0.25999999
   20.75472260   81.46369934    0.05000000    0.25999999
   20.75777817   80.71199799    0.05000000    0.25999999
   20.76111031   86.64910126    0.05000000    0.25999999
   20.76444435   80.63130188    0.05000000    0.25999999
   20.76749992   81.75029755    0.05000000    0.25999999
   20.77083397   82.03019714    0.05000000    0.25999999
   20.77416611   82.93199921    0.05000000    0.25999999
   20.77499962   81.05819702    0.05000000    0.25999999
   20.78055573   81.05819702    0.05000000    0.25999999
   20.78472137   83.50219727    0.05000000    0.25999999
   20.78777695   85.82089996    0.05000000    0.25999999
   20.79111099   87.87049866    0.05000000    0.25999999
   20.80861092   80.13520050    0.05000000    0.25999999
   20.81083298   83.51270294    0.05000000    0.25999999
   20.81416512   84.89320374    0.05000000    0.25999999
   20.81750107   82.93949890    0.05000000    0.25999999
   20.82333374   82.93949890    0.05000000    0.25999999
   20.82750130   80.43489838    0.05000000    0.25999999
   20.83083344   81.04579926    0.05000000    0.25999999
   20.83416748   86.51740265    0.05000000    0.25999999
   20.83722305   79.98449707    0.05000000    0.25999999
   20.84055710   88.05390167    0.05000000    0.25999999
   20.84166718   85.25009918    0.05000000    0.25999999
   20.84416771   84.19200134    0.05000000    0.25999999
   20.84749985   81.27850342    0.05000000    0.25999999
   20.85083389   81.97709656    0.05000000    0.25999999
   20.85388947   82.57070160    0.05000000    0.25999999
   20.85722351   82.60310364    0.05000000    0.25999999
   20.86055565   88.01460266    0.05000000    0.25999999
   20.86638832   88.01460266    0.05000000    0.25999999
   20.87055588   86.45680237    0.05000000    0.25999999
   20.87361145   82.34909821    0.05000000    0.25999999
   20.87500000   81.66390228    0.05000000    0.25999999
   20.87722206   83.43219757    0.05000000    0.25999999
   20.88055611   81.59140015    0.05000000    0.25999999
   20.88361168   81.52539825    0.05000000    0.25999999
   20.88694382   89.82479858    0.05000000    0.25999999
   20.89027786   83.52089691    0.05000000    0.25999999
   20.89333344   86.85900116    0.05000000    0.25999999
   20.89666748   91.18740082    0.05000000    0.25999999
   20.89999962   89.13249969    0.05000000    0.25999999
   20.90305519   82.20230103    0.05000000    0.25999999
   20.90916634   82.20230103    0.05000000    0.25999999
   20.91333389   84.88729858    0.05000000    0.25999999
   20.91638756   82.29239655    0.05000000    0.25999999
   20.92000008   82.79789734    0.05000000    0.25999999
   20.92305565   82.85230255    0.05000000    0.25999999
   20.92638779   82.11990356    0.05000000    0.25999999
   20.92972183   83.82499695    0.05000000    0.25999999
   20.93277740   79.91950226    0.05000000    0.25999999
   20.93610954   78.56369781    0.05000000    0.25999999
   20.93916512   83.24549866    0.05000000    0.25999999
   20.94194412   86.91799927    0.05000000    0.25999999
   20.94277763   82.93299866    0.05000000    0.25999999
   20.94610977   83.75640106    0.05000000    0.25999999
   20.95194435   83.75640106    0.05000000    0.25999999
   20.95611191   89.34700012    0.05000000    0.25999999
   20.95944595   84.88800049    0.05000000    0.25999999
   20.96250153   85.63849640    0.05000000    0.25999999
   20.96583366   82.97239685    0.05000000    0.25999999
   20.96916771   85.13909912    0.05000000    0.25999999
   20.97222328   82.56400299    0.05000000    0.25999999
   20.97527885   82.34660339    0.05000000    0.25999999
   20.97583389   83.38159943    0.05000000    0.25999999
   20.97916794   86.39649963    0.05000000    0.25999999
   20.98222351   81.14140320    0.05000000    0.25999999
   20.98555565   81.77670288    0.05000000    0.25999999
   20.98888969   85.05280304    0.05000000    0.25999999
   20.99472237   85.05280304    0.05000000    0.25999999
   20.99888992   82.15529633    0.05000000    0.25999999
   21.00222206   84.05699921    0.05000000    0.25999999
   21.00555611   83.92520142    0.05000000    0.25999999
   21.00861168   91.74859619    0.05000000    0.25999999
   21.00888824   83.81169891    0.05000000    0.25999999
   21.01222229   81.10240173    0.05000000    0.25999999
   21.01555634   81.44000244    0.05000000    0.25999999
   21.01861000   85.38059998    0.05000000    0.25999999
   21.02194405   87.05519867    0.05000000    0.25999999
   21.02527809   84.06469727    0.05000000    0.25999999
   21.02833366   82.96279907    0.05000000    0.25999999
   21.03166580   82.50379944    0.05000000    0.25999999
   21.03777695   82.50379944    0.05000000    0.25999999
   21.04194450   93.07289886    0.05000000    0.25999999
   21.04222107   87.62319946    0.05000000    0.25999999
   21.04555511   86.28749847    0.05000000    0.25999999
   21.04861069   83.15609741    0.05000000    0.25999999
   21.05194283   82.41819763    0.05000000    0.25999999
   21.05527687   84.80200195    0.05000000    0.25999999
   21.05833244   82.53739929    0.05000000    0.25999999
   21.06166649   82.28260040    0.05000000    0.25999999
   21.06499863   82.49430084    0.05000000    0.25999999
   21.06805611   83.89859772    0.05000000    0.25999999
   21.07139015   81.67040253    0.05000000    0.25999999
   21.07444572   86.29450226    0.05000000    0.25999999
   21.07527924   82.66780090    0.05000000    0.25999999
   21.08055687   82.66780090    0.05000000    0.25999999
   21.08472252   85.89330292    0.05000000    0.25999999
   21.08777809   82.99150085    0.05000000    0.25999999
   21.09111214   84.04029846    0.05000000    0.25999999
   21.09444427   82.74479675    0.05000000    0.25999999
   21.09749985   82.62960052    0.05000000    0.25999999
   21.10083389   78.58899689    0.05000000    0.25999999
   21.10416794   80.56109619    0.05000000    0.25999999
   21.10722351   81.53430176    0.05000000    0.25999999
   21.10861206   81.69950104    0.05000000    0.25999999
   21.11083412   84.57499695    0.05000000    0.25999999
   21.11416626   86.11900330    0.05000000    0.25999999
   21.11750031   81.66059875    0.05000000    0.25999999
   21.12333298   81.66059875    0.05000000    0.25999999
   21.12750053   83.35459900    0.05000000    0.25999999
   21.13083267   81.02559662    0.05000000    0.25999999
   21.13388824   80.65350342    0.05000000    0.25999999
   21.13722229   81.20220184    0.05000000    0.25999999
   21.14055634   79.29930115    0.05000000    0.25999999
   21.14194489   83.93000031    0.05000000    0.25999999
   21.14388847   80.10320282    0.05000000    0.25999999
   21.14722252   78.94349670    0.05000000    0.25999999
   21.15055466   85.38569641    0.05000000    0.25999999
   21.15361023   82.98660278    0.05000000    0.25999999
   21.15694427   84.76550293    0.05000000    0.25999999
   21.15999985   84.89389801    0.05000000    0.25999999
   21.16611099   84.89389801    0.05000000    0.25999999
   21.17027664   88.28510284    0.05000000    0.25999999
   21.17361069   83.55979919    0.05000000    0.25999999
   21.17527771   84.81649780    0.05000000    0.25999999
   21.17722130   86.93530273    0.05000000    0.25999999
   21.18055534   88.04340363    0.05000000    0.25999999
   21.18388748   85.24900055    0.05000000    0.25999999
   21.18694305   85.68920135    0.05000000    0.25999999
   21.19027710   85.21420288    0.05000000    0.25999999
   21.19333267   85.42949677    0.05000000    0.25999999
   21.19666672   86.00389862    0.05000000    0.25999999
   21.20000076   82.83119965    0.05000000    0.25999999
   21.20305634   87.03289795    0.05000000    0.25999999
   21.20916748   87.03289795    0.05000000    0.25999999
   21.21333504   84.72170258    0.05000000    0.25999999
   21.21638870   83.60089874    0.05000000    0.25999999
   21.21972275   85.41239929    0.05000000    0.25999999
   21.22277832   86.49569702    0.05000000    0.25999999
   21.22611237   86.39489746    0.05000000    0.25999999
   21.22944450   84.20359802    0.05000000    0.25999999
   21.23250008   83.43630219    0.05000000    0.25999999
   21.23583412   82.85970306    0.05000000    0.25999999
   21.23916626   84.88009644    0.05000000    0.25999999
   21.24194527   84.34639740    0.05000000    0.25999999
   21.24250031   86.82080078    0.05000000    0.25999999
   21.24583435   83.02600098    0.05000000    0.25999999
   21.25194359   83.02600098    0.05000000    0.25999999
   21.25611115   82.01010132    0.05000000    0.25999999
   21.25916672   84.39420319    0.05000000    0.25999999
   21.26250076   83.56649780    0.05000000    0.25999999
   21.26583290   85.35459900    0.05000000    0.25999999
   21.26888847   86.05809784    0.05000000    0.25999999
   21.27222252   86.01370239    0.05000000    0.25999999
   21.27527809   79.03119659    0.05000000    0.25999999
   21.27583313   80.87740326    0.05000000    0.25999999
   21.27916718   79.54599762    0.05000000    0.25999999
   21.28249931   86.71019745    0.05000000    0.25999999
   21.28555489   79.67099762    0.05000000    0.25999999
   21.28888893   85.35959625    0.05000000    0.25999999
   21.29472160   85.35959625    0.05000000    0.25999999
   21.29888916   84.17240143    0.05000000    0.25999999
   21.30222130   80.98320007    0.05000000    0.25999999
   21.30527687   85.10179901    0.05000000    0.25999999
   21.30861092   90.33309937    0.05000000    0.25999999
   21.30888748   85.20179749    0.05000000    0.25999999
   21.31222153   82.20040131    0.05000000    0.25999999
   21.31555557   83.95420074    0.05000000    0.25999999
   21.31861115   91.82199860    0.05000000    0.25999999
   21.32194519   82.39009857    0.05000000    0.25999999
   21.32500076   87.33429718    0.05000000    0.25999999
   21.32833481   87.69760132    0.05000000    0.25999999
   21.33166695   86.82559967    0.05000000    0.25999999
   21.33750153   86.82559967    0.05000000    0.25999999
   21.34166718   85.86000061    0.05000000    0.25999999
   21.34222221   82.87799835    0.05000000    0.25999999
   21.34555626   84.80699921    0.05000000    0.25999999
   21.34861183   79.80690002    0.05000000    0.25999999
   21.35194397   84.71279907    0.05000000    0.25999999
   21.35527802   83.87180328    0.05000000    0.25999999
   21.35833359   83.49320221    0.05000000    0.25999999
   21.36166763   85.09239960    0.05000000    0.25999999
   21.36472321   86.71779633    0.05000000    0.25999999
   21.36805534   83.30650330    0.05000000    0.25999999
   21.37138939   88.82489777    0.05000000    0.25999999
   21.37444496   85.71170044    0.05000000    0.25999999
   21.37555504   82.65190125    0.05000000    0.25999999
   21.38055611   82.65190125    0.05000000    0.25999999
   21.38444519   89.11340332    0.05000000    0.25999999
   21.38777733   84.50469971    0.05000000    0.25999999
   21.39111137   84.94629669    0.05000000    0.25999999
   21.39416695   83.72360229    0.05000000    0.25999999
   21.39749908   84.66870117    0.05000000    0.25999999
   21.40083313   80.68920135    0.05000000    0.25999999
   21.40388870   80.58239746    0.05000000    0.25999999
   21.40722275   83.71350098    0.05000000    0.25999999
   21.40888786   82.45850372    0.05000000    0.25999999
   21.41083336   81.98090363    0.05000000    0.25999999
   21.41388893   84.85009766    0.05000000    0.25999999
   21.41722107   82.47879791    0.05000000    0.25999999
   21.42333221   82.47879791    0.05000000    0.25999999
   21.42749977   88.92169952    0.05000000    0.25999999
   21.43055534   85.92120361    0.05000000    0.25999999
   21.43388748   87.36280060    0.05000000    0.25999999
   21.43722153   85.57599640    0.05000000    0.25999999
   21.44027710   87.14589691    0.05000000    0.25999999
   21.44222069   86.75810242    0.05000000    0.25999999
   21.44388771   82.12940216    0.05000000    0.25999999
   21.44694328   86.66809845    0.05000000    0.25999999
   21.45027924   83.84269714    0.05000000    0.25999999
   21.45361137   85.00910187    0.05000000    0.25999999
   21.45666695   87.33809662    0.05000000    0.25999999
   21.46000099   84.33000183    0.05000000    0.25999999
   21.46611214   84.33000183    0.05000000    0.25999999
   21.47027779   76.49109650    0.05000000    0.25999999
   21.47361183   85.17669678    0.05000000    0.25999999
   21.47555542   82.28009796    0.05000000    0.25999999
   21.47722244   82.11630249    0.05000000    0.25999999
   21.48055649   80.87779999    0.05000000    0.25999999
   21.48361206   87.54869843    0.05000000    0.25999999
   21.48694420   83.66210175    0.05000000    0.25999999
   21.48999977   82.60310364    0.05000000    0.25999999
   21.49333382   86.45210266    0.05000000    0.25999999
   21.49666786   86.22280121    0.05000000    0.25999999
   21.49972153   87.27619934    0.05000000    0.25999999
   21.50305557   83.87770081    0.05000000    0.25999999
   21.50888824   83.87770081    0.05000000    0.25999999
   21.51305580   86.51020050    0.05000000    0.25999999
   21.51638794   82.99269867    0.05000000    0.25999999
   21.51944351   88.67630005    0.05000000    0.25999999
   21.52277756   83.73020172    0.05000000    0.25999999
   21.52611160   84.12779999    0.05000000    0.25999999
   21.52916718   82.25879669    0.05000000    0.25999999
   21.53249931   85.21839905    0.05000000    0.25999999
   21.53583336   81.54479980    0.05000000    0.25999999
   21.53888893   83.09649658    0.05000000    0.25999999
   21.54222107   85.20469666    0.05000000    0.25999999
   21.54277802   82.19899750    0.05000000    0.25999999
   21.54583359   85.31310272    0.05000000    0.25999999
   21.55194283   85.31310272    0.05000000    0.25999999
   21.55611038   85.46469879    0.05000000    0.25999999
   21.55916595   88.12680054    0.05000000    0.25999999
   21.56250000   84.03459930    0.05000000    0.25999999
   21.56555557   86.93859863    0.05000000    0.25999999
   21.56888962   84.91660309    0.05000000    0.25999999
   21.57222366   84.88459778    0.05000000    0.25999999
   21.57527924   86.59130096    0.05000000    0.25999999
   21.57611275   81.50460052    0.05000000    0.25999999
   21.57888985   82.18530273    0.05000000    0.25999999
   21.58222389   87.42220306    0.05000000    0.25999999
   21.58555603   81.39009857    0.05000000    0.25999999
   21.58861160   86.60099792    0.05000000    0.25999999
   21.59472275   86.60099792    0.05000000    0.25999999
   21.59889030   85.18679810    0.05000000    0.25999999
   21.60194397   80.41880035    0.05000000    0.25999999
   21.60527802   85.14820099    0.05000000    0.25999999
   21.60861206   81.76799774    0.05000000    0.25999999
   21.60944557   83.61450195    0.05000000    0.25999999
   21.61194420   81.22550201    0.05000000    0.25999999
   21.61527824   86.41790009    0.05000000    0.25999999
   21.61861038   86.55130005    0.05000000    0.25999999
   21.62166595   85.74839783    0.05000000    0.25999999
   21.62500000   90.47080231    0.05000000    0.25999999
   21.62833405   86.27729797    0.05000000    0.25999999
   21.63138962   83.08930206    0.05000000    0.25999999
   21.63750076   83.08930206    0.05000000    0.25999999
   21.64166641   92.39129639    0.05000000    0.25999999
   21.64277840   80.64070129    0.05000000    0.25999999
   21.64527702   84.81590271    0.05000000    0.25999999
   21.64861107   86.32800293    0.05000000    0.25999999
   21.65194321   86.97239685    0.05000000    0.25999999
   21.65499878   86.50430298    0.05000000    0.25999999
   21.65833282   85.78569794    0.05000000    0.25999999
   21.66166687   85.83360291    0.05000000    0.25999999
   21.66472244   86.13020325    0.05000000    0.25999999
   21.66805458   86.24459839    0.05000000    0.25999999
   21.67111015   83.64129639    0.05000000    0.25999999
   21.67444420   86.22830200    0.05000000    0.25999999
   21.67611122   84.88430023    0.05000000    0.25999999
   21.68027687   84.88430023    0.05000000    0.25999999
   21.68444443   86.52809906    0.05000000    0.25999999
   21.68777657   87.02420044    0.05000000    0.25999999
   21.69083214   87.76339722    0.05000000    0.25999999
   21.69416618   84.03810120    0.05000000    0.25999999
   21.69749832   82.61270142    0.05000000    0.25999999
   21.70083427   86.32379913    0.05000000    0.25999999
   21.70388985   88.00070190    0.05000000    0.25999999
   21.70722389   87.63849640    0.05000000    0.25999999
   21.70944595   85.88240051    0.05000000    0.25999999
   21.71083450   87.59079742    0.05000000    0.25999999
   21.71416664   88.31020355    0.05000000    0.25999999
   21.71750069   85.44580078    0.05000000    0.25999999
   21.72333336   85.44580078    0.05000000    0.25999999
   21.72722244   88.68319702    0.05000000    0.25999999
   21.73055649   89.45939636    0.05000000    0.25999999
   21.73388863   88.97280121    0.05000000    0.25999999
   21.73694420   82.16719818    0.05000000    0.25999999
   21.74027824   91.81819916    0.05000000    0.25999999
   21.74277878   86.76879883    0.05000000    0.25999999
   21.74388885   84.30130005    0.05000000    0.25999999
   21.74722290   87.51570129    0.05000000    0.25999999
   21.75055504   84.87660217    0.05000000    0.25999999
   21.75361061   86.19969940    0.05000000    0.25999999
   21.75694466   89.35549927    0.05000000    0.25999999
   21.76027870   89.41200256    0.05000000    0.25999999
   21.76611137   89.41200256    0.05000000    0.25999999
   21.77027702   85.78659821    0.05000000    0.25999999
   21.77333260   86.22200012    0.05000000    0.25999999
   21.77611160   86.61550140    0.05000000    0.25999999
   21.77694511   88.62100220    0.05000000    0.25999999
   21.78027725   85.72180176    0.05000000    0.25999999
   21.78361130   87.85489655    0.05000000    0.25999999
   21.78666687   80.83840179    0.05000000    0.25999999
   21.78999901   86.20079803    0.05000000    0.25999999
   21.79333305   85.06379700    0.05000000    0.25999999
   21.79638863   81.62129974    0.05000000    0.25999999
   21.79972076   83.86530304    0.05000000    0.25999999
   21.80277634   84.21749878    0.05000000    0.25999999
   21.80888748   84.21749878    0.05000000    0.25999999
   21.82722282   88.15380096    0.05000000    0.25999999
   21.83055687   88.33779907    0.05000000    0.25999999
   21.83361244   84.51129913    0.05000000    0.25999999
   21.83694458   83.41310120    0.05000000    0.25999999
   21.84027863   84.78679657    0.05000000    0.25999999
   21.84333420   87.14520264    0.05000000    0.25999999
   21.84666824   85.79620361    0.05000000    0.25999999
   21.85194397   85.79620361    0.05000000    0.25999999
   21.85611153   87.58619690    0.05000000    0.25999999
   21.85944557   86.85569763    0.05000000    0.25999999
   21.86027908   85.44259644    0.05000000    0.25999999
   21.86305618   89.79509735    0.05000000    0.25999999
   21.86611176   90.00820160    0.05000000    0.25999999
   21.86944389   88.50330353    0.05000000    0.25999999
   21.87277794   88.61910248    0.05000000    0.25999999
   21.87583351   87.21720123    0.05000000    0.25999999
   21.87916756   89.39260101    0.05000000    0.25999999
   21.88249969   88.78240204    0.05000000    0.25999999
   21.88555527   88.56510162    0.05000000    0.25999999
   21.88888931   87.86650085    0.05000000    0.25999999
   21.89472198   87.86650085    0.05000000    0.25999999
   21.89888954   90.66089630    0.05000000    0.25999999
   21.90222168   88.10710144    0.05000000    0.25999999
   21.90527725   90.69499969    0.05000000    0.25999999
   21.90861130   94.39959717    0.05000000    0.25999999
   21.91194344   86.40899658    0.05000000    0.25999999
   21.91499901   91.78330231    0.05000000    0.25999999
   21.91833305   85.50229645    0.05000000    0.25999999
   21.92166519   89.38410187    0.05000000    0.25999999
   21.92472076   88.36889648    0.05000000    0.25999999
   21.92694473   92.14270020    0.05000000    0.25999999
   21.92833328   93.67430115    0.05000000    0.25999999
   21.93138885   89.35569763    0.05000000    0.25999999
   21.93777657   89.35569763    0.05000000    0.25999999
   21.94166565   91.32350159    0.05000000    0.25999999
   21.94499969   94.11109924    0.05000000    0.25999999
   21.94833183   91.65509796    0.05000000    0.25999999
   21.95138931   92.13770294    0.05000000    0.25999999
   21.95472336   95.47889709    0.05000000    0.25999999
   21.95805550   88.95829773    0.05000000    0.25999999
   21.96027946   92.98130035    0.05000000    0.25999999
   21.96166801   91.53279877    0.05000000    0.25999999
   21.96472359   94.83910370    0.05000000    0.25999999
   21.96805573   88.02960205    0.05000000    0.25999999
   21.97138977   95.46939850    0.05000000    0.25999999
   21.97444534   94.90899658    0.05000000    0.25999999
   21.98055649   94.90899658    0.05000000    0.25999999
   21.98472214   95.00789642    0.05000000    0.25999999
   21.98777771   93.46479797    0.05000000    0.25999999
   21.99111176   90.15670013    0.05000000    0.25999999
   21.99361229   93.39959717    0.05000000    0.25999999
   21.99472237   89.46389771    0.05000000    0.25999999
   21.99777794   92.83399963    0.05000000    0.25999999
   22.00111198   92.66709900    0.05000000    0.25999999
   22.00444412   89.99030304    0.05000000    0.25999999
   22.00749969   89.92839813    0.05000000    0.25999999
   22.01083374   90.39050293    0.05000000    0.25999999
   22.01416588   92.61579895    0.05000000    0.25999999
   22.01722145   89.79190063    0.05000000    0.25999999
   22.02333260   89.79190063    0.05000000    0.25999999
   22.02750015   92.13020325    0.05000000    0.25999999
   22.03055573   91.73609924    0.05000000    0.25999999
   22.03388786   99.25930023    0.05000000    0.25999999
   22.03722191   89.09619904    0.05000000    0.25999999
   22.04027748   94.85350037    0.05000000    0.25999999
   22.04361153   89.99929810    0.05000000    0.25999999
   22.04694366   92.41320038    0.05000000    0.25999999
   22.04999924   91.92970276    0.05000000    0.25999999
   22.05333328   92.93430328    0.05000000    0.25999999
   22.05638885   95.92980194    0.05000000    0.25999999
   22.05972099   95.78769684    0.05000000    0.25999999
   22.06027794   94.72029877    0.05000000    0.25999999
   22.06611061   94.72029877    0.05000000    0.25999999
   22.07027817   95.25749969    0.05000000    0.25999999
   22.07361221   92.07820129    0.05000000    0.25999999
   22.07666779   90.78589630    0.05000000    0.25999999
   22.08000183   91.74859619    0.05000000    0.25999999
   22.08333397   90.83699799    0.05000000    0.25999999
   22.08638954   96.09490204    0.05000000    0.25999999
   22.08972359   91.50330353    0.05000000    0.25999999
   22.09305573   95.88330078    0.05000000    0.25999999
   22.09361267   93.32890320    0.05000000    0.25999999
   22.09666824   97.50679779    0.05000000    0.25999999
   22.10000038   94.15190125    0.05000000    0.25999999
   22.10305595   90.23280334    0.05000000    0.25999999
   22.10916710   90.23280334    0.05000000    0.25999999
   22.11305618   97.18060303    0.05000000    0.25999999
   22.11638832   93.38099670    0.05000000    0.25999999
   22.11972237   90.09120178    0.05000000    0.25999999
   22.12277794   91.48470306    0.05000000    0.25999999
   22.12611198   93.50980377    0.05000000    0.25999999
   22.12694550   92.40460205    0.05000000    0.25999999
   22.12972260   94.97080231    0.05000000    0.25999999
   22.13305473   90.47429657    0.05000000    0.25999999
   22.13611031   92.39070129    0.05000000    0.25999999
   22.13944435   93.39369965    0.05000000    0.25999999
   22.14249992   95.51509857    0.05000000    0.25999999
   22.14583397   88.17150116    0.05000000    0.25999999
   22.15194321   88.17150116    0.05000000    0.25999999
   22.15611076   98.92060089    0.05000000    0.25999999
   22.15916634   90.34739685    0.05000000    0.25999999
   22.16027832   92.44889832    0.05000000    0.25999999
   22.16277695   94.81780243    0.05000000    0.25999999
   22.16611099   89.37110138    0.05000000    0.25999999
   22.16916656   92.12490082    0.05000000    0.25999999
   22.17249870   89.88580322    0.05000000    0.25999999
   22.17555428   97.57119751    0.05000000    0.25999999
   22.17888832   91.15029907    0.05000000    0.25999999
   22.18222237   99.32360077    0.05000000    0.25999999
   22.18527603   95.42400360    0.05000000    0.25999999
   22.18861008   97.69309998    0.05000000    0.25999999
   22.19472122   97.69309998    0.05000000    0.25999999
   22.19888878   92.84770203    0.05000000    0.25999999
   22.20222282   96.18049622    0.05000000    0.25999999
   22.20527840   97.46160126    0.05000000    0.25999999
   22.20861244  102.34799957    0.05000000    0.25999999
   22.21166801   97.90560150    0.05000000    0.25999999
   22.21500015   95.65470123    0.05000000    0.25999999
   22.21833420   98.10600281    0.05000000    0.25999999
   22.22166634   96.68209839    0.05000000    0.25999999
   22.22472191   91.77989960    0.05000000    0.25999999
   22.22694588  100.75000000    0.05000000    0.25999999
   22.22833443  101.50700378    0.05000000    0.25999999
   22.23166656   99.45850372    0.05000000    0.25999999
   22.23750114   99.45850372    0.05000000    0.25999999
   22.24166679   96.15799713    0.05000000    0.25999999
   22.24500084   95.19680023    0.05000000    0.25999999
   22.24805641   97.11329651    0.05000000    0.25999999
   22.25138855   97.88249969    0.05000000    0.25999999
   22.25472260   94.98829651    0.05000000    0.25999999
   22.25777817   97.31400299    0.05000000    0.25999999
   22.26027870  100.75299835    0.05000000    0.25999999
   22.26138878   92.82640076    0.05000000    0.25999999
   22.26472282   97.38320160    0.05000000    0.25999999
   22.26777840   95.37349701    0.05000000    0.25999999
   22.27111053   94.48169708    0.05000000    0.25999999
   22.27416611   96.76519775    0.05000000    0.25999999
   22.28055573   96.76519775    0.05000000    0.25999999
   22.28444481   99.82599640    0.05000000    0.25999999
   22.28777695   97.23650360    0.05000000    0.25999999
   22.29111099   96.57430267    0.05000000    0.25999999
   22.29361153   95.60679626    0.05000000    0.25999999
   22.29472160  102.27200317    0.05000000    0.25999999
   22.29805565   98.79229736    0.05000000    0.25999999
   22.30111122  118.45500183    0.05000000    0.25999999
   22.30444336  148.16099548    0.05000000    0.25999999
   22.30777740  174.21899414    0.05000000    0.25999999
   22.31083298  236.22500610    0.05000000    0.25999999
   22.31416512  259.42001343    0.05000000    0.25999999
   22.31722260  273.02398682    0.05000000    0.25999999
   22.32333374  273.02398682    0.05000000    0.25999999
   22.32750130   -1.00000000    0.05000000    0.25999999
   22.33055687   -1.00000000    0.05000000    0.25999999
   22.33388901   -1.00000000    0.05000000    0.25999999
   22.33694458   -1.00000000    0.05000000    0.25999999
   22.34027863   -1.00000000    0.05000000    0.25999999
   22.34361267   -1.00000000    0.05000000    0.25999999
   22.34666824   -1.00000000    0.05000000    0.25999999
   22.35000038   -1.00000000    0.05000000    0.25999999
   22.35333443   -1.00000000    0.05000000    0.25999999
   22.35639000   -1.00000000    0.05000000    0.25999999
   22.35972214   -1.00000000    0.05000000    0.25999999
   22.37027740   -1.00000000    0.05000000    0.25999999
   22.37333298   -1.00000000    0.05000000    0.25999999
   22.37666702   -1.00000000    0.05000000    0.25999999
   22.38000107   -1.00000000    0.05000000    0.25999999
   22.38305473   -1.00000000    0.05000000    0.25999999
   22.38638878   -1.00000000    0.05000000    0.25999999
   22.38944435   -1.00000000    0.05000000    0.25999999
   22.39277840   -1.00000000    0.05000000    0.25999999
   22.39638901   -1.00000000    0.05000000    0.25999999
   22.39944458   -1.00000000    0.05000000    0.25999999
   22.40277672   -1.00000000    0.05000000    0.25999999
   22.41305542   -1.00000000    0.05000000    0.25999999
   22.41638756   -1.00000000    0.05000000    0.25999999
   22.41944313   -1.00000000    0.05000000    0.25999999
   22.42277718   -1.00000000    0.05000000    0.25999999
   22.42583275   -1.00000000    0.05000000    0.25999999
   22.42972183   -1.00000000    0.05000000    0.25999999
   22.43277740   -1.00000000    0.05000000    0.25999999
   22.43610954   -1.00000000    0.05000000    0.25999999
   22.43944359   -1.00000000    0.05000000    0.25999999
   22.44249916   -1.00000000    0.05000000    0.25999999
   22.44583321   -1.00000000    0.05000000    0.25999999
   22.45583344   -1.00000000    0.05000000    0.25999999
   22.45916748   -1.00000000    0.05000000    0.25999999
   22.46277809   -1.00000000    0.05000000    0.25999999
   22.46583366   -1.00000000    0.05000000    0.25999999
   22.46916771   -1.00000000    0.05000000    0.25999999
   22.47249985   -1.00000000    0.05000000    0.25999999
   22.47555542   -1.00000000    0.05000000    0.25999999
   22.47888947   -1.00000000    0.05000000    0.25999999
   22.48222351   -1.00000000    0.05000000    0.25999999
   22.48527718   -1.00000000    0.05000000    0.25999999
   22.48861122   -1.00000000    0.05000000    0.25999999
   22.49861145   -1.00000000    0.05000000    0.25999999
   22.50194359   -1.00000000    0.05000000    0.25999999
   22.50527763   -1.00000000    0.05000000    0.25999999
   22.50833321   -1.00000000    0.05000000    0.25999999
   22.51166725   -1.00000000    0.05000000    0.25999999
   22.51499939   -1.00000000    0.05000000    0.25999999
   22.51805496   -1.00000000    0.05000000    0.25999999
   22.52138901   -1.00000000    0.05000000    0.25999999
   22.52444458   -1.00000000    0.05000000    0.25999999
   22.52833366   -1.00000000    0.05000000    0.25999999
   22.53138924   -1.00000000    0.05000000    0.25999999
   22.54166603   -1.00000000    0.05000000    0.25999999
   22.54472160   -1.00000000    0.05000000    0.25999999
   22.54805565   -1.00000000    0.05000000    0.25999999
