    HOUR (UT)   FLARE FACTOR    SKY TESTER    SUN TESTER
   11.19250011   -1.00000000   -1.00000000   -1.00000000
   11.21416664  139.48500061    1.09000003    2.30999994
   11.21722221  133.34399414    1.09000003    2.30999994
   11.22055531  110.41400146    1.09000003    2.30999994
   11.22388840  125.55400085    1.09000003    2.30999994
   11.22722149  134.19099426    1.09000003    2.30999994
   11.23166656  140.75599670    1.09000003    2.32999992
   11.23500061  129.25700378    1.09000003    2.30999994
   11.23833370  134.72900391    1.09000003    2.30999994
   11.24138927  135.04800415    1.09000003    2.30999994
   11.24472237  140.16900635    1.09000003    2.30999994
   11.24722290  139.86900330    1.09000003    2.30999994
   11.24833393  132.79100037    1.09000003    2.30999994
   11.25166702  140.79600525    1.09000003    2.32999992
   11.25472260  135.46099854    1.09000003    2.32999992
   11.25833321  138.88400269    1.09000003    2.32999992
   11.26166630  146.97500610    1.09000003    2.32999992
   11.26472187  143.80999756    1.09000003    2.32999992
   11.26805496  134.79400635    1.09000003    2.32999992
   11.27111053  139.64799500    1.09000003    2.32999992
   11.27444458  142.32600403    1.07000005    2.32999992
   11.27777767  135.81700134    1.07000005    2.32999992
   11.28055573  131.48500061    1.07000005    2.32999992
   11.28138828  143.54400635    1.07000005    2.32999992
   11.28472233  151.04299927    1.07000005    2.32999992
   11.28777790  134.97900391    1.07000005    2.32999992
   11.29111195  141.93099976    1.07000005    2.32999992
   11.29416752  132.25799561    1.05999994    2.32999992
   11.29750061  142.77499390    1.05999994    2.32999992
   11.30083370  137.43299866    1.05999994    2.34999990
   11.30388927  132.65499878    1.05999994    2.34999990
   11.30722237  127.87400055    1.05999994    2.34999990
   11.31055546  138.11599731    1.05999994    2.34999990
   11.31361103  131.97999573    1.05999994    2.34999990
   11.31416702  140.49600220    1.05999994    2.34999990
   11.31750011  138.36399841    1.05999994    2.34999990
   11.32055569  137.34300232    1.03999996    2.34999990
   11.32388878  144.22999573    1.05999994    2.34999990
   11.32722187  144.35899353    1.05999994    2.34999990
   11.33027744  138.52699280    1.03999996    2.36999989
   11.33361053  141.96299744    1.03999996    2.34999990
   11.33666611  137.00100708    1.03999996    2.36999989
   11.34000015  132.05599976    1.05999994    2.34999990
   11.34333324  126.88999939    1.03999996    2.34999990
   11.34638882  138.69900513    1.03999996    2.36999989
   11.34749985  120.24199677    1.03999996    2.36999989
   11.35027790  124.96800232    1.03999996    2.36999989
   11.35361195  130.38699341    1.05999994    2.36999989
   11.35666752  131.39500427    1.03999996    2.36999989
   11.36000061  126.08100128    1.03999996    2.36999989
   11.36305618  138.21400452    1.03999996    2.36999989
   11.36638927  138.78799438    1.03999996    2.36999989
   11.36972237  140.16000366    1.03999996    2.36999989
   11.37277794  123.42900085    1.03999996    2.36999989
   11.37611103  139.28799438    1.03999996    2.36999989
   11.37944412  128.33700562    1.01999998    2.36999989
   11.38083363  122.05500031    1.01999998    2.36999989
   11.38305569  128.23800659    1.01999998    2.36999989
   11.38611126  120.10500336    1.01999998    2.39000010
   11.38944435  122.45899963    1.01999998    2.36999989
   11.39277744  119.40699768    1.01999998    2.36999989
   11.39583302  121.56600189    1.01999998    2.36999989
   11.39916611  129.28599548    1.03999996    2.36999989
   11.40249920  129.89300537    1.01999998    2.39000010
   11.40555477  130.74600220    1.03999996    2.39000010
   11.40888882  122.95200348    1.01999998    2.39000010
   11.41194439  120.12699890    1.01999998    2.39000010
   11.41416645  128.44700623    1.01999998    2.39000010
   11.41583252  133.61300659    1.01999998    2.39000010
   11.41888905  128.40899658    1.03999996    2.39000010
   11.42222214  126.48999786    1.01999998    2.39000010
   11.42555618  126.74500275    1.01999998    2.39000010
   11.42861176  133.71299744    1.01999998    2.39000010
   11.43194485  117.82099915    1.01999998    2.39000010
   11.43500042  111.58799744    1.01999998    2.39000010
   11.43833351  129.05200195    1.01999998    2.40000010
   11.44166660  121.43499756    1.01999998    2.39000010
   11.44472218  118.69499969    1.01999998    2.39000010
   11.44750023  131.93200684    1.01999998    2.39000010
   11.44861126  123.08200073    1.01999998    2.39000010
   11.45166683  117.83699799    1.01999998    2.39000010
   11.45499992  123.54000092    1.01999998    2.39000010
   11.45833302  121.91000366    1.01999998    2.39000010
   11.46138859  123.65200043    1.00000000    2.39000010
   11.46472168  133.95399475    1.00000000    2.40000010
   11.46805477  121.22899628    1.00000000    2.39000010
   11.47111034  113.12300110    1.00000000    2.39000010
   11.47444439  124.76499939    0.98000002    2.40000010
   11.47749996  135.97000122    1.00000000    2.40000010
   11.48083305  112.06300354    0.98000002    2.42000008
   11.48138809  127.53299713    0.98000002    2.42000008
   11.48444462  131.19700623    0.95999998    2.40000010
   11.48777771  125.32299805    0.95999998    2.42000008
   11.49111176  122.38899994    0.95999998    2.42000008
   11.49416733  132.99499512    0.95999998    2.42000008
   11.49750042  124.33300018    0.95999998    2.40000010
   11.50083351  119.82800293    0.98000002    2.42000008
   11.50388908  117.25000000    0.95999998    2.42000008
   11.50722218  122.53900146    0.95999998    2.42000008
   11.51027775  129.98500061    0.98000002    2.42000008
   11.51361084  135.20799255    0.98000002    2.42000008
   11.51416683  131.94299316    0.98000002    2.42000008
   11.51722240  124.16500092    0.95999998    2.42000008
   11.52027798  123.45300293    0.95999998    2.42000008
   11.52361107  121.27799988    0.95999998    2.44000006
   11.52694416  118.99099731    0.94000000    2.42000008
   11.52999973  130.88499451    0.94000000    2.42000008
   11.53333378  127.32800293    0.95999998    2.42000008
   11.53666687  114.98899841    0.94000000    2.44000006
   11.53972244  120.58399963    0.94000000    2.44000006
   11.54305553  126.02600098    0.94000000    2.44000006
   11.54638958  124.73799896    0.94000000    2.42000008
   11.54750061  122.02300262    0.94000000    2.42000008
   11.55000019  124.77899933    0.94000000    2.44000006
   11.55305576  123.29900360    0.94000000    2.44000006
   11.55638885  133.98500061    0.94000000    2.44000006
   11.55972195  113.34799957    0.94000000    2.44000006
   11.56277752  115.59999847    0.94000000    2.44000006
   11.56611156  121.72100067    0.94000000    2.46000004
   11.56944466  127.93299866    0.94000000    2.44000006
   11.57250023  125.00399780    0.94000000    2.44000006
   11.57583332  110.57900238    0.94000000    2.44000006
   11.57916641  120.07900238    0.94000000    2.46000004
   11.58083344  123.51899719    0.94000000    2.46000004
   11.58277798  123.54699707    0.94000000    2.46000004
   11.58583260  110.93399811    0.94000000    2.46000004
   11.58916664  126.47100067    0.94000000    2.46000004
   11.59249973  121.25800323    0.94000000    2.46000004
   11.59555531  120.25900269    0.94000000    2.46000004
   11.59888840  117.01699829    0.94000000    2.46000004
   11.60222244  129.44999695    0.94000000    2.46000004
   11.60527802  111.34500122    0.94000000    2.46000004
   11.60861111  127.25000000    0.94000000    2.46000004
   11.61166668  131.61500549    0.94000000    2.46000004
   11.61416721  128.86900330    0.92000002    2.46000004
   11.61555576  126.73500061    0.92000002    2.46000004
   11.61888885  113.10199738    0.94000000    2.46000004
   11.62194443  114.75499725    0.94000000    2.46000004
   11.62527752  120.26100159    0.95999998    2.46000004
   11.62833309  129.05200195    0.95999998    2.46000004
   11.63166714  121.71399689    0.95999998    2.46000004
   11.63527775  112.22599792    0.95999998    2.46000004
   11.63861084  130.82899475    0.95999998    2.46000004
   11.64166641  125.05100250    0.95999998    2.46000004
   11.64499950  129.44400024    0.95999998    2.46000004
   11.64750004  126.20500183    0.95999998    2.46000004
   11.64861107  126.23300171    0.95999998    2.46000004
   11.65166664  125.63800049    0.95999998    2.48000002
   11.65499973  118.44799805    0.95999998    2.48000002
   11.65833282  130.01199341    0.95999998    2.48000002
   11.66138840  111.89499664    0.94000000    2.46000004
   11.66472149  110.87500000    0.94000000    2.46000004
   11.66805553  128.76499939    0.94000000    2.46000004
   11.67111111  117.18299866    0.94000000    2.48000002
   11.67444515  121.97499847    0.94000000    2.48000002
   11.67750072  119.06600189    0.94000000    2.48000002
   11.68083382  121.87799835    0.94000000    2.48000002
   11.68138885  113.52999878    0.94000000    2.48000002
   11.68472195  121.86799622    0.92000002    2.48000002
   11.68777752  122.65699768    0.92000002    2.48000002
   11.69111156  111.56400299    0.92000002    2.48000002
   11.69416714  113.77700043    0.92000002    2.48000002
   11.69750023  110.16999817    0.94000000    2.48000002
   11.70083332  108.94699860    0.94000000    2.48000002
   11.70388889  123.61299896    0.94000000    2.48000002
   11.70722198  129.77299500    0.94000000    2.48000002
   11.71055508  108.42500305    0.92000002    2.48000002
   11.71361065  120.73799896    0.92000002    2.48000002
   11.71416664  112.36399841    0.92000002    2.48000002
   11.71722221  109.26300049    0.92000002    2.50000000
   11.72027779  106.43399811    0.92000002    2.50000000
   11.72361088  110.62300110    0.92000002    2.50000000
   11.72694397  126.85500336    0.89999998    2.48000002
   11.72999954  112.55999756    0.89999998    2.48000002
   11.73333359  125.97200012    0.89999998    2.50000000
   11.73666668  113.78399658    0.89999998    2.50000000
   11.73972225  108.83100128    0.89999998    2.50000000
   11.74305534  122.54299927    0.88000000    2.50000000
   11.74611092  120.46099854    0.88000000    2.50000000
   11.74750042  105.12699890    0.88000000    2.50000000
   11.75000000  113.00399780    0.88000000    2.50000000
   11.75305557  123.15299988    0.89999998    2.50000000
   11.75638866  108.53399658    0.89999998    2.50000000
   11.75972176  112.98699951    0.88000000    2.50000000
   11.76277733  118.98699951    0.88000000    2.50000000
   11.76611137  116.03900146    0.89999998    2.50000000
   11.76944447  119.45999908    0.88000000    2.51999998
   11.77250004  115.17199707    0.88000000    2.50000000
   11.77583313  121.14900208    0.88000000    2.50000000
   11.77888870  115.76000214    0.89999998    2.50000000
   11.78083324  112.01799774    0.89999998    2.50000000
   11.78277779  122.36699677    0.88000000    2.50000000
   11.78611183  113.21099854    0.88000000    2.50000000
   11.78916740  109.11499786    0.89999998    2.51999998
   11.79250050  112.43199921    0.89999998    2.50000000
   11.79583359  112.50800323    0.89999998    2.50000000
   11.79888916  118.15100098    0.89999998    2.50000000
   11.80222225  113.20200348    0.89999998    2.51999998
   11.80555534  115.73999786    0.89999998    2.51999998
   11.80861092  107.18000031    0.89999998    2.51999998
   11.81194496  103.12300110    0.92000002    2.51999998
   11.81444454  121.55000305    0.89999998    2.51999998
   11.81583309  109.21399689    0.89999998    2.51999998
   11.81916618  100.20099640    0.89999998    2.51999998
   11.82222176  107.27500153    0.89999998    2.51999998
   11.82555580  101.48999786    0.92000002    2.51999998
   11.82888889  120.53700256    0.92000002    2.51999998
   11.83194447  116.87699890    0.92000002    2.51999998
   11.83527756  113.93299866    0.92000002    2.51999998
   11.83833313  101.92400360    0.94000000    2.51999998
   11.84166622  112.75099945    0.92000002    2.51999998
   11.84499931  115.04499817    0.92000002    2.53999996
   11.84749985  120.80300140    0.92000002    2.53999996
   11.84861088  119.31600189    0.92000002    2.51999998
   11.85194492  117.79100037    0.92000002    2.51999998
   11.85500050  106.80200195    0.92000002    2.51999998
   11.85833359  119.73000336    0.92000002    2.53999996
   11.86138916  112.59799957    0.92000002    2.51999998
   11.86472225  114.97799683    0.92000002    2.51999998
   11.86805534  118.43000031    0.92000002    2.51999998
   11.87111092  113.81700134    0.89999998    2.51999998
   11.87444496  101.63400269    0.92000002    2.53999996
   11.87777805  114.70400238    0.89999998    2.53999996
   11.88083363  115.16100311    0.89999998    2.53999996
   11.88138866  125.36799622    0.89999998    2.53999996
   11.88472176  105.97899628    0.89999998    2.53999996
   11.88777733  112.62300110    0.89999998    2.53999996
   11.89111137  118.39800262    0.88000000    2.53999996
   11.89444447  116.54499817    0.88000000    2.53999996
   11.89750004  127.44699860    0.89999998    2.53999996
   11.90083313  121.54799652    0.89999998    2.51999998
   11.90416622  121.61199951    0.88000000    2.53999996
   11.90722179  122.30999756    0.88000000    2.53999996
   11.91055489  122.52999878    0.88000000    2.53999996
   11.91361046  130.54499817    0.89999998    2.53999996
   11.91416645  120.93699646    0.89999998    2.53999996
   11.91722298  119.49600220    0.88000000    2.53999996
   11.92055607  121.53600311    0.88000000    2.53999996
   11.92361164  121.21199799    0.88000000    2.53999996
   11.92694473  124.44499969    0.88000000    2.53999996
   11.93027782  118.44000244    0.89999998    2.53999996
   11.93333340  120.08100128    0.88000000    2.53999996
   11.93666649  125.14299774    0.88000000    2.53999996
   11.93972206  125.98300171    0.88000000    2.53999996
   11.94305515  124.66200256    0.88000000    2.53999996
   11.94638920  119.31400299    0.88000000    2.53999996
   11.94750023  117.99700165    0.88000000    2.53999996
   11.94999981  118.10600281    0.89999998    2.53999996
   11.95333290  113.02200317    0.89999998    2.55999994
   11.95638847  112.67299652    0.89999998    2.53999996
   11.95972157  117.20600128    0.88000000    2.55999994
   11.96305561  110.47499847    0.88000000    2.55999994
   11.96611118  109.93699646    0.89999998    2.55999994
   11.96944427  114.93399811    0.88000000    2.55999994
   11.97277737  123.85099792    0.88000000    2.55999994
   11.97583294  115.46099854    0.88000000    2.53999996
   11.97916603  112.52300262    0.88000000    2.53999996
   11.98083305  116.17299652    0.88000000    2.53999996
   11.98277760  117.35800171    0.88000000    2.53999996
   11.98611164  111.73600006    0.88000000    2.55999994
   11.98916721  114.43399811    0.86000001    2.55999994
   11.99250031  117.48500061    0.86000001    2.55999994
   11.99583340  112.12599945    0.86000001    2.55999994
   11.99888897  127.54399872    0.86000001    2.55999994
   12.00222206  116.36100006    0.86000001    2.55999994
   12.00555515  107.61000061    0.86000001    2.55999994
   12.00861073  109.70300293    0.86000001    2.55999994
   12.01194477  113.04900360    0.86000001    2.55999994
   12.01416683  118.70400238    0.86000001    2.55999994
   12.01555538  118.16999817    0.86000001    2.55999994
   12.01888847  120.48200226    0.86000001    2.55999994
   12.02194405  114.72000122    0.86000001    2.55999994
   12.02527714  122.02700043    0.86000001    2.55999994
   12.02861118  119.10500336    0.86000001    2.53999996
   12.03166676  123.46499634    0.86000001    2.55999994
   12.03500080  112.70300293    0.86000001    2.55999994
   12.03805637  107.47899628    0.86000001    2.55999994
   12.04138947  108.84999847    0.86000001    2.57999992
   12.04472256  113.39399719    0.86000001    2.55999994
   12.04750061  114.87100220    0.86000001    2.55999994
   12.04833412  110.45400238    0.86000001    2.55999994
   12.05166721  104.56199646    0.86000001    2.55999994
   12.05472279  111.70700073    0.86000001    2.57999992
   12.05805588  108.56300354    0.86000001    2.55999994
   12.06111145  113.03299713    0.86000001    2.57999992
   12.06444454  118.22599792    0.86000001    2.57999992
   12.06777763  109.79699707    0.86000001    2.57999992
   12.07083321  101.15899658    0.86000001    2.55999994
   12.07416630  117.08899689    0.86000001    2.57999992
   12.07750034  122.18499756    0.86000001    2.57999992
   12.08055592  126.50800323    0.86000001    2.55999994
   12.08111095  118.65000153    0.86000001    2.55999994
   12.08444405  122.80999756    0.86000001    2.55999994
   12.08749962  113.08100128    0.86000001    2.57999992
   12.09083271  119.88200378    0.89999998    2.57999992
   12.09416676  127.85500336    0.89999998    2.55999994
   12.09722233  117.77600098    0.89999998    2.57999992
   12.10055637  115.14399719    0.92000002    2.57999992
   12.10361195  117.72499847    0.92000002    2.57999992
   12.10694504  116.76999664    0.92000002    2.57999992
   12.11027813  117.30599976    0.92000002    2.59999990
   12.11333370  111.74600220    0.92000002    2.57999992
   12.11444473  118.97299957    0.92000002    2.57999992
   12.11722279  112.51599884    0.92000002    2.57999992
   12.12027836  115.99600220    0.92000002    2.57999992
   12.12361145  113.94999695    0.92000002    2.57999992
   12.12694454  124.60700226    0.92000002    2.57999992
   12.13027763  117.82599640    0.89999998    2.57999992
   12.13333321  123.66400146    0.89999998    2.57999992
   12.13666630  120.23699951    0.89999998    2.57999992
   12.13972187  112.62899780    0.89999998    2.57999992
   12.14305496  117.83000183    0.89999998    2.57999992
   12.14638901  113.71499634    0.89999998    2.57999992
   12.14777756  114.36199951    0.89999998    2.57999992
   12.14999962  120.61900330    0.89999998    2.57999992
   12.15305519  111.37699890    0.88000000    2.59999990
   12.15638828  125.79799652    0.88000000    2.57999992
   12.15972137  112.53299713    0.89999998    2.57999992
   12.16277695  116.50499725    0.89999998    2.57999992
   12.16611099  118.34400177    0.89999998    2.57999992
   12.16944504  118.64600372    0.89999998    2.59999990
   12.17250061  119.38200378    0.89999998    2.59999990
   12.17583370  118.06999969    0.92000002    2.57999992
   12.17888927  112.88899994    0.92000002    2.57999992
   12.18111134  113.59799957    0.92000002    2.57999992
   12.18277836  109.21600342    0.92000002    2.57999992
   12.18583298  120.39499664    0.92000002    2.57999992
   12.18916702  113.85500336    0.94000000    2.57999992
   12.19250011  118.41899872    0.94000000    2.57999992
   12.19555569  115.69499969    0.94000000    2.57999992
   12.19888878  119.60299683    0.94000000    2.59999990
   12.20194435  112.98799896    0.94000000    2.57999992
   12.20527744  122.28500366    0.94000000    2.59999990
   12.20861053  112.63899994    0.94000000    2.59999990
   12.21166611  110.79599762    0.94000000    2.57999992
   12.23083305  119.40699768    0.89999998    2.59999990
   12.23166656  112.30999756    0.89999998    2.59999990
   12.23500061  109.55899811    0.89999998    2.59999990
   12.23805618  116.11100006    0.89999998    2.59999990
   12.24138927  120.36399841    0.89999998    2.59999990
   12.24444485  115.43000031    0.89999998    2.59999990
   12.24777794  117.75700378    0.88000000    2.57999992
   12.25111103  110.66100311    0.88000000    2.59999990
   12.25416660  110.35099792    0.88000000    2.57999992
   12.25749969  104.98300171    0.88000000    2.59999990
   12.26083374  121.62100220    0.88000000    2.59999990
   12.26388931  114.48999786    0.88000000    2.59999990
   12.26444435  111.90100098    0.88000000    2.59999990
   12.26777744  114.21700287    0.88000000    2.59999990
   12.27083302  118.97100067    0.88000000    2.59999990
   12.27416611  116.11100006    0.88000000    2.59999990
   12.27750015  118.81099701    0.86000001    2.59999990
   12.28055573  115.40399933    0.88000000    2.59999990
   12.28388977  116.49500275    0.88000000    2.59999990
   12.28722286  115.26999664    0.86000001    2.59999990
   12.29027843  120.02200317    0.86000001    2.61999989
   12.29361153  117.34300232    0.86000001    2.59999990
   12.29666710  110.01599884    0.86000001    2.59999990
   12.29777813  114.60800171    0.86000001    2.59999990
   12.30055618  117.18800354    0.88000000    2.61999989
   12.30388927  125.28700256    0.88000000    2.61999989
   12.30694485  107.40499878    0.88000000    2.61999989
   12.31027794  105.50499725    0.88000000    2.59999990
   12.31361103  111.65899658    0.88000000    2.59999990
   12.31666660  111.01699829    0.88000000    2.61999989
   12.31999969  111.62000275    0.88000000    2.61999989
   12.32333374  115.44699860    0.88000000    2.61999989
   12.32638836  117.76000214    0.86000001    2.59999990
   12.32972240  120.96600342    0.86000001    2.61999989
   12.33111095  115.67099762    0.86000001    2.61999989
   12.33333302  115.99400330    0.88000000    2.59999990
   12.33666611  108.79100037    0.86000001    2.61999989
   12.33972168  110.80100250    0.86000001    2.61999989
   12.34305477  118.96499634    0.86000001    2.61999989
   12.34638882  114.59300232    0.86000001    2.61999989
   12.34944439  118.72699738    0.86000001    2.59999990
   12.35277843  120.61900330    0.86000001    2.59999990
   12.35583401  120.34300232    0.86000001    2.61999989
   12.35916710  121.05699921    0.88000000    2.61999989
   12.36250019  116.48300171    0.88000000    2.61999989
   12.36472225  118.74500275    0.88000000    2.61999989
   12.36611176  118.98600006    0.88000000    2.61999989
   12.36944485  124.15000153    0.89999998    2.61999989
   12.37250042  113.84600067    0.89999998    2.61999989
   12.37583351  121.49900055    0.89999998    2.61999989
   12.37916660  130.58000183    0.89999998    2.61999989
   12.38249969  118.93800354    0.88000000    2.61999989
   12.38555527  108.63899994    0.89999998    2.61999989
   12.38888836  112.07700348    0.89999998    2.64000010
   12.39194393  117.86599731    0.89999998    2.64000010
   12.39527798  114.56700134    0.89999998    2.61999989
   12.39805508  111.07199860    0.89999998    2.61999989
   12.39888859  120.87899780    0.89999998    2.61999989
   12.40222168  117.69100189    0.89999998    2.61999989
   12.40527725  108.56700134    0.88000000    2.61999989
   12.40861034  120.86199951    0.86000001    2.61999989
   12.41194439  113.31300354    0.86000001    2.61999989
   12.41499996  110.46900177    0.86000001    2.64000010
   12.41833401  116.52300262    0.86000001    2.64000010
   12.42166710  112.92099762    0.86000001    2.61999989
   12.42472267  119.46800232    0.86000001    2.61999989
   12.42805576  114.35800171    0.86000001    2.61999989
   12.43138885  118.14600372    0.83999997    2.61999989
   12.43166733  120.22499847    0.83999997    2.61999989
   12.43500042  114.05899811    0.83999997    2.61999989
   12.43805599  112.49700165    0.83999997    2.64000010
   12.44138908  123.66100311    0.83999997    2.64000010
   12.44472218  122.02899933    0.81999999    2.64000010
   12.44777775  113.99600220    0.81999999    2.64000010
   12.45111084  117.26200104    0.81999999    2.64000010
   12.45444393  115.56199646    0.83999997    2.64000010
   12.45749950  111.74299622    0.83999997    2.64000010
   12.46083355  114.93099976    0.83999997    2.64000010
   12.46416664  115.37300110    0.83999997    2.64000010
   12.46472168  120.18399811    0.83999997    2.64000010
   12.46777725  118.97499847    0.86000001    2.61999989
   12.47083282  113.73600006    0.86000001    2.64000010
   12.47416592  110.88200378    0.86000001    2.64000010
   12.47749996  114.90100098    0.86000001    2.61999989
   12.48055553  111.44599915    0.86000001    2.61999989
   12.48388958  108.49500275    0.88000000    2.61999989
   12.48722267  120.36199951    0.89999998    2.64000010
   12.49027824  122.49600220    0.89999998    2.64000010
   12.49361134  121.46399689    0.89999998    2.64000010
   12.49666691  118.12200165    0.89999998    2.64000010
   12.49777794  117.61699677    0.89999998    2.64000010
   12.50027752  117.77200317    0.86000001    2.64000010
   12.50361156  115.05699921    0.88000000    2.64000010
   12.50666714  118.72499847    0.88000000    2.64000010
   12.51000023  109.34300232    0.88000000    2.64000010
   12.51333332  119.00199890    0.88000000    2.64000010
   12.51638889  109.23400116    0.88000000    2.64000010
   12.51972198  114.52899933    0.88000000    2.64000010
   12.52305508  125.37999725    0.89999998    2.64000010
   12.52611065  118.74600220    0.89999998    2.64000010
   12.52944374  125.15699768    0.89999998    2.64000010
   12.53138828  118.55699921    0.89999998    2.64000010
   12.53305531  113.94999695    0.88000000    2.64000010
   12.53638935  110.80599976    0.88000000    2.64000010
   12.53944492  121.15599823    0.88000000    2.64000010
   12.54277802  122.43800354    0.89999998    2.64000010
   12.54611111  111.97399902    0.88000000    2.64000010
   12.54944515  111.48899841    0.86000001    2.66000009
   12.55249977  116.24700165    0.86000001    2.66000009
   12.55583382  117.08799744    0.86000001    2.66000009
   12.55916691  118.92400360    0.83999997    2.64000010
   12.56222248  120.28399658    0.83999997    2.64000010
   12.56472206  116.79799652    0.83999997    2.64000010
   12.56583309  115.06800079    0.83999997    2.64000010
   12.56916618  110.84300232    0.81999999    2.66000009
   12.57250023  113.96399689    0.83999997    2.64000010
   12.57555580  116.15799713    0.83999997    2.64000010
   12.57888889  113.66000366    0.83999997    2.64000010
   12.58222198  114.84300232    0.81999999    2.64000010
   12.58527756  118.73500061    0.81999999    2.64000010
   12.58861065  115.08000183    0.81999999    2.66000009
   12.59166622  110.75399780    0.80000001    2.66000009
   12.59499931  116.91000366    0.80000001    2.66000009
   12.59805489  115.24900055    0.80000001    2.66000009
   12.59861088  125.27200317    0.80000001    2.66000009
   12.60194492  118.41300201    0.80000001    2.66000009
   12.60500050  118.63600159    0.80000001    2.64000010
   12.60833359  115.96199799    0.80000001    2.66000009
   12.61166668  116.42500305    0.80000001    2.66000009
   12.61472225  114.37300110    0.79000002    2.66000009
   12.61805534  107.89499664    0.79000002    2.66000009
   12.62138939  114.29599762    0.80000001    2.66000009
   12.62444496  113.76100159    0.80000001    2.66000009
   12.62777805  110.44999695    0.80000001    2.66000009
   12.63111115  106.89800262    0.79000002    2.67000008
   12.63138866  113.88099670    0.79000002    2.67000008
   12.63472176  107.04900360    0.79000002    2.66000009
   12.63805580  114.22799683    0.79000002    2.66000009
   12.64111137  114.36199951    0.79000002    2.66000009
   12.64444447  114.34700012    0.80000001    2.66000009
   12.64777756  106.10299683    0.81999999    2.66000009
   12.65083313  114.47399902    0.81999999    2.66000009
   12.65416622  110.64199829    0.80000001    2.66000009
   12.65749931  111.30400085    0.81999999    2.66000009
   12.66055489  117.46399689    0.81999999    2.66000009
   12.66388893  110.17600250    0.81999999    2.66000009
   12.66499996  116.08899689    0.81999999    2.66000009
   12.66750050  105.76399994    0.81999999    2.66000009
   12.67083359  102.49199677    0.83999997    2.67000008
   12.67388916  108.98500061    0.83999997    2.66000009
   12.67722225  106.87699890    0.83999997    2.66000009
   12.68055630  114.83999634    0.83999997    2.66000009
   12.68361092  108.25800323    0.83999997    2.66000009
   12.68694496  107.48100281    0.83999997    2.66000009
   12.69027805  112.34899902    0.81999999    2.66000009
   12.69333363   99.45570374    0.81999999    2.67000008
   12.69666672  109.48200226    0.81999999    2.66000009
   12.69805527  108.15799713    0.81999999    2.66000009
   12.70027733  108.81999969    0.83999997    2.67000008
   12.70361137  109.17800140    0.83999997    2.67000008
   12.70666695  106.56999969    0.83999997    2.67000008
   12.71000004  109.96499634    0.86000001    2.66000009
   12.71333313  111.43699646    0.86000001    2.67000008
   12.71638870  113.48000336    0.86000001    2.66000009
   12.71972179  116.80999756    0.86000001    2.66000009
   12.72277737  112.78199768    0.86000001    2.66000009
   12.72611046  114.10700226    0.86000001    2.66000009
   12.72944355  108.84999847    0.86000001    2.66000009
   12.73138809  105.30000305    0.86000001    2.67000008
   12.73305511  111.37200165    0.86000001    2.67000008
   12.73638916  107.06800079    0.86000001    2.66000009
   12.73944473  108.97799683    0.86000001    2.66000009
   12.74277782  110.72799683    0.86000001    2.66000009
   12.74611092  105.70300293    0.86000001    2.66000009
   12.74916649  110.28600311    0.86000001    2.66000009
   12.75249958  109.86499786    0.83999997    2.66000009
   12.75583363  106.97899628    0.83999997    2.67000008
   12.75888920  106.78299713    0.83999997    2.67000008
   12.76222229  101.93499756    0.83999997    2.67000008
   12.76500034   97.39569855    0.81999999    2.67000008
   12.76583290  106.41699982    0.81999999    2.67000008
   12.76916599  108.07299805    0.81999999    2.67000008
   12.77222157  110.52899933    0.81999999    2.67000008
   12.77555561  111.80599976    0.81999999    2.67000008
   12.77888870  109.59899902    0.81999999    2.67000008
   12.78194427  111.42199707    0.83999997    2.67000008
   12.78527832  109.47200012    0.83999997    2.67000008
   12.78861141  105.87899780    0.86000001    2.67000008
   12.79166698  109.02600098    0.83999997    2.66000009
   12.79500008  114.92099762    0.81999999    2.67000008
   12.79833412  113.82399750    0.81999999    2.67000008
   12.79861164  111.38200378    0.81999999    2.67000008
   12.80194473  115.53500366    0.81999999    2.67000008
   12.80527782  108.82800293    0.81999999    2.67000008
   12.80833340  111.55599976    0.81999999    2.67000008
   12.81166649  112.93199921    0.81999999    2.67000008
   12.81472206  116.50800323    0.81999999    2.67000008
   12.81805515  108.33999634    0.81999999    2.67000008
   12.82138920  108.37200165    0.80000001    2.67000008
   12.82444477  108.43900299    0.80000001    2.67000008
   12.82777786  109.64399719    0.80000001    2.67000008
   12.83111095  116.52500153    0.79000002    2.67000008
   12.83166695  107.36199951    0.79000002    2.67000008
   12.83444405  102.50599670    0.76999998    2.67000008
   12.83777714  113.49400330    0.76999998    2.67000008
   12.84083271  109.91300201    0.75000000    2.69000006
   12.95027733   -1.00000000   -1.00000000   -1.00000000
   13.04916668   -1.00000000   -1.00000000   -1.00000000
   13.15277767   -1.00000000   -1.00000000   -1.00000000
   13.18388939   74.34750366    0.76999998    2.71000004
   13.18694496  114.47399902    0.76999998    2.71000004
   13.19027805  111.11100006    0.76999998    2.71000004
   13.19361115  114.92900085    0.79000002    2.71000004
   13.19694424  105.86799622    0.76999998    2.69000006
   13.19999981  106.28700256    0.76999998    2.69000006
   13.20416641  106.28700256    0.76999998    2.69000006
   13.20833302  103.54000092    0.76999998    2.71000004
   13.21166611  108.30500031    0.76999998    2.69000006
   13.21472168  103.30100250    0.76999998    2.71000004
   13.21694374  106.14399719    0.76999998    2.71000004
   13.21833324  103.92099762    0.76999998    2.71000004
   13.22166634  106.19300079    0.76999998    2.71000004
   13.22472191  106.83499908    0.76999998    2.71000004
   13.22805500  107.27400208    0.75000000    2.71000004
   13.23138809  105.80100250    0.75000000    2.71000004
   13.23444462  110.71499634    0.75000000    2.73000002
   13.23777771  101.35900116    0.75000000    2.71000004
   13.24111176  107.48100281    0.75000000    2.71000004
   13.24694443  107.48100281    0.75000000    2.71000004
   13.25111103  106.41400146    0.76999998    2.71000004
   13.25444412  104.20800018    0.76999998    2.71000004
   13.25749969  106.97000122    0.79000002    2.71000004
   13.26083374  105.76599884    0.79000002    2.71000004
   13.26416683  109.63899994    0.79000002    2.71000004
   13.26722240   97.18399811    0.79000002    2.69000006
   13.27055550  100.31900024    0.76999998    2.71000004
   13.27361107  102.01999664    0.76999998    2.73000002
   13.27694416  103.03399658    0.76999998    2.71000004
   13.28027725  103.35700226    0.75000000    2.73000002
   13.28361130  107.11499786    0.75000000    2.73000002
   13.28388977  100.47299957    0.75000000    2.73000002
   13.28972244  100.47299957    0.76999998    2.73000002
   13.29388905  107.76300049    0.79000002    2.73000002
   13.29722309  106.16500092    0.76999998    2.71000004
   13.30055618  107.48600006    0.79000002    2.71000004
   13.30361176  105.33899689    0.79000002    2.73000002
   13.30694485  109.80100250    0.79000002    2.73000002
   13.31027794  104.46700287    0.80000001    2.71000004
   13.31333351  110.89600372    0.80000001    2.73000002
   13.31666660  103.92800140    0.80000001    2.73000002
   13.31722260  108.01100159    0.81999999    2.71000004
   13.32027817  106.19699860    0.81999999    2.71000004
   13.32361126  108.00000000    0.83999997    2.71000004
   13.32666683  114.47499847    0.81999999    2.71000004
   13.33277798  114.47499847    0.80000001    2.71000004
   13.33694458  111.80400085    0.80000001    2.71000004
   13.34000015  101.76000214    0.80000001    2.71000004
   13.34333324  101.52400208    0.81999999    2.71000004
   13.34638882  105.96299744    0.81999999    2.71000004
   13.34972191  105.06400299    0.81999999    2.71000004
   13.35055637  104.01499939    0.81999999    2.71000004
   13.35333347  109.73300171    0.81999999    2.71000004
   13.35666752  104.90299988    0.80000001    2.73000002
   13.36000061  102.06400299    0.80000001    2.73000002
   13.36305618  104.08499908    0.80000001    2.73000002
   13.36638927  100.82099915    0.79000002    2.73000002
   13.36944485  111.69599915    0.79000002    2.73000002
   13.37555599  111.69599915    0.79000002    2.73000002
   13.37972260  110.96099854    0.79000002    2.71000004
   13.38277817  101.70800018    0.76999998    2.73000002
   13.38388920  102.81199646    0.76999998    2.73000002
   13.38638878  101.44400024    0.76999998    2.73000002
   13.38972187  109.42500305    0.75000000    2.73000002
   13.39277744  100.04299927    0.73000002    2.73000002
   13.39611053  107.81300354    0.73000002    2.73000002
   13.39944458  110.73300171    0.70999998    2.75000000
   13.40249920  110.74900055    0.70999998    2.73000002
   13.40583324  111.12899780    0.70999998    2.73000002
   13.40916634  115.26200104    0.69000000    2.73000002
   13.41222191  112.07800293    0.67000002    2.73000002
   13.41833401  112.07800293    0.67000002    2.73000002
   13.42250061  111.10299683    0.67000002    2.73000002
   13.42583370  121.86299896    0.67000002    2.75000000
   13.42888927  102.10199738    0.67000002    2.75000000
   13.43222237  109.94799805    0.67000002    2.75000000
   13.43555546  106.70600128    0.69000000    2.75000000
   13.43861103  107.18800354    0.67000002    2.75000000
   13.44194412  109.02700043    0.67000002    2.73000002
   13.44499969   99.67320251    0.67000002    2.75000000
   13.44833374  108.57199860    0.69000000    2.75000000
   13.45055580  104.72000122    0.69000000    2.75000000
   13.45194435  104.45899963    0.67000002    2.75000000
   13.45527744  102.94999695    0.69000000    2.75000000
   13.46111107  102.94999695    0.69000000    2.75000000
   13.46527767  107.59100342    0.69000000    2.75000000
   13.46861076  108.37200165    0.69000000    2.73000002
   13.47194386  104.05400085    0.67000002    2.73000002
   13.47499943   99.40760040    0.67000002    2.75000000
   13.47833252  108.39099884    0.67000002    2.75000000
   13.48166656  100.59999847    0.67000002    2.73000002
   13.48388958  101.20099640    0.67000002    2.73000002
   13.48500061  105.07399750    0.69000000    2.73000002
   13.48833370  102.47399902    0.69000000    2.73000002
   13.49138927  108.48500061    0.70999998    2.73000002
   13.49472237  108.68699646    0.70999998    2.75000000
   13.49805546  107.09999847    0.70999998    2.75000000
   13.50416660  107.09999847    0.73000002    2.73000002
   13.50833321  100.51699829    0.73000002    2.73000002
   13.51138878  102.00499725    0.75000000    2.73000002
   13.51472187   99.67209625    0.75000000    2.73000002
   13.51722240  105.93199921    0.75000000    2.75000000
   13.51833344  107.09500122    0.75000000    2.75000000
   13.52166653   96.35079956    0.75000000    2.75000000
   13.52499962  103.51799774    0.75000000    2.75000000
   13.52833271   99.83329773    0.75000000    2.75000000
   13.53138828  105.63200378    0.75000000    2.75000000
   13.53472233  102.01100159    0.75000000    2.75000000
   13.53777790  101.41100311    0.75000000    2.73000002
   13.54111195  101.74800110    0.75000000    2.75000000
   13.54694462  101.74800110    0.76999998    2.75000000
   13.55111122  108.97399902    0.75000000    2.73000002
   13.55416679  106.80799866    0.75000000    2.73000002
   13.55749989  104.68800354    0.75000000    2.73000002
   13.56083393   98.00109863    0.75000000    2.75000000
   13.56388950  107.26699829    0.75000000    2.75000000
   13.56722260  110.27700043    0.75000000    2.73000002
   13.57055569  109.92299652    0.75000000    2.76999998
   13.57361126  107.23799896    0.75000000    2.75000000
   13.57694435  112.47799683    0.75000000    2.73000002
   13.58027744  110.18299866    0.75000000    2.75000000
   13.58333302  107.20899963    0.75000000    2.75000000
   13.58416653  102.53099823    0.75000000    2.75000000
   13.58972168  102.53099823    0.73000002    2.73000002
   13.59388828  100.20500183    0.75000000    2.75000000
   13.59722233  102.80300140    0.73000002    2.75000000
   13.60027790   98.84909821    0.73000002    2.75000000
   13.60361195  102.31700134    0.73000002    2.75000000
   13.60694504   98.18800354    0.73000002    2.75000000
   13.61000061  111.73600006    0.73000002    2.75000000
   13.61333370  105.53600311    0.70999998    2.76999998
   13.61666679  103.55400085    0.70999998    2.75000000
   13.61722279  109.30100250    0.70999998    2.75000000
   13.61999989  108.22000122    0.70999998    2.75000000
   13.62333393  104.76399994    0.70999998    2.75000000
   13.62666702  100.53700256    0.70999998    2.75000000
   13.63277817  100.53700256    0.73000002    2.75000000
   13.63666630  107.92199707    0.73000002    2.75000000
   13.64000034  103.98200226    0.73000002    2.76999998
   13.64333344  108.35800171    0.73000002    2.75000000
   13.64638901  105.28299713    0.73000002    2.75000000
   13.64972210   99.58599854    0.70999998    2.75000000
   13.65083313   98.94339752    0.70999998    2.75000000
   13.65333271  103.72799683    0.70999998    2.75000000
   13.65666676   95.62290192    0.70999998    2.75000000
   13.65999985  108.83399963    0.69000000    2.75000000
   13.66305542  101.77300262    0.69000000    2.75000000
   13.66638851   98.15560150    0.67000002    2.75000000
   13.66944504  108.90899658    0.69000000    2.75000000
   13.67555618  108.90899658    0.70999998    2.76999998
   13.67972279   99.85489655    0.70999998    2.75000000
   13.68277836  102.51300049    0.70999998    2.75000000
   13.68416691  109.90299988    0.70999998    2.75000000
   13.68638897  105.84200287    0.70999998    2.75000000
   13.68972206  108.37799835    0.73000002    2.75000000
   13.69305515  105.71700287    0.73000002    2.75000000
   13.69611073  110.48899841    0.75000000    2.75000000
   13.69944477  103.01200104    0.76999998    2.75000000
   13.70277786   98.94740295    0.79000002    2.75000000
   13.70583344  102.17299652    0.79000002    2.75000000
   13.70916653  106.65100098    0.79000002    2.75000000
   13.71249962  108.97799683    0.79000002    2.75000000
   13.71833324  108.97799683    0.79000002    2.76999998
   13.72249985  104.92700195    0.80000001    2.73000002
   13.72555542  105.94200134    0.81999999    2.75000000
   13.72888851  100.66300201    0.81999999    2.75000000
   13.73222160  104.03500366    0.83999997    2.75000000
   13.73555565  107.23999786    0.83999997    2.75000000
   13.73888874  103.80400085    0.81999999    2.75000000
   13.74222279  101.48600006    0.83999997    2.75000000
   13.74555588  108.08799744    0.83999997    2.75000000
   13.74861145  108.67800140    0.83999997    2.76999998
   13.75083351  107.06900024    0.86000001    2.75000000
   13.75222206  111.19000244    0.86000001    2.75000000
   13.75555515  106.00099945    0.83999997    2.75000000
   13.76111126  106.00099945    0.83999997    2.75000000
   13.76527786  103.88200378    0.83999997    2.75000000
   13.76861095  106.33399963    0.83999997    2.75000000
   13.77166653   99.44170380    0.83999997    2.75000000
   13.77499962  105.23500061    0.83999997    2.75000000
   13.77833271  102.32199860    0.83999997    2.75000000
   13.78138828   97.97219849    0.83999997    2.75000000
   13.78416729  104.72200012    0.83999997    2.75000000
   13.78500080  110.30100250    0.83999997    2.75000000
   13.78833389  101.34999847    0.83999997    2.75000000
   13.79138947   98.61710358    0.83999997    2.75000000
   13.79472256   94.67430115    0.81999999    2.76999998
   13.79805565  101.79199982    0.81999999    2.75000000
   13.80388927  101.79199982    0.81999999    2.75000000
   13.80805588   97.36029816    0.81999999    2.75000000
   13.81138897  101.42400360    0.81999999    2.76999998
   13.81472206  106.84600067    0.81999999    2.75000000
   13.81750011   98.09600067    0.81999999    2.75000000
   13.81805515  102.51100159    0.80000001    2.75000000
   13.82138920   97.40229797    0.80000001    2.75000000
   13.82444477   99.31359863    0.81999999    2.75000000
   13.82777786   98.58650208    0.81999999    2.76999998
   13.83111095  110.48600006    0.80000001    2.75000000
   13.83416653   97.68620300    0.81999999    2.75000000
   13.83749962  100.80100250    0.83999997    2.76999998
   13.84083271  105.37300110    0.83999997    2.76999998
   13.84694386  105.37300110    0.81999999    2.76999998
   13.85111141  112.99800110    0.83999997    2.75000000
   13.85416698   95.13159943    0.81999999    2.75000000
   13.85750008   97.49669647    0.81999999    2.75000000
   13.86055565  107.16699982    0.81999999    2.75000000
   13.86388969  106.04199982    0.83999997    2.75000000
   13.86722279  106.48200226    0.83999997    2.76999998
   13.87027836  107.94400024    0.86000001    2.75000000
   13.87361145   98.46739960    0.86000001    2.75000000
   13.87694454  112.11699677    0.88000000    2.75000000
   13.88000011  119.93900299    0.88000000    2.75000000
   13.88333321  104.22200012    0.86000001    2.75000000
   13.88416672  105.50599670    0.88000000    2.75000000
   13.88972187  105.50599670    0.88000000    2.73000002
   13.89388847  108.41500092    0.86000001    2.75000000
   13.89694405  103.74299622    0.88000000    2.76999998
   13.90027714   99.17079926    0.88000000    2.76999998
   13.90361118  108.90899658    0.88000000    2.76999998
   13.90666676  112.18199921    0.88000000    2.75000000
   13.90999985  104.91000366    0.88000000    2.76999998
   13.91333294  108.01000214    0.88000000    2.75000000
   13.91638851   98.81030273    0.88000000    2.76999998
   13.91750050  102.41100311    0.88000000    2.75000000
   13.92000008  101.48500061    0.88000000    2.75000000
   13.92333412   92.52259827    0.88000000    2.76999998
   13.92666721  100.11299896    0.88000000    2.75000000
   13.93249989  100.11299896    0.89999998    2.75000000
   13.93666649  104.15100098    0.89999998    2.75000000
   13.94000053   99.36060333    0.89999998    2.75000000
   13.94305515  110.25099945    0.89999998    2.75000000
   13.94638920  107.98100281    0.89999998    2.76999998
   13.94972229  104.28700256    0.89999998    2.76999998
   13.95083332  105.04000092    0.89999998    2.76999998
   13.95333290  109.17700195    0.89999998    2.76999998
   13.95666695  103.56300354    0.88000000    2.75000000
   13.96000004  110.89299774    0.88000000    2.75000000
   13.96305561  108.90399933    0.88000000    2.75000000
   13.96638870  103.73200226    0.88000000    2.75000000
   13.96944427  103.55400085    0.88000000    2.76999998
   13.97527695  103.55400085    0.88000000    2.75000000
   13.97944355   94.84120178    0.88000000    2.75000000
   13.98277760  104.86199951    0.86000001    2.75000000
   13.98416710  103.91999817    0.86000001    2.75000000
   13.98638916  103.96299744    0.86000001    2.76999998
   13.98972225  102.79000092    0.86000001    2.76999998
   13.99305534  103.84799957    0.86000001    2.76999998
   13.99611092  110.01200104    0.86000001    2.75000000
   13.99944496   97.47380066    0.83999997    2.76999998
   14.00277805  102.03099823    0.83999997    2.76999998
   14.00583363   99.15149689    0.83999997    2.76999998
   14.00916672  102.30899811    0.83999997    2.76999998
   14.01222229   97.48580170    0.83999997    2.75000000
   14.01833344   97.48580170    0.86000001    2.75000000
   14.02250004  107.72599792    0.83999997    2.76999998
   14.02555561  113.43099976    0.83999997    2.76999998
   14.02888870  104.78500366    0.83999997    2.76999998
   14.03222179  106.02400208    0.83999997    2.76999998
   14.03527832  105.88400269    0.86000001    2.76999998
   14.03861141  105.08699799    0.88000000    2.76999998
   14.04166698  111.36399841    0.88000000    2.76999998
   14.04500008  100.46199799    0.88000000    2.75000000
   14.04833412  103.82800293    0.88000000    2.75000000
   14.05083370  107.36799622    0.89999998    2.75000000
   14.05166721   93.31459808    0.89999998    2.75000000
   14.05500031  101.93599701    0.88000000    2.75000000
   14.06111145  101.93599701    0.88000000    2.76999998
   14.06527805  100.07399750    0.88000000    2.76999998
   14.06833363  103.12500000    0.88000000    2.76999998
   14.07166672   99.98840332    0.88000000    2.76999998
   14.07499981   93.84899902    0.88000000    2.75000000
   14.07805538   99.39209747    0.88000000    2.75000000
   14.08138847  100.98999786    0.89999998    2.75000000
   14.08416653  100.14900208    0.88000000    2.75000000
   14.08500004  100.88500214    0.88000000    2.75000000
   14.08833313   99.31420135    0.88000000    2.76999998
   14.09166622  102.16300201    0.88000000    2.76999998
   14.09472179  102.87699890    0.88000000    2.76999998
   14.09805489   98.99050140    0.88000000    2.76999998
   14.10388947   98.99050140    0.89999998    2.75000000
   14.10805607   95.28250122    0.92000002    2.75000000
   14.11138916  100.48000336    0.92000002    2.76999998
   14.11472225   99.60700226    0.94000000    2.76999998
   14.11750031  103.18000031    0.94000000    2.75000000
   14.11805534  105.09500122    0.94000000    2.75000000
   14.12166691  101.50499725    0.95999998    2.76999998
   14.12472248   99.56439972    0.95999998    2.75000000
   14.12805557   92.62840271    0.95999998    2.75000000
   14.13138866   99.73249817    0.95999998    2.76999998
   14.13444424  106.40200043    0.94000000    2.75000000
   14.13777733   99.84770203    0.94000000    2.75000000
   14.14083290   98.02719879    0.94000000    2.75000000
   14.14666653   98.02719879    0.94000000    2.76999998
   14.15083313  102.23500061    0.94000000    2.75000000
   14.15416622  100.17400360    0.94000000    2.75000000
   14.15749931  102.55400085    0.92000002    2.76999998
   14.16055489   95.91020203    0.92000002    2.76999998
   14.16388893  102.79799652    0.92000002    2.76999998
   14.16694450   97.52600098    0.92000002    2.76999998
   14.17027855   98.60890198    0.89999998    2.76999998
   14.17361164  105.94999695    0.89999998    2.76999998
   14.17666721   94.16549683    0.89999998    2.76999998
   14.18000031  100.74199677    0.89999998    2.76999998
   14.18333340  107.00000000    0.88000000    2.75000000
   14.18416691  110.22899628    0.88000000    2.75000000
   14.20472240  110.22899628    0.86000001    2.78999996
   14.20888901   98.53410339    0.86000001    2.76999998
   14.21222210  104.46499634    0.86000001    2.76999998
   14.21527767  102.64099884    0.88000000    2.76999998
   14.21749973   97.03700256    0.88000000    2.76999998
   14.21888828  107.89900208    0.88000000    2.76999998
   14.22222137  102.37899780    0.88000000    2.76999998
   14.22555542   97.32659912    0.88000000    2.76999998
   14.22861099  100.62899780    0.88000000    2.76999998
   14.23194408  104.69000244    0.88000000    2.75000000
   14.23527813  101.40699768    0.89999998    2.76999998
   14.23833370   96.96759796    0.89999998    2.76999998
   14.24166679  101.08899689    0.89999998    2.76999998
   14.24750042  101.08899689    0.92000002    2.76999998
   14.25194454  104.09400177    0.92000002    2.76999998
   14.25500011  100.27200317    0.92000002    2.76999998
   14.25833321  103.21099854    0.94000000    2.76999998
   14.26166630  103.02600098    0.95999998    2.76999998
   14.26472187  103.86599731    0.95999998    2.76999998
   14.26805496  100.79000092    1.01999998    2.76999998
   14.27111053  105.90200043    1.03999996    2.76999998
   14.27444458  106.24400330    1.03999996    2.75000000
   14.27777767  100.21499634    1.03999996    2.75000000
   14.28083324  102.47000122    1.03999996    2.76999998
   14.28416729   99.97429657    1.01999998    2.76999998
   14.28472233  107.15499878    1.01999998    2.76999998
   14.29055595  107.15499878    1.01999998    2.75000000
   14.29472256  100.95899963    1.01999998    2.76999998
   14.29777813  102.49800110    1.00000000    2.76999998
   14.30111122  100.88700104    0.98000002    2.76999998
   14.30416679   97.89080048    0.95999998    2.78999996
   14.30749989   99.86779785    0.95999998    2.78999996
   14.31083393  103.04699707    0.95999998    2.76999998
   14.31388950   98.60279846    0.95999998    2.76999998
   14.31722260   99.45860291    0.94000000    2.76999998
   14.31777763   99.83029938    0.94000000    2.76999998
   14.32083321   97.66750336    0.92000002    2.76999998
   14.32416630  104.14399719    0.89999998    2.76999998
   14.32750034   95.89469910    0.89999998    2.76999998
   14.33333302   95.89469910    0.89999998    2.76999998
   14.33749962   93.54209900    0.88000000    2.76999998
   14.34055519  112.57299805    0.88000000    2.76999998
   14.34388828  107.46900177    0.83999997    2.76999998
   14.34694386  104.07700348    0.83999997    2.76999998
   14.35027790  104.06800079    0.81999999    2.78999996
   14.35111141  103.89700317    0.81999999    2.78999996
   14.35388947  100.77500153    0.81999999    2.78999996
   14.35722256  100.89199829    0.80000001    2.76999998
   14.36055565  101.98300171    0.80000001    2.78999996
   14.36361122   99.42870331    0.81999999    2.78999996
   14.36694431  105.06400299    0.81999999    2.78999996
   14.37027836  101.15899658    0.83999997    2.76999998
   14.37611103  101.15899658    0.81999999    2.78999996
   14.38027763  102.02899933    0.80000001    2.78999996
   14.38361073  100.72299957    0.80000001    2.78999996
   14.38444424   98.19239807    0.80000001    2.78999996
   14.38722229   98.43499756    0.80000001    2.76999998
   14.39055538  104.16600037    0.79000002    2.76999998
   14.39388847   96.18319702    0.75000000    2.76999998
   14.39694405  103.06600189    0.75000000    2.78999996
   14.40027714   97.84860229    0.75000000    2.78999996
   14.40361118   95.16670227    0.70999998    2.78999996
   14.40666676  102.30899811    0.67000002    2.78999996
   14.40999985  100.81900024    0.67000002    2.78999996
   14.41333294  102.47000122    0.64999998    2.78999996
   14.41888905  102.47000122    0.64999998    2.78999996
   14.42305565   96.73090363    0.63000000    2.78999996
   14.42638874  109.31199646    0.61000001    2.78999996
   14.42944431  109.41100311    0.61000001    2.78999996
   14.43277836  105.26999664    0.61000001    2.80999994
   14.43611145  104.66300201    0.58999997    2.78999996
   14.43916702   94.60729980    0.56999999    2.78999996
   14.44250011  107.09500122    0.55000001    2.78999996
   14.44583321  104.76499939    0.55000001    2.80999994
   14.44888878  108.60700226    0.55000001    2.80999994
   14.45111084  102.63999939    0.55000001    2.80999994
   14.45249939  104.10600281    0.55000001    2.80999994
   14.45583344  105.45600128    0.55000001    2.78999996
   14.46166611  105.45600128    0.55000001    2.78999996
   14.46583271  111.33200073    0.55000001    2.78999996
   14.46916580  101.97200012    0.55000001    2.80999994
   14.47249985  107.67299652    0.56999999    2.78999996
   14.47583294  105.90100098    0.56999999    2.78999996
   14.47888851  104.75700378    0.56999999    2.78999996
   14.48222160   99.41110229    0.56999999    2.78999996
   14.48444462  102.05699921    0.55000001    2.78999996
   14.48583317  102.87100220    0.55000001    2.78999996
   14.48916721  103.17199707    0.55000001    2.78999996
   14.49250031   99.83989716    0.55000001    2.78999996
   14.49555588  106.12699890    0.55000001    2.78999996
   14.49888897  107.34100342    0.55000001    2.78999996
   14.50472260  107.34100342    0.52999997    2.78999996
   14.50888920   97.75900269    0.52999997    2.80999994
   14.51194477  102.86100006    0.52999997    2.78999996
   14.51527786   96.41369629    0.52999997    2.80999994
   14.51777744   96.63929749    0.51999998    2.80999994
   14.51888847   99.90000153    0.51999998    2.80999994
   14.52194405  103.12999725    0.52999997    2.78999996
   14.52527714  103.58999634    0.55000001    2.78999996
   14.52833271   96.65090179    0.55000001    2.78999996
   14.53166676  102.57900238    0.55000001    2.78999996
   14.53500080  100.03700256    0.55000001    2.78999996
   14.53833389   98.28700256    0.56999999    2.78999996
   14.54138947  100.13300323    0.56999999    2.78999996
   14.54750061  100.13300323    0.55000001    2.78999996
   14.55166721  103.08599854    0.55000001    2.78999996
   14.55472279  102.67500305    0.55000001    2.78999996
   14.55805588   94.03109741    0.52999997    2.80999994
   14.56138897  104.52200317    0.55000001    2.80999994
   14.56444454   99.38849640    0.55000001    2.80999994
   14.56777763  102.00800323    0.52999997    2.80999994
   14.57111073   95.93309784    0.52999997    2.80999994
   14.57416630   98.36920166    0.55000001    2.80999994
   14.57750034   95.61530304    0.56999999    2.78999996
   14.58083344   96.57270050    0.58999997    2.78999996
   14.58416653   95.26809692    0.64999998    2.80999994
   14.58472157   94.27580261    0.64999998    2.80999994
   14.59027767   94.27580261    0.67000002    2.78999996
   14.59444427  100.86799622    0.69000000    2.78999996
   14.59777737  102.67700195    0.70999998    2.76999998
   14.60083389  101.33599854    0.70999998    2.78999996
   14.60416698   96.38890076    0.69000000    2.78999996
   14.60777855  105.64299774    0.67000002    2.78999996
   14.61083412  108.32599640    0.67000002    2.78999996
   14.61416721   94.62470245    0.67000002    2.78999996
   14.61750031   96.07550049    0.67000002    2.78999996
   14.61805534  102.30300140    0.67000002    2.78999996
   14.62083340  102.62500000    0.69000000    2.78999996
   14.62416649  101.41300201    0.67000002    2.78999996
   14.62750053  101.27200317    0.67000002    2.78999996
   14.63305569  101.27200317    0.67000002    2.78999996
   14.63722229  100.22499847    0.67000002    2.78999996
   14.64055538   94.62180328    0.64999998    2.78999996
   14.64388847  102.80200195    0.64999998    2.78999996
   14.64694405   98.81939697    0.64999998    2.78999996
   14.65027714   93.69460297    0.64999998    2.78999996
   14.65138817  101.31300354    0.64999998    2.78999996
   14.65361118  101.19799805    0.64999998    2.80999994
   14.65694427   97.88549805    0.67000002    2.78999996
   14.66027737   98.38200378    0.67000002    2.78999996
   14.66333294   94.41040039    0.69000000    2.78999996
   14.66666698  104.91699982    0.69000000    2.78999996
   14.67000008  103.16600037    0.69000000    2.78999996
   14.67611122  103.16600037    0.70999998    2.78999996
   14.68027782   98.31670380    0.70999998    2.80999994
   14.68333340  115.40799713    0.70999998    2.78999996
   14.68472195  104.41500092    0.70999998    2.78999996
   14.68694496  103.88099670    0.73000002    2.78999996
   14.69027805  107.47599792    0.73000002    2.78999996
   14.69361115  106.82900238    0.73000002    2.78999996
   14.69666672   92.40760040    0.73000002    2.78999996
   14.69999981  100.42400360    0.75000000    2.78999996
   14.70333290   99.11900330    0.75000000    2.78999996
   14.70638847   99.30570221    0.75000000    2.78999996
   14.70972157  107.18399811    0.73000002    2.80999994
   14.71277714  103.98600006    0.73000002    2.78999996
   14.71888828  103.98600006    0.70999998    2.78999996
   14.72305489   99.41410065    0.70999998    2.80999994
   14.72638798  100.69499969    0.70999998    2.78999996
   14.72944355  106.26100159    0.70999998    2.78999996
   14.73277760  104.93099976    0.69000000    2.80999994
   14.73611164  105.47599792    0.69000000    2.80999994
   14.73916721  103.18499756    0.69000000    2.78999996
   14.74250031  106.65599823    0.67000002    2.80999994
   14.74583340  114.22799683    0.67000002    2.78999996
   14.74888897  106.08100128    0.67000002    2.80999994
   14.75138855  109.19999695    0.67000002    2.80999994
   14.75249958  105.03900146    0.67000002    2.80999994
   14.75583363  103.76000214    0.67000002    2.78999996
   14.76166630  103.76000214    0.67000002    2.78999996
   14.76583290  102.57800293    0.69000000    2.80999994
   14.76916599   96.09500122    0.69000000    2.78999996
   14.77222157   95.74980164    0.69000000    2.78999996
   14.77555561  100.09300232    0.70999998    2.78999996
   14.77861118   98.42780304    0.67000002    2.80999994
   14.78194427  100.78500366    0.69000000    2.80999994
   14.78472233  104.60199738    0.67000002    2.80999994
   14.78583336   96.62159729    0.67000002    2.80999994
   14.78888893  102.79499817    0.67000002    2.80999994
   14.79222298  102.52300262    0.67000002    2.80999994
   14.79555607   95.90730286    0.69000000    2.78999996
   14.79861164   99.62059784    0.69000000    2.78999996
   14.80444431   99.62059784    0.67000002    2.80999994
   14.80861092  101.79199982    0.67000002    2.80999994
   14.81194496  100.53500366    0.64999998    2.78999996
   14.81500053  107.20400238    0.64999998    2.78999996
   14.81805515   93.38950348    0.67000002    2.80999994
   14.81861115   91.06659698    0.67000002    2.80999994
   14.82194424  101.46299744    0.64999998    2.80999994
   14.82527733  103.64600372    0.64999998    2.80999994
   14.82833290  103.59600067    0.64999998    2.80999994
   14.83166695  109.89800262    0.64999998    2.78999996
   14.83500004  106.10600281    0.64999998    2.78999996
   14.83805561  110.77700043    0.63000000    2.78999996
   14.84138870   95.17769623    0.63000000    2.80999994
   14.84749985   95.17769623    0.63000000    2.80999994
   14.85138893  100.29000092    0.61000001    2.80999994
   14.85472298   98.47720337    0.61000001    2.80999994
   14.85805607   95.77429962    0.61000001    2.80999994
   14.86111164  106.52100372    0.61000001    2.80999994
   14.86444473  103.96800232    0.61000001    2.82999992
   14.86777782  109.72100067    0.63000000    2.80999994
   14.87083340  104.50099945    0.63000000    2.80999994
   14.87416649  103.91899872    0.61000001    2.80999994
   14.87750053  110.30300140    0.61000001    2.78999996
   14.88055611  107.54100037    0.61000001    2.78999996
   14.88388920  108.67600250    0.61000001    2.80999994
   14.88472176  106.29799652    0.61000001    2.80999994
   14.89027786  106.29799652    0.58999997    2.80999994
   14.89444447  101.51399994    0.58999997    2.80999994
   14.89750004  107.97399902    0.61000001    2.78999996
   14.90083313  107.45400238    0.58999997    2.80999994
   14.90416622  107.53900146    0.58999997    2.80999994
   14.90722179  105.70600128    0.58999997    2.82999992
   14.91055489   96.55719757    0.58999997    2.80999994
   14.91388893  100.28299713    0.56999999    2.80999994
   14.91694450  105.01200104    0.58999997    2.80999994
   14.91805553  104.33999634    0.58999997    2.80999994
   14.92083359   98.93830109    0.58999997    2.80999994
   14.92388916  104.31800079    0.58999997    2.80999994
   14.92722225  110.05699921    0.61000001    2.80999994
   14.93305588  110.05699921    0.58999997    2.80999994
   14.93722248  109.39199829    0.61000001    2.80999994
   14.94055557  104.81500244    0.58999997    2.80999994
   14.94361115  102.72699738    0.58999997    2.80999994
   14.94694424  100.99600220    0.58999997    2.82999992
   14.94999981  112.16899872    0.58999997    2.80999994
   14.95138836   97.50450134    0.61000001    2.80999994
   14.95388889  102.62799835    0.61000001    2.80999994
   14.95694447  105.69699860    0.63000000    2.82999992
   14.96027756  107.35500336    0.63000000    2.80999994
   14.96361065  100.98999786    0.61000001    2.80999994
   14.96666622  104.31400299    0.61000001    2.80999994
   14.96999931   99.43679810    0.63000000    2.80999994
   14.97583294   99.43679810    0.63000000    2.80999994
   14.97999954   96.13110352    0.63000000    2.80999994
   14.98333359   98.88369751    0.63000000    2.82999992
   14.98472214  103.92299652    0.63000000    2.82999992
   14.98694515   98.10700226    0.63000000    2.82999992
   14.99000072   99.21410370    0.63000000    2.82999992
   14.99333382  102.01899719    0.63000000    2.80999994
   14.99666691   99.31150055    0.64999998    2.80999994
   15.00000000   95.66919708    0.64999998    2.80999994
   15.00305557  100.30799866    0.64999998    2.80999994
   15.00638866   98.06150055    0.64999998    2.80999994
   15.00972176  102.15399933    0.64999998    2.82999992
   15.01277733  102.11299896    0.63000000    2.82999992
   15.01916599  102.11299896    0.63000000    2.82999992
   15.02333355  101.46199799    0.61000001    2.80999994
   15.02638817   99.72699738    0.61000001    2.80999994
   15.02972221  104.30000305    0.61000001    2.80999994
   15.03305531  102.87799835    0.63000000    2.80999994
   15.03611183   98.79399872    0.63000000    2.82999992
   15.03944492  102.90399933    0.63000000    2.82999992
   15.04277802   97.54479980    0.64999998    2.80999994
   15.04583359   98.41480255    0.64999998    2.82999992
   15.04916668  102.52899933    0.64999998    2.82999992
   15.05138874  104.68900299    0.63000000    2.80999994
   15.05277824  103.64299774    0.63000000    2.80999994
   15.05583382  103.31300354    0.61000001    2.80999994
   15.06166649  103.31300354    0.58999997    2.80999994
   15.06583309  101.37000275    0.58999997    2.80999994
   15.06888866  102.34600067    0.58999997    2.80999994
   15.07222176   99.69149780    0.58999997    2.82999992
   15.07527733  102.14700317    0.58999997    2.80999994
   15.07861137   98.08319855    0.58999997    2.82999992
   15.08194447  100.60199738    0.58999997    2.82999992
   15.08472157   99.03959656    0.58999997    2.82999992
   15.08555508   99.16549683    0.58999997    2.82999992
   15.08861065   95.51180267    0.56999999    2.82999992
   15.09194374   99.17250061    0.56999999    2.80999994
   15.09499931   97.37560272    0.56999999    2.80999994
   15.09833336  105.40100098    0.55000001    2.82999992
   15.10444450  105.40100098    0.55000001    2.82999992
   15.10861111  100.95700073    0.55000001    2.80999994
   15.11166668  106.47599792    0.55000001    2.82999992
   15.11500072  103.48999786    0.55000001    2.80999994
   15.11805534  112.81300354    0.56999999    2.80999994
   15.11861134  102.02799988    0.56999999    2.80999994
   15.12166691  103.22000122    0.56999999    2.82999992
   15.12500000   98.47799683    0.56999999    2.82999992
   15.12833309  103.99600220    0.56999999    2.82999992
   15.13166714  104.48699951    0.56999999    2.80999994
   15.13472176   99.61889648    0.58999997    2.82999992
   15.13805580   99.69129944    0.58999997    2.82999992
   15.14111137  102.40299988    0.58999997    2.82999992
   15.14722252  102.40299988    0.58999997    2.82999992
   15.15138817  102.11299896    0.58999997    2.80999994
   15.15472221  104.78099823    0.61000001    2.80999994
   15.15777779  100.54399872    0.63000000    2.80999994
   15.16111088  106.97499847    0.63000000    2.80999994
   15.16444397   99.76460266    0.64999998    2.80999994
   15.16750050   98.99859619    0.64999998    2.80999994
   15.17083359  104.20200348    0.64999998    2.80999994
   15.17388916  104.41600037    0.64999998    2.80999994
   15.17722225  103.77600098    0.64999998    2.80999994
   15.18055630  104.95800018    0.64999998    2.80999994
   15.18361092   96.61329651    0.64999998    2.82999992
   15.18472195  100.82900238    0.64999998    2.82999992
   15.19027805  100.82900238    0.64999998    2.80999994
   15.19416714  101.44599915    0.67000002    2.82999992
   15.19750023  102.51599884    0.67000002    2.80999994
   15.20083332  107.76200104    0.64999998    2.80999994
   15.21833324   99.47100067    0.67000002    2.82999992
   15.22083282  100.05100250    0.67000002    2.82999992
   15.22388840   99.32710266    0.64999998    2.80999994
   15.22722149  102.84300232    0.64999998    2.80999994
   15.23305511  102.84300232    0.63000000    2.80999994
   15.23722267  100.80100250    0.61000001    2.82999992
   15.24055576   97.01979828    0.61000001    2.82999992
   15.24361134  103.90200043    0.61000001    2.80999994
   15.24694443   98.05310059    0.63000000    2.82999992
   15.25027752  101.75299835    0.61000001    2.80999994
   15.25166702  103.52100372    0.61000001    2.82999992
   15.25361156   95.95480347    0.61000001    2.82999992
   15.25694466   96.42559814    0.61000001    2.82999992
   15.26027775  104.34799957    0.61000001    2.80999994
   15.26333332   98.39949799    0.61000001    2.82999992
   15.26666641   99.55220032    0.61000001    2.80999994
   15.26972198  100.93099976    0.61000001    2.80999994
   15.27611065  100.93099976    0.61000001    2.82999992
   15.27999973   98.66470337    0.58999997    2.80999994
   15.28333378  103.54000092    0.58999997    2.80999994
   15.28500080   97.23850250    0.61000001    2.80999994
   15.28694534  105.87999725    0.61000001    2.80999994
   15.29027843   99.36660004    0.61000001    2.80999994
   15.29361153   98.59670258    0.63000000    2.82999992
   15.29666710  105.96499634    0.63000000    2.80999994
   15.30000019   97.45559692    0.63000000    2.80999994
   15.30333328   98.43019867    0.63000000    2.80999994
   15.30638885   96.78119659    0.67000002    2.80999994
   15.30972195  104.48799896    0.64999998    2.80999994
   15.31305599  101.10800171    0.64999998    2.80999994
   15.31888866  101.10800171    0.67000002    2.80999994
   15.32305527  104.43000031    0.67000002    2.78999996
   15.32611084   96.46630096    0.67000002    2.78999996
   15.32944393  103.34400177    0.67000002    2.78999996
   15.33277798  100.84200287    0.67000002    2.78999996
   15.33583260  100.04299927    0.67000002    2.80999994
   15.33916664   96.36609650    0.64999998    2.78999996
   15.34222221  102.51200104    0.64999998    2.78999996
   15.34555531  105.66500092    0.64999998    2.82999992
   15.34888840  104.68000031    0.63000000    2.82999992
   15.35166740  107.70099640    0.63000000    2.80999994
   15.35222244  104.74099731    0.63000000    2.80999994
   15.35555553  104.61799622    0.63000000    2.80999994
   15.36166668  104.61799622    0.64999998    2.82999992
   15.36583328  105.01999664    0.64999998    2.80999994
   15.36916637  107.78399658    0.64999998    2.80999994
   15.37222195  100.19599915    0.63000000    2.80999994
   15.37555599  106.28800201    0.63000000    2.80999994
   15.37861156  101.03099823    0.61000001    2.80999994
   15.38194466  104.05000305    0.61000001    2.80999994
   15.38500023  103.91799927    0.61000001    2.82999992
   15.38583279  110.50399780    0.61000001    2.82999992
   15.38888836  105.02300262    0.61000001    2.80999994
   15.39222240  108.66899872    0.61000001    2.80999994
   15.39527798  105.79000092    0.63000000    2.80999994
   15.39861107   97.87770081    0.61000001    2.80999994
   15.40444374   97.87770081    0.61000001    2.80999994
   15.40861034  106.66500092    0.63000000    2.80999994
   15.41194439  105.83300018    0.61000001    2.80999994
   15.41499996  111.04799652    0.61000001    2.80999994
   15.41833401  111.17600250    0.63000000    2.80999994
   15.41861153   95.89540100    0.63000000    2.80999994
   15.42194462   95.16179657    0.64999998    2.82999992
   15.42527771  103.03900146    0.64999998    2.82999992
   15.42833328  110.30599976    0.67000002    2.80999994
   15.43166733  104.63999939    0.67000002    2.82999992
   15.43500042  110.43499756    0.64999998    2.80999994
   15.43805599  109.30400085    0.63000000    2.80999994
   15.44138908  113.25299835    0.61000001    2.80999994
   15.44722271  113.25299835    0.58999997    2.82999992
   15.45138836   94.95149994    0.58999997    2.80999994
   15.45194435   95.67559814    0.58999997    2.80999994
   15.45527744  107.70899963    0.56999999    2.80999994
   15.45833302   98.34140015    0.58999997    2.80999994
   15.46166611  102.40000153    0.58999997    2.80999994
   15.46500015  102.79399872    0.58999997    2.80999994
   15.46805477  105.83699799    0.63000000    2.82999992
   15.47138882  103.32900238    0.63000000    2.80999994
   15.47472191   97.07029724    0.63000000    2.82999992
   15.47777748  100.41200256    0.63000000    2.80999994
   15.48111057  102.57800293    0.64999998    2.80999994
   15.48416710  103.55000305    0.64999998    2.82999992
   15.48527813   98.17160034    0.67000002    2.80999994
   15.49027824   98.17160034    0.67000002    2.78999996
   15.49444485   96.51329803    0.69000000    2.80999994
   15.49750042  105.36699677    0.69000000    2.80999994
   15.50083351  101.45899963    0.73000002    2.78999996
   15.50416660   96.08950043    0.73000002    2.78999996
   15.50722218   95.42209625    0.70999998    2.78999996
   15.51055527  103.94599915    0.70999998    2.78999996
   15.51361084   97.29090118    0.70999998    2.80999994
   15.51694393   98.51149750    0.69000000    2.80999994
   15.51861095   93.75730133    0.69000000    2.80999994
   15.52055550   96.22579956    0.67000002    2.80999994
   15.52361107  101.21399689    0.70999998    2.80999994
   15.52694416   99.42880249    0.69000000    2.80999994
   15.53305531   99.42880249    0.79000002    2.80999994
   15.53722286   95.13200378    0.79000002    2.80999994
   15.54027843  101.02799988    0.80000001    2.80999994
   15.54361153  103.22599792    0.79000002    2.78999996
   15.54694462  103.89700317    0.79000002    2.80999994
   15.55000019  104.90799713    0.80000001    2.80999994
   15.55194473  101.33200073    0.80000001    2.78999996
   15.55361176  106.08599854    0.79000002    2.80999994
   15.55666733  103.52600098    0.79000002    2.80999994
   15.56000042  103.96099854    0.76999998    2.80999994
   15.56333351   99.19159698    0.79000002    2.80999994
   15.56638908  101.91999817    0.76999998    2.80999994
   15.56972218  104.65200043    0.79000002    2.80999994
   15.57583332  104.65200043    0.76999998    2.80999994
   15.57999992   99.27020264    0.76999998    2.78999996
   15.58333302   94.24420166    0.76999998    2.80999994
   15.58527756   98.46309662    0.75000000    2.80999994
   15.58694458   97.00759888    0.75000000    2.80999994
   15.59027767  100.72299957    0.75000000    2.80999994
   15.59333324  104.80999756    0.76999998    2.78999996
   15.59666634   98.44000244    0.75000000    2.80999994
   15.59972191  104.02899933    0.75000000    2.80999994
   15.60305595  101.28299713    0.73000002    2.80999994
   15.60638905  100.64600372    0.73000002    2.80999994
   15.60944462   97.35679626    0.70999998    2.80999994
   15.61277771   92.99669647    0.70999998    2.80999994
   15.61861134   92.99669647    0.75000000    2.80999994
   15.62277794   97.01789856    0.75000000    2.80999994
   15.62611103   97.16510010    0.75000000    2.80999994
   15.62944412   97.94010162    0.75000000    2.80999994
   15.63249969   98.86640167    0.79000002    2.80999994
   15.63583279  100.09899902    0.76999998    2.80999994
   15.63916683   95.48110199    0.79000002    2.80999994
   15.64222240   93.14759827    0.79000002    2.80999994
   15.64555550   98.39499664    0.79000002    2.80999994
   15.64888859   96.59600067    0.76999998    2.80999994
   15.65194416   95.80740356    0.76999998    2.80999994
   15.65249920   96.99700165    0.76999998    2.80999994
   15.65583324   94.28089905    0.75000000    2.80999994
   15.66194439   94.28089905    0.76999998    2.80999994
   15.66611099   96.62169647    0.76999998    2.80999994
   15.66916656   99.11740112    0.79000002    2.80999994
   15.67250061   97.31459808    0.76999998    2.80999994
   15.67583370   93.60769653    0.75000000    2.80999994
   15.67888927   97.03140259    0.76999998    2.82999992
   15.68222237   96.35749817    0.76999998    2.80999994
   15.68527794   94.70980072    0.76999998    2.80999994
   15.68583298   95.41840363    0.75000000    2.80999994
   15.68916702   95.96620178    0.75000000    2.80999994
   15.69222260   96.07849884    0.76999998    2.80999994
   15.69555569   98.05970001    0.75000000    2.80999994
   15.69861126   98.63619995    0.79000002    2.80999994
   15.70444393   98.63619995    0.79000002    2.80999994
   15.70861053   95.62819672    0.75000000    2.80999994
   15.71166611   95.28849792    0.75000000    2.80999994
   15.71500015   95.85199738    0.75000000    2.80999994
   15.71833324   95.21440125    0.75000000    2.80999994
   15.71888828   93.52390289    0.75000000    2.80999994
   15.72166634   95.33239746    0.70999998    2.80999994
   15.72499943   94.15470123    0.70999998    2.80999994
   15.72805500   88.76869965    0.67000002    2.80999994
   15.73138809   96.96260071    0.69000000    2.80999994
   15.73472214   98.87760162    0.69000000    2.80999994
   15.73777771   96.20400238    0.67000002    2.80999994
   15.74111176   99.83940125    0.67000002    2.80999994
   15.74722290   99.83940125    0.69000000    2.80999994
   15.75138855   97.82649994    0.69000000    2.80999994
   15.75222206   97.10050201    0.69000000    2.80999994
   15.75500011   97.38040161    0.69000000    2.80999994
   15.75833321   94.11699677    0.69000000    2.80999994
   15.76138878  103.22299957    0.73000002    2.80999994
   15.76472187   98.00229645    0.73000002    2.82999992
   15.76805496  101.31900024    0.73000002    2.80999994
   15.77111053  100.29000092    0.73000002    2.80999994
   15.77444458  101.92400360    0.73000002    2.80999994
   15.77777767   97.52429962    0.73000002    2.80999994
   15.78083324   95.94159698    0.73000002    2.80999994
   15.78416729   95.67520142    0.73000002    2.80999994
   15.78555584  100.48300171    0.79000002    2.78999996
   15.79027843  100.48300171    0.79000002    2.80999994
   15.79416752  100.70200348    0.79000002    2.82999992
   15.79750061   95.78540039    0.75000000    2.80999994
   15.80083370   96.31009674    0.70999998    2.80999994
   15.80388927   95.70339966    0.70999998    2.80999994
   15.80722237   96.99269867    0.70999998    2.80999994
   15.81055546   94.86859894    0.69000000    2.80999994
   15.81361103   94.98300171    0.69000000    2.80999994
   15.81694412   98.43240356    0.69000000    2.80999994
   15.81888866   95.19979858    0.67000002    2.82999992
   15.82083321   93.64630127    0.67000002    2.82999992
   15.82416630   95.73560333    0.67000002    2.82999992
   15.82722187   95.55059814    0.67000002    2.80999994
   15.83305550   95.55059814    0.67000002    2.80999994
   15.83722210   95.48500061    0.67000002    2.80999994
   15.84027767   97.06400299    0.67000002    2.80999994
   15.84361076   94.14510345    0.67000002    2.80999994
   15.84666634   93.49040222    0.69000000    2.82999992
   15.85000038  101.44100189    0.69000000    2.82999992
   15.85222244   98.18579865    0.70999998    2.80999994
   15.85361195   94.07599640    0.70999998    2.80999994
   15.85694504   97.42859650    0.70999998    2.82999992
   15.86027813   96.18260193    0.75000000    2.82999992
   15.86333370   95.31189728    0.76999998    2.80999994
   15.86666679   96.13980103    0.75000000    2.82999992
   15.86972237   97.05960083    0.75000000    2.82999992
   15.87583351   97.05960083    0.70999998    2.80999994
   15.88000011   95.97309875    0.70999998    2.80999994
   15.88305569   90.91699982    0.70999998    2.80999994
   15.88555527   94.99009705    0.76999998    2.82999992
   15.88666630   97.67060089    0.76999998    2.82999992
   15.89000034   97.35289764    0.80000001    2.80999994
   15.89333344   96.17630005    0.75000000    2.82999992
   15.89638901  101.34899902    0.73000002    2.80999994
   15.89972210   99.13890076    0.70999998    2.80999994
   15.90277767   96.99490356    0.70999998    2.80999994
   15.90611076   98.65509796    0.73000002    2.80999994
   15.90944386   96.69149780    0.73000002    2.80999994
   15.91249943   95.33699799    0.75000000    2.82999992
   15.91861153   95.33699799    0.79000002    2.82999992
   15.92277813   91.05580139    0.80000001    2.80999994
   15.92611122   96.31359863    0.80000001    2.80999994
   15.92916679   98.04709625    0.81999999    2.80999994
   15.93249989   95.40889740    0.81999999    2.80999994
   15.93583298   95.38610077    0.83999997    2.82999992
   15.93888855   97.17829895    0.81999999    2.80999994
   15.94222260   98.48259735    0.81999999    2.80999994
   15.94527817   92.96420288    0.81999999    2.80999994
   15.94861126   98.03720093    0.81999999    2.80999994
   15.95194435   98.41649628    0.81999999    2.80999994
   15.95361137   99.38629913    0.81999999    2.80999994
   15.95555496   97.27359772    0.83999997    2.80999994
   15.96138859   97.27359772    0.86000001    2.82999992
   15.96555519   94.59510040    0.83999997    2.80999994
   15.96888828   94.70220184    0.81999999    2.80999994
   15.97222137   97.20680237    0.81999999    2.80999994
   15.97527695   98.41300201    0.80000001    2.80999994
   15.97861099   96.80740356    0.80000001    2.80999994
   15.98166656   99.06020355    0.80000001    2.80999994
   15.98500061   99.89969635    0.80000001    2.82999992
   15.98694515   99.60430145    0.80000001    2.80999994
   15.98861122   97.05909729    0.80000001    2.80999994
   15.99194431   96.92359924    0.81999999    2.82999992
   15.99499989   97.71569824    0.80000001    2.80999994
   15.99833393   96.00180054    0.81999999    2.80999994
   16.00444412   96.00180054    0.83999997    2.80999994
   16.00861168   97.47979736    0.81999999    2.80999994
   16.01166725   96.19409943    0.86000001    2.80999994
   16.01499939   99.29029846    0.86000001    2.80999994
   16.01805496   98.03749847    0.80000001    2.78999996
   16.02055550   96.67009735    0.80000001    2.78999996
   16.02194405   98.63819885    0.79000002    2.82999992
   16.02499962   94.53410339    0.76999998    2.82999992
   16.02833366   94.84159851    0.75000000    2.80999994
   16.03166580   97.14849854    0.75000000    2.80999994
   16.03472137   98.30629730    0.73000002    2.80999994
   16.03805542   91.61609650    0.73000002    2.80999994
   16.04111099   95.85340118    0.70999998    2.80999994
   16.04722214   95.85340118    0.67000002    2.80999994
   16.05138779  104.30699921    0.67000002    2.80999994
   16.05388832   98.17590332    0.64999998    2.80999994
   16.05499840  112.32099915    0.64999998    2.82999992
   16.05805397   97.12789917    0.67000002    2.82999992
   16.06138802   95.88110352    0.67000002    2.82999992
   16.06444359   97.20120239    0.69000000    2.82999992
   16.06777954   99.69390106    0.69000000    2.82999992
   16.07111168  101.23999786    0.69000000    2.82999992
   16.07416725  101.62899780    0.64999998    2.82999992
   16.07750130   98.73000336    0.67000002    2.80999994
   16.08083344   97.45149994    0.67000002    2.80999994
   16.08388901   97.74310303    0.63000000    2.80999994
   16.09000015   97.74310303    0.63000000    2.82999992
   16.09444427   97.88970184    0.67000002    2.82999992
   16.09749985   98.41840363    0.64999998    2.82999992
   16.10083389   94.22589874    0.64999998    2.82999992
   16.10416794   95.42279816    0.61000001    2.80999994
   16.10722351   94.22989655    0.61000001    2.82999992
   16.11055565   93.99179840    0.61000001    2.82999992
   16.11388969   98.21649933    0.61000001    2.82999992
   16.11694527   95.48390198    0.63000000    2.82999992
   16.12027740   99.06909943    0.63000000    2.82999992
   16.12111092  100.76999664    0.64999998    2.80999994
   16.12416649   98.24009705    0.64999998    2.80999994
   16.12722206   99.62229919    0.61000001    2.82999992
   16.13277817   99.62229919    0.61000001    2.82999992
   16.13694382  100.44000244    0.56999999    2.82999992
   16.14027786   98.92040253    0.52999997    2.80999994
   16.14361191  101.69499969    0.52999997    2.80999994
   16.14694405  100.65699768    0.52999997    2.82999992
   16.14999962  103.66300201    0.51999998    2.82999992
   16.15333366   99.11060333    0.52999997    2.82999992
   16.15416718  102.64900208    0.52999997    2.82999992
   16.15694427  100.09899902    0.52999997    2.82999992
   16.16027832   96.74089813    0.52999997    2.82999992
   16.16333389   96.96199799    0.52999997    2.82999992
   16.16666603   96.04280090    0.52999997    2.82999992
   16.17000008   96.94239807    0.52999997    2.82999992
   16.17583275   96.94239807    0.58999997    2.82999992
   16.18000031   97.84750366    0.61000001    2.82999992
   16.18305397   97.77839661    0.63000000    2.82999992
   16.18638802   94.59249878    0.70999998    2.82999992
   16.18777657   95.25469971    0.70999998    2.82999992
   16.18999863   95.70899963    0.70999998    2.82999992
   16.19305420   96.12390137    0.64999998    2.80999994
   16.19638824  101.59500122    0.64999998    2.82999992
   16.19972038   95.87100220    0.64999998    2.82999992
   16.20277786   96.58439636    0.61000001    2.82999992
   16.20611191   99.55729675    0.61000001    2.82999992
   16.20916748   95.86389923    0.61000001    2.82999992
   16.21250153   96.27729797    0.61000001    2.82999992
   16.21861076   96.27729797    0.67000002    2.80999994
   16.23694420   96.39379883    0.64999998    2.82999992
   16.24027824   93.96289825    0.64999998    2.82999992
   16.24333382   96.14420319    0.61000001    2.82999992
   16.24666786   96.36859894    0.61000001    2.82999992
   16.25000000   96.06199646    0.61000001    2.82999992
   16.25305557   93.61360168    0.58999997    2.82999992
   16.25638962   99.64849854    0.58999997    2.82999992
   16.26166725   99.64849854    0.56999999    2.82999992
   16.26583290   98.28549957    0.61000001    2.82999992
   16.26888847  103.20300293    0.61000001    2.82999992
   16.27000046  101.33899689    0.63000000    2.82999992
   16.27277756   97.40350342    0.63000000    2.82999992
   16.27583313   99.72519684    0.63000000    2.82999992
   16.27916718   93.19969940    0.63000000    2.82999992
   16.28249931  104.80300140    0.61000001    2.82999992
   16.28555489  100.74400330    0.61000001    2.82999992
   16.28888893   98.55819702    0.61000001    2.82999992
   16.29194450  102.34899902    0.61000001    2.80999994
   16.29527664   96.47750092    0.61000001    2.82999992
   16.29861069   99.49909973    0.64999998    2.82999992
   16.30444336   99.49909973    0.63000000    2.82999992
   16.30861092   96.16339874    0.63000000    2.82999992
   16.31194305   92.63220215    0.63000000    2.82999992
   16.31499863   94.92459869    0.63000000    2.82999992
   16.31833458   97.12760162    0.63000000    2.82999992
   16.32166672   96.52980042    0.61000001    2.82999992
   16.32472229   93.74800110    0.58999997    2.82999992
   16.32805634   99.71669769    0.61000001    2.82999992
   16.33111191   97.77369690    0.61000001    2.82999992
   16.33444595   93.80039978    0.61000001    2.82999992
   16.33666801   94.23020172    0.61000001    2.82999992
   16.33805656   96.68009949    0.61000001    2.82999992
   16.34111214   95.25520325    0.63000000    2.82999992
   16.34722328   95.25520325    0.61000001    2.82999992
   16.35138893   97.48229980    0.61000001    2.82999992
   16.35472298   91.23229980    0.58999997    2.82999992
   16.35805511  100.41400146    0.61000001    2.80999994
   16.36111069   94.67009735    0.61000001    2.80999994
   16.36444473   96.46559906    0.61000001    2.82999992
   16.36750031   97.45490265    0.61000001    2.82999992
   16.37000084  100.11900330    0.61000001    2.82999992
   16.37138939   95.56369781    0.61000001    2.82999992
   16.37444496   95.39610291    0.58999997    2.82999992
   16.37777710   96.45410156    0.61000001    2.82999992
   16.38111115   98.07810211    0.58999997    2.82999992
   16.38416672   97.53540039    0.58999997    2.82999992
   16.39027786   97.53540039    0.56999999    2.82999992
   16.39444351   95.89890289    0.58999997    2.82999992
   16.39749908  101.70700073    0.56999999    2.82999992
   16.40083313   92.01580048    0.56999999    2.82999992
   16.40333366   95.04049683    0.56999999    2.82999992
   16.40444374   93.30030060    0.56999999    2.82999992
   16.40777779   95.45549774    0.56999999    2.82999992
   16.41083336   93.68280029    0.56999999    2.82999992
   16.41416550   92.76039886    0.58999997    2.82999992
   16.41722107   94.04479980    0.58999997    2.82999992
   16.42055511   93.82319641    0.58999997    2.82999992
   16.42388916   94.99299622    0.58999997    2.82999992
   16.42694473   95.76940155    0.58999997    2.82999992
   16.43305397   95.76940155    0.58999997    2.82999992
   16.43722153   96.28659821    0.58999997    2.82999992
   16.44027710  100.24500275    0.58999997    2.82999992
   16.44361115   92.95549774    0.56999999    2.82999992
   16.44694328   95.80599976    0.56999999    2.82999992
   16.45000076  101.19400024    0.56999999    2.82999992
   16.45333481   99.67559814    0.55000001    2.82999992
   16.45666695  102.21099854    0.55000001    2.82999992
   16.45972252   94.89669800    0.55000001    2.80999994
   16.46305656   94.61859894    0.55000001    2.82999992
   16.46638870   95.99960327    0.56999999    2.82999992
   16.46944427   93.91970062    0.56999999    2.82999992
   16.47027779   91.09559631    0.56999999    2.82999992
   16.47583389   91.09559631    0.56999999    2.80999994
   16.48000145   97.11759949    0.56999999    2.82999992
   16.48333359   97.34449768    0.58999997    2.82999992
   16.48638916   97.81929779    0.58999997    2.82999992
   16.48972321   96.37090302    0.58999997    2.82999992
   16.49305534  100.10500336    0.61000001    2.82999992
   16.49611092   95.63819885    0.61000001    2.84999990
   16.49944496  101.12100220    0.58999997    2.82999992
   16.50250053  101.45700073    0.58999997    2.82999992
   16.50333405   91.85880280    0.61000001    2.82999992
   16.50638962   96.80819702    0.61000001    2.82999992
   16.50972176   94.44480133    0.61000001    2.82999992
   16.51277733   95.24299622    0.61000001    2.82999992
   16.51861000   95.24299622    0.61000001    2.82999992
   16.52277756   95.99839783    0.61000001    2.82999992
   16.52611160   93.97779846    0.61000001    2.82999992
   16.52944374   93.30319977    0.61000001    2.82999992
   16.53249931   94.57080078    0.61000001    2.80999994
   16.53583336   97.69589996    0.63000000    2.82999992
   16.53666687  100.82800293    0.63000000    2.82999992
   16.53944397   94.01730347    0.61000001    2.82999992
   16.54249954   96.00219727    0.61000001    2.82999992
   16.54583359   96.86560059    0.63000000    2.82999992
   16.54916573  104.13300323    0.61000001    2.82999992
   16.55222130   96.93789673    0.61000001    2.82999992
   16.55555534   99.38249969    0.58999997    2.82999992
   16.56166649   99.38249969    0.58999997    2.82999992
   16.56583214   98.58010101    0.61000001    2.82999992
   16.56888962   98.12059784    0.61000001    2.84999990
   16.57000160   93.35420227    0.61000001    2.84999990
   16.57250023   99.09300232    0.63000000    2.82999992
   16.57583427   92.39649963    0.63000000    2.82999992
   16.57888985  100.48899841    0.63000000    2.82999992
   16.58222389   94.18750000    0.63000000    2.82999992
   16.58527756   94.10430145    0.63000000    2.82999992
   16.58861160  100.11199951    0.67000002    2.82999992
   16.59194565   93.75260162    0.67000002    2.82999992
   16.59500122   88.44680023    0.70999998    2.82999992
   16.59833336   94.57250214    0.73000002    2.82999992
   16.60444450   94.57250214    0.73000002    2.82999992
   16.60861206   92.85630035    0.73000002    2.80999994
   16.61166763  101.89199829    0.73000002    2.80999994
   16.61499977   96.42579651    0.75000000    2.82999992
   16.61833382  100.51699829    0.79000002    2.80999994
   16.62138939   97.73449707    0.80000001    2.82999992
   16.62472153   97.25910187    0.81999999    2.80999994
   16.62805557   95.36769867    0.80000001    2.82999992
   16.63111115  103.60399628    0.80000001    2.82999992
   16.63444519   98.08399963    0.80000001    2.80999994
   16.63666725   97.04100037    0.80000001    2.82999992
   16.63805580  100.99400330    0.80000001    2.82999992
   16.64138794   98.82990265    0.80000001    2.82999992
   16.64722252   98.82990265    0.80000001    2.80999994
   16.65138817   97.52339935    0.79000002    2.80999994
   16.65472221   95.58809662    0.79000002    2.82999992
   16.65777779   97.58270264    0.79000002    2.82999992
   16.66110992   96.10459900    0.80000001    2.82999992
   16.66444397   97.66510010    0.80000001    2.82999992
   16.66749954   95.23280334    0.79000002    2.82999992
   16.67000008   95.41829681    0.76999998    2.82999992
   16.67111015   91.63020325    0.76999998    2.82999992
   16.67444420   95.04450226    0.75000000    2.82999992
   16.67749977   99.23819733    0.75000000    2.82999992
   16.68083191   97.45220184    0.73000002    2.82999992
   16.68416595  100.72499847    0.70999998    2.82999992
   16.68999863  100.72499847    0.70999998    2.82999992
   16.69416618   98.43679810    0.70999998    2.84999990
   16.69749832   95.45839691    0.70999998    2.82999992
   16.70083427   96.13510132    0.70999998    2.82999992
   16.70333481   98.31670380    0.70999998    2.82999992
   16.70444489  101.44300079    0.70999998    2.82999992
   16.70777893   95.21209717    0.69000000    2.82999992
   16.71083450   95.29209900    0.69000000    2.82999992
   16.71416664   96.87409973    0.67000002    2.82999992
   16.71722221   95.74739838    0.64999998    2.82999992
   16.72055626   89.77559662    0.64999998    2.82999992
   16.72389030   92.83429718    0.63000000    2.84999990
   16.72694588   92.14749908    0.61000001    2.82999992
   16.73305511   92.14749908    0.58999997    2.82999992
   16.73722267   98.78549957    0.58999997    2.82999992
   16.74027824   97.86540222    0.58999997    2.82999992
   16.74361229   97.46920013    0.56999999    2.84999990
   16.74694443   95.15529633    0.55000001    2.84999990
   16.75027847  100.66999817    0.55000001    2.84999990
   16.75333405   97.28800201    0.56999999    2.82999992
   16.75666618   95.02020264    0.58999997    2.82999992
   16.75972176   98.84249878    0.58999997    2.82999992
   16.76305580   99.55269623    0.61000001    2.82999992
   16.76638794   98.34390259    0.61000001    2.82999992
   16.76944351   96.69999695    0.61000001    2.82999992
   16.77000046  100.12599945    0.63000000    2.82999992
   16.77583313  100.12599945    0.63000000    2.84999990
   16.78000069   99.40679932    0.64999998    2.82999992
   16.78305435   94.18160248    0.64999998    2.82999992
   16.78638840   91.95240021    0.64999998    2.84999990
   16.78972244   94.66690063    0.69000000    2.82999992
   16.79277802   91.07160187    0.75000000    2.82999992
   16.79611015   90.27749634    0.75000000    2.82999992
   16.79944420   97.20290375    0.75000000    2.82999992
   16.80249977   93.20459747    0.70999998    2.82999992
   16.80333328   93.05120087    0.70999998    2.82999992
   16.80611038   95.91410065    0.69000000    2.82999992
   16.80944443   98.08460236    0.69000000    2.82999992
   16.81250000   98.98449707    0.67000002    2.82999992
   16.81861115   98.98449707    0.69000000    2.82999992
   16.82277870   99.08740234    0.69000000    2.84999990
   16.82611275   97.42700195    0.64999998    2.82999992
   16.82916832   93.79519653    0.64999998    2.84999990
   16.83250046   93.73159790    0.61000001    2.82999992
   16.83583450   95.21530151    0.61000001    2.82999992
   16.83666801   95.60119629    0.61000001    2.82999992
   16.83944511   94.21309662    0.58999997    2.84999990
   16.84277916   95.57399750    0.67000002    2.82999992
   16.84583473   96.61360168    0.56999999    2.84999990
   16.84916687   96.61260223    0.56999999    2.84999990
   16.85222244   94.22139740    0.56999999    2.82999992
   16.85555649   96.09030151    0.55000001    2.82999992
   16.86138916   96.09030151    0.55000001    2.82999992
   16.86555672   91.65750122    0.56999999    2.82999992
   16.86888885   98.71630096    0.56999999    2.82999992
   16.87000084   95.10030365    0.56999999    2.82999992
   16.87249947   95.24490356    0.56999999    2.82999992
   16.87583351   92.27269745    0.56999999    2.82999992
   16.87888908   95.22370148    0.56999999    2.82999992
   16.88222313   98.61969757    0.55000001    2.82999992
   16.88527679   97.89510345    0.55000001    2.82999992
   16.88861084   97.89679718    0.52999997    2.82999992
   16.89194489   98.89029694    0.52999997    2.82999992
   16.89500046   92.85099792    0.55000001    2.84999990
   16.89833260   97.13950348    0.56999999    2.82999992
   16.90444374   97.13950348    0.58999997    2.82999992
   16.90861130   94.53130341    0.58999997    2.82999992
   16.91166687   93.57939911    0.61000001    2.82999992
   16.91499901   92.31490326    0.63000000    2.82999992
   16.91805458   95.18759918    0.63000000    2.82999992
   16.92138863   91.94120026    0.63000000    2.82999992
   16.92472076   94.34880066    0.61000001    2.82999992
   16.92777634   94.71309662    0.61000001    2.82999992
   16.93111038   93.14569855    0.61000001    2.82999992
   16.93444443   95.96250153    0.61000001    2.84999990
   16.93666649   97.47530365    0.61000001    2.82999992
   16.93805504   94.82550049    0.61000001    2.82999992
   16.94138718   99.32340240    0.61000001    2.84999990
   16.94722176   99.32340240    0.58999997    2.84999990
   16.95138931   99.04830170    0.58999997    2.84999990
   16.95444489  101.48899841    0.61000001    2.82999992
   16.95777893  103.43900299    0.63000000    2.82999992
   16.96111107   98.39939880    0.61000001    2.82999992
   16.96416664   92.56670380    0.61000001    2.84999990
   16.96750069   97.53220367    0.63000000    2.84999990
   16.97000122   94.47650146    0.63000000    2.84999990
   16.97111130   92.35279846    0.63000000    2.80999994
   16.97444534   95.76480103    0.61000001    2.82999992
   16.97750092  103.56500244    0.63000000    2.82999992
   16.98083305  100.44400024    0.64999998    2.82999992
   16.98388863   95.17680359    0.64999998    2.82999992
   16.98999977   95.17680359    0.64999998    2.82999992
   16.99416733   92.26229858    0.63000000    2.84999990
   16.99749947  102.22200012    0.64999998    2.84999990
   17.00055504   97.51080322    0.64999998    2.82999992
   17.00333405   93.62640381    0.64999998    2.82999992
   17.00416756  102.76000214    0.64999998    2.82999992
   17.00749969   98.60489655    0.63000000    2.82999992
   17.01055527  101.92700195    0.61000001    2.82999992
   17.01388931  103.91000366    0.61000001    2.82999992
   17.01694489   98.54660034    0.61000001    2.82999992
   17.02027702   98.81259918    0.61000001    2.82999992
   17.02361107   95.31099701    0.61000001    2.82999992
   17.02666664   97.43990326    0.63000000    2.82999992
   17.03305435   97.43990326    0.63000000    2.82999992
   17.03694344   96.62500000    0.63000000    2.82999992
   17.04027748   98.12689972    0.61000001    2.82999992
   17.04361153   99.71739960    0.63000000    2.84999990
   17.04666710   96.87300110    0.63000000    2.84999990
   17.04999924  101.97200012    0.63000000    2.82999992
   17.05333328   99.14279938    0.63000000    2.82999992
   17.05638885   95.03710175    0.63000000    2.82999992
   17.05972099  110.19499969    0.63000000    2.82999992
   17.06277657   98.03440094    0.63000000    2.82999992
   17.06611061  101.58799744    0.63000000    2.82999992
   17.06944466   99.03299713    0.63000000    2.84999990
   17.07000160   97.66729736    0.63000000    2.84999990
   17.07583427   97.66729736    0.63000000    2.84999990
   17.08000183   97.57649994    0.61000001    2.82999992
   17.08305550   95.81120300    0.63000000    2.82999992
   17.08638954  101.64399719    0.63000000    2.82999992
   17.08944511   95.80549622    0.63000000    2.82999992
   17.09277916   95.73899841    0.63000000    2.82999992
   17.09611130  100.40499878    0.63000000    2.82999992
   17.09944534   92.63880157    0.63000000    2.82999992
   17.10250092  106.40899658    0.61000001    2.84999990
   17.10333443   94.95210266    0.61000001    2.84999990
   17.10611153   93.54699707    0.61000001    2.84999990
   17.10944557   96.91950226    0.58999997    2.84999990
   17.11250114   98.06240082    0.58999997    2.84999990
   17.11861038   98.06240082    0.56999999    2.82999992
   17.12277794   99.08239746    0.55000001    2.84999990
   17.12583351   96.17880249    0.55000001    2.82999992
   17.12916756  108.83999634    0.58999997    2.82999992
   17.13249969  101.63999939    0.58999997    2.84999990
   17.13555527  102.39399719    0.58999997    2.82999992
   17.13666725   97.67060089    0.58999997    2.82999992
   17.13916588  112.81400299    0.58999997    2.84999990
   17.14249992  105.26799774    0.58999997    2.84999990
   17.14555550  112.52200317    0.56999999    2.84999990
   17.14888954  110.23300171    0.55000001    2.84999990
   17.15222168  107.70899963    0.51999998    2.84999990
   17.15527725  117.04699707    0.52999997    2.84999990
   17.16138840  117.04699707    0.51999998    2.84999990
   17.16555595  120.42800140    0.51999998    2.84999990
   17.16888809  128.52499390    0.52999997    2.84999990
   17.17000008  128.85099792    0.52999997    2.84999990
   17.17249870  139.03399658    0.52999997    2.84999990
   17.17583275  137.57800293    0.51999998    2.82999992
   17.17888832  160.49099731    0.51999998    2.86999989
   17.18222237  193.96499634    0.51999998    2.84999990
   17.18555450  220.74699402    0.51999998    2.84999990
   17.18861008  262.15899658    0.50000000    2.84999990
   17.19194412  214.39799500    0.50000000    2.84999990
   17.19499969  130.12500000    0.47999999    2.84999990
   17.19833183  180.23800659    0.47999999    2.82999992
   17.20416832  180.23800659    0.47999999    2.82999992
   17.20833397   -1.00000000    0.47999999    2.84999990
   17.21166801   -1.00000000    0.47999999    2.84999990
   17.21500015   -1.00000000    0.47999999    2.84999990
   17.21805573   -1.00000000    0.46000001    2.84999990
   17.22138977   -1.00000000    0.47999999    2.84999990
   17.22472191   -1.00000000    0.47999999    2.84999990
   17.22777748   -1.00000000    0.47999999    2.84999990
   17.23111153   -1.00000000    0.47999999    2.84999990
   17.23416710  153.50799561    0.47999999    2.84999990
   17.23666763  104.34200287    0.47999999    2.84999990
   17.25861168  104.34200287    0.47999999    2.84999990
   17.26277733   97.02780151    0.47999999    2.84999990
   17.26583290   96.84079742    0.47999999    2.84999990
   17.26916695   97.82910156    0.47999999    2.84999990
   17.27027702   96.03459930    0.47999999    2.84999990
   17.27277756   99.50050354    0.50000000    2.82999992
   17.27583313  100.23200226    0.50000000    2.82999992
   17.27916718   97.79290009    0.50000000    2.82999992
   17.28222275  101.73999786    0.50000000    2.82999992
   17.28555489   97.44239807    0.50000000    2.84999990
   17.28888893   95.32849884    0.50000000    2.84999990
   17.29194450   99.72530365    0.50000000    2.82999992
   17.29527664  103.44499969    0.50000000    2.82999992
   17.30138779  103.44499969    0.50000000    2.82999992
   17.30555534  103.17700195    0.47999999    2.82999992
   17.30861092   97.99639893    0.50000000    2.82999992
   17.31194305   95.42639923    0.47999999    2.84999990
   17.31527710   95.87580109    0.47999999    2.84999990
   17.31833458   96.23110199    0.50000000    2.84999990
   17.32166672   93.86840057    0.51999998    2.84999990
   17.32472229   94.77870178    0.50000000    2.82999992
   17.32805634   94.79029846    0.50000000    2.84999990
   17.33139038   95.76329803    0.50000000    2.82999992
   17.33444595   99.11100006    0.50000000    2.82999992
   17.33694458   95.97730255    0.50000000    2.84999990
   17.33833313   95.46720123    0.50000000    2.84999990
   17.34416771   95.46720123    0.50000000    2.82999992
   17.34833336   99.44779968    0.50000000    2.82999992
   17.35138893   97.61039734    0.50000000    2.84999990
   17.35472298  100.48999786    0.50000000    2.84999990
   17.35805511   96.39279938    0.50000000    2.82999992
   17.36138916  100.12599945    0.51999998    2.82999992
   17.36444473   95.50839996    0.51999998    2.82999992
   17.36777878  106.82099915    0.51999998    2.82999992
   17.37027740   95.31030273    0.51999998    2.84999990
   17.37138939   97.25659943    0.51999998    2.84999990
   17.37444496   97.44010162    0.51999998    2.82999992
   17.37777710  101.90200043    0.51999998    2.82999992
   17.38083267  101.74099731    0.51999998    2.82999992
   17.38694382  101.74099731    0.51999998    2.82999992
   17.39111137   99.42019653    0.51999998    2.82999992
   17.39444351   99.17680359    0.51999998    2.82999992
   17.39749908   97.45539856    0.51999998    2.82999992
   17.40083313  102.04499817    0.51999998    2.82999992
   17.40388870  100.14099884    0.52999997    2.82999992
   17.40444374  104.76000214    0.52999997    2.82999992
   17.40777779  102.71199799    0.52999997    2.82999992
   17.41110992  106.45600128    0.51999998    2.82999992
   17.41416550   96.57810211    0.51999998    2.82999992
   17.41749954   99.66549683    0.51999998    2.82999992
   17.42083359  100.87200165    0.52999997    2.82999992
   17.42388916  101.58200073    0.52999997    2.82999992
   17.42972183  101.58200073    0.50000000    2.82999992
   17.43388748  102.03600311    0.50000000    2.82999992
   17.43722153   99.53880310    0.50000000    2.82999992
   17.43750000   99.42489624    0.50000000    2.82999992
   17.44083214   98.22689819    0.50000000    2.84999990
   17.44416618  100.94000244    0.50000000    2.82999992
   17.44722176   98.33630371    0.51999998    2.82999992
   17.45055580  103.65799713    0.51999998    2.82999992
   17.45361137  106.82800293    0.52999997    2.84999990
   17.45694542  102.01399994    0.52999997    2.82999992
   17.46027946  104.07199860    0.52999997    2.82999992
   17.46333504   98.11219788    0.52999997    2.82999992
   17.46666718  103.02500153    0.51999998    2.82999992
   17.47277832  103.02500153    0.55000001    2.82999992
   17.47694588  101.50000000    0.55000001    2.82999992
   17.48000145  100.16600037    0.55000001    2.82999992
   17.48333359  104.55000305    0.52999997    2.82999992
   17.48638916   98.60489655    0.51999998    2.84999990
   17.48972321  106.00099945    0.51999998    2.82999992
   17.49305534   91.86589813    0.50000000    2.82999992
   17.49611092  103.19400024    0.50000000    2.82999992
   17.49944496   99.60420227    0.47999999    2.82999992
   17.50277710   98.39880371    0.50000000    2.82999992
   17.50388908   96.68589783    0.50000000    2.82999992
   17.50611115   94.20010376    0.50000000    2.82999992
   17.50944519  100.99600220    0.50000000    2.82999992
   17.51555634  100.99600220    0.50000000    2.82999992
   17.51972198   90.65840149    0.50000000    2.82999992
   17.52305603  104.00399780    0.50000000    2.84999990
   17.52611160   93.98020172    0.52999997    2.84999990
   17.52944374   96.63459778    0.52999997    2.82999992
   17.53277779   95.85929871    0.52999997    2.84999990
   17.53583336   96.69339752    0.51999998    2.82999992
   17.53722191   95.33999634    0.51999998    2.82999992
   17.53944397  102.21900177    0.51999998    2.82999992
   17.54277802   94.78510284    0.51999998    2.82999992
   17.54611015   99.63529968    0.51999998    2.82999992
   17.54916573   97.71869659    0.52999997    2.84999990
   17.55249977   93.28399658    0.52999997    2.84999990
   17.55833244   93.28399658    0.52999997    2.84999990
   17.56250000   98.11910248    0.52999997    2.82999992
   17.56583214   99.45400238    0.55000001    2.82999992
   17.56888962   99.52079773    0.55000001    2.82999992
   17.57055664   97.12719727    0.55000001    2.82999992
   17.57277870   92.07060242    0.55000001    2.82999992
   17.57583427  170.03399658    0.55000001    2.82999992
   17.57916832   95.48860168    0.55000001    2.82999992
   17.58222389   99.93049622    0.55000001    2.82999992
   17.58555603   99.23410034    0.55000001    2.82999992
   17.58889008   97.15100098    0.52999997    2.82999992
   17.59194565   96.42330170    0.52999997    2.82999992
   17.59527779  101.92299652    0.52999997    2.82999992
   17.60111237  101.92299652    0.51999998    2.84999990
   17.60527802  101.98899841    0.51999998    2.82999992
   17.60861206  101.12799835    0.50000000    2.82999992
   17.61166763  101.07700348    0.51999998    2.82999992
   17.61499977  100.16000366    0.52999997    2.82999992
   17.61833382   98.37539673    0.51999998    2.82999992
   17.62138939   96.05069733    0.52999997    2.82999992
   17.62472153   98.70279694    0.52999997    2.82999992
   17.62805557   96.56259918    0.52999997    2.82999992
   17.63111115   95.03160095    0.55000001    2.82999992
   17.63444519   98.92120361    0.52999997    2.82999992
   17.63722229   96.78359985    0.51999998    2.82999992
   17.63805580   99.24610138    0.51999998    2.82999992
   17.64416695   99.24610138    0.52999997    2.82999992
   17.64805603  104.42299652    0.51999998    2.82999992
   17.65138817  104.00000000    0.50000000    2.82999992
   17.65472221   98.07199860    0.51999998    2.82999992
   17.65777779  104.52400208    0.51999998    2.82999992
   17.66110992   99.29969788    0.51999998    2.82999992
   17.66444397   95.34359741    0.51999998    2.82999992
   17.66749954   95.88120270    0.51999998    2.82999992
   17.67055511   96.37419891    0.52999997    2.82999992
   17.67111015   98.48860168    0.52999997    2.82999992
   17.67444420   99.02590179    0.55000001    2.82999992
   17.67777634  102.17900085    0.52999997    2.82999992
   17.68083191   96.84629822    0.52999997    2.82999992
   17.68694305   96.84629822    0.51999998    2.82999992
   17.69111061  101.82599640    0.52999997    2.82999992
   17.69416618   97.66840363    0.52999997    2.82999992
   17.69749832  100.63700104    0.52999997    2.82999992
   17.70083427   98.43430328    0.51999998    2.82999992
   17.70388985   95.07710266    0.51999998    2.82999992
   17.70444489   97.43299866    0.51999998    2.84999990
   17.70777893   93.90589905    0.51999998    2.84999990
   17.71111107  102.64199829    0.51999998    2.80999994
   17.71416664   95.86489868    0.51999998    2.82999992
   17.71750069   97.95919800    0.51999998    2.82999992
   17.72083473   94.29889679    0.58999997    2.84999990
   17.72389030   96.41529846    0.58999997    2.84999990
   17.72972298   96.41529846    0.61000001    2.82999992
   17.73388863   96.81359863    0.56999999    2.82999992
   17.73722267   95.12180328    0.58999997    2.82999992
   17.73750114   92.53309631    0.58999997    2.82999992
   17.74083328   96.90070343    0.56999999    2.82999992
   17.74416733   95.79759979    0.56999999    2.82999992
   17.74722290   93.53700256    0.56999999    2.82999992
   17.75055504   98.23989868    0.58999997    2.82999992
   17.75388908   96.04160309    0.61000001    2.82999992
   17.75694466   96.19519806    0.64999998    2.82999992
   17.76027870   94.53700256    0.63000000    2.82999992
   17.76333427   95.35489655    0.63000000    2.82999992
   17.76666641   92.95950317    0.63000000    2.82999992
   17.77249908   92.95950317    0.63000000    2.82999992
   17.77666664   96.98049927    0.67000002    2.82999992
   17.78000069   99.30660248    0.69000000    2.82999992
   17.78305435   94.54779816    0.61000001    2.82999992
   17.78638840   97.86239624    0.61000001    2.82999992
   17.78972244   95.97879791    0.61000001    2.82999992
   17.79277802  104.81800079    0.58999997    2.82999992
   17.79611015  104.12999725    0.58999997    2.82999992
   17.79944420  101.54799652    0.58999997    2.82999992
   17.80249977   98.88050079    0.58999997    2.82999992
   17.80416679   93.61060333    0.58999997    2.82999992
   17.80611038   96.94539642    0.58999997    2.82999992
   17.80944443   99.44550323    0.58999997    2.82999992
   17.81555557   99.44550323    0.58999997    2.82999992
   17.81944466   96.62650299    0.58999997    2.82999992
   17.82277870   99.08850098    0.61000001    2.82999992
   17.82611275   95.67299652    0.61000001    2.82999992
   17.82916832   96.64230347    0.61000001    2.82999992
   17.83250046   91.21880341    0.63000000    2.82999992
   17.83583450   97.50669861    0.63000000    2.82999992
   17.83750153   93.05650330    0.64999998    2.82999992
   17.83916664   94.70099640    0.64999998    2.82999992
   17.84250069   94.09899902    0.64999998    2.82999992
   17.84583473   97.88899994    0.64999998    2.82999992
   17.84916687   93.49810028    0.64999998    2.82999992
   17.85222244   93.35910034    0.64999998    2.82999992
   17.85833359   93.35910034    0.67000002    2.80999994
   17.86250114   97.58879852    0.64999998    2.82999992
   17.86555672   92.20539856    0.64999998    2.82999992
   17.86888885   96.89689636    0.67000002    2.82999992
   17.87083435   99.54799652    0.67000002    2.82999992
   17.87249947   93.62509918    0.67000002    2.82999992
   17.87583351  100.13500214    0.67000002    2.80999994
   17.87888908   99.85569763    0.67000002    2.80999994
   17.88222313   96.99179840    0.67000002    2.80999994
   17.88555527   94.61599731    0.67000002    2.80999994
   17.88861084   97.46499634    0.69000000    2.82999992
   17.89194489   98.33930206    0.69000000    2.82999992
   17.89527702   98.41210175    0.69000000    2.80999994
   17.90111160   98.41210175    0.67000002    2.82999992
   17.90527725   99.54630280    0.67000002    2.80999994
   17.90861130   96.67199707    0.67000002    2.80999994
   17.91166687   97.26640320    0.69000000    2.80999994
   17.91499901   96.02970123    0.69000000    2.82999992
   17.91805458   95.83840179    0.69000000    2.80999994
   17.92138863  101.82399750    0.67000002    2.80999994
   17.92472076   96.26820374    0.67000002    2.80999994
   17.92777634   95.60379791    0.67000002    2.80999994
   17.93111038   98.13919830    0.67000002    2.80999994
   17.93444443   93.74120331    0.69000000    2.80999994
   17.93750000   93.98429871    0.69000000    2.80999994
   17.93805504   93.96579742    0.69000000    2.80999994
   17.94388771   93.96579742    0.69000000    2.80999994
   17.94805527   94.25469971    0.69000000    2.82999992
   17.95138931  100.53800201    0.69000000    2.80999994
   17.95444489   97.69809723    0.69000000    2.80999994
   17.95777893   96.82800293    0.69000000    2.80999994
   17.96111107  101.12400055    0.70999998    2.80999994
   17.96444511   99.96839905    0.70999998    2.80999994
   17.96750069  104.52400208    0.70999998    2.78999996
   17.97083473   99.67120361    0.70999998    2.80999994
   17.97138977   99.39739990    0.70999998    2.80999994
   17.97444534   96.40779877    0.70999998    2.80999994
   17.97750092   97.29840088    0.70999998    2.80999994
   17.98083305   98.70429993    0.70999998    2.80999994
   17.98694420   98.70429993    0.69000000    2.82999992
   17.99111176   93.41429901    0.70999998    2.80999994
   17.99416733  101.68099976    0.70999998    2.80999994
   17.99749947   98.16840363    0.73000002    2.80999994
   18.00055504   94.95359802    0.73000002    2.82999992
   18.00388908   96.45089722    0.73000002    2.82999992
   18.00472260  101.92099762    0.73000002    2.82999992
   18.00749969   92.34799957    0.73000002    2.80999994
   18.01055527   95.39350128    0.75000000    2.78999996
   18.01388931   90.17749786    0.75000000    2.78999996
   18.01722145   92.25969696    0.75000000    2.80999994
   18.02027702   95.53389740    0.79000002    2.80999994
   18.02361107   97.10919952    0.76999998    2.82999992
   18.02972221   97.10919952    0.79000002    2.80999994
   18.03388786   98.29340363    0.79000002    2.80999994
   18.03694344   93.77369690    0.79000002    2.80999994
   18.03805542  100.96600342    0.79000002    2.80999994
   18.04083252  103.53800201    0.79000002    2.80999994
   18.04388809   95.45929718    0.79000002    2.80999994
   18.04722214   99.77480316    0.79000002    2.80999994
   18.05055428   99.04329681    0.79000002    2.80999994
   18.05360985   96.81839752    0.79000002    2.80999994
   18.05694389   96.84639740    0.79000002    2.80999994
   18.06027794   95.99960327    0.79000002    2.80999994
   18.06333351   94.90390015    0.80000001    2.78999996
   18.06666756   91.93990326    0.79000002    2.82999992
   18.07250023   91.93990326    0.76999998    2.80999994
   18.07666779   94.04759979    0.76999998    2.80999994
   18.08000183   96.93530273    0.76999998    2.80999994
   18.08305550   96.39150238    0.76999998    2.80999994
   18.08638954   97.29579926    0.76999998    2.80999994
   18.08944511   91.05819702    0.76999998    2.80999994
   18.09277916   93.86609650    0.76999998    2.80999994
   18.09611130   97.26119995    0.76999998    2.80999994
   18.09916687  101.75900269    0.75000000    2.80999994
   18.10250092  103.77600098    0.75000000    2.80999994
   18.10472298  101.37599945    0.75000000    2.80999994
   18.10611153   99.30599976    0.75000000    2.80999994
   18.10916710  101.06500244    0.76999998    2.80999994
   18.11527824  101.06500244    0.76999998    2.82999992
   18.11944389   92.08869934    0.76999998    2.80999994
   18.12277794   92.70410156    0.79000002    2.80999994
   18.12611198   94.46219635    0.79000002    2.82999992
   18.12916756   95.67700195    0.79000002    2.82999992
   18.13249969   97.60230255    0.79000002    2.80999994
   18.13555527   94.64459991    0.79000002    2.80999994
   18.13805580   93.84010315    0.79000002    2.78999996
   18.13944435  100.76999664    0.79000002    2.78999996
   18.14249992   95.43170166    0.79000002    2.80999994
   18.14583397   97.68550110    0.79000002    2.78999996
   18.14916611   96.90850067    0.79000002    2.80999994
   18.15222168   97.14579773    0.79000002    2.80999994
   18.15833282   97.14579773    0.79000002    2.80999994
   18.16222191   95.54190063    0.79000002    2.80999994
   18.16555595   95.07939911    0.79000002    2.80999994
   18.16888809   98.27030182    0.79000002    2.80999994
   18.17138863   98.03269958    0.80000001    2.78999996
   18.17249870   99.11710358    0.80000001    2.78999996
   18.17555428   96.82089996    0.83999997    2.78999996
   18.17888832   99.86319733    0.76999998    2.80999994
   18.18222237  119.54199982    0.75000000    2.80999994
   18.18527603   96.84719849    0.75000000    2.82999992
   18.18861008  100.58300018    0.75000000    2.82999992
   18.19166565   98.75810242    0.73000002    2.80999994
   18.19499969  104.31300354    0.73000002    2.80999994
   18.20111275  104.31300354    0.73000002    2.80999994
   18.20527840   98.61959839    0.73000002    2.80999994
   18.20833397  103.17900085    0.73000002    2.80999994
   18.21166801  100.69699860    0.73000002    2.80999994
   18.21500015   92.09819794    0.73000002    2.80999994
   18.21805573   95.06829834    0.73000002    2.78999996
   18.22138977   97.18509674    0.73000002    2.78999996
   18.22444534   98.64260101    0.73000002    2.80999994
   18.22777748  100.42099762    0.73000002    2.80999994
   18.23111153   99.59889984    0.73000002    2.80999994
   18.23416710  139.05900574    0.73000002    2.80999994
   18.23750114   98.11460114    0.73000002    2.80999994
   18.23805618   98.93520355    0.73000002    2.80999994
   18.24388885   98.93520355    0.73000002    2.80999994
   18.24805641   96.97609711    0.75000000    2.80999994
   18.25138855   93.59279633    0.75000000    2.80999994
   18.25444412   97.69789886    0.75000000    2.80999994
   18.27222252  104.85500336    0.79000002    2.80999994
   18.27416611  103.52999878    0.79000002    2.80999994
   18.27750015   95.59829712    0.79000002    2.80999994
   18.28083229  184.49699402    0.79000002    2.78999996
   18.28694344  184.49699402    0.79000002    2.78999996
   18.29111099   96.53450012    0.79000002    2.78999996
   18.29444313  104.96700287    0.79000002    2.78999996
   18.29749870  100.05100250    0.79000002    2.80999994
   18.30083275   99.28260040    0.80000001    2.78999996
   18.30416679   97.65689850    0.80000001    2.78999996
   18.30527687   96.49340057    0.81999999    2.78999996
   18.30777740   93.91690063    0.81999999    2.78999996
   18.31110954  102.18399811    0.81999999    2.80999994
   18.31444359   96.23020172    0.81999999    2.78999996
   18.31750107  103.69100189    0.81999999    2.78999996
   18.32083511  106.05300140    0.81999999    2.78999996
   18.32389069   94.64230347    0.81999999    2.78999996
   18.33000183   94.64230347    0.83999997    2.80999994
   18.33444595  102.34500122    0.83999997    2.78999996
   18.33750153   96.06580353    0.83999997    2.78999996
   18.33861160   94.74559784    0.83999997    2.78999996
   18.34111214  100.85700226    0.83999997    2.78999996
   18.34444427   96.92060089    0.83999997    2.78999996
   18.34749985   98.53639984    0.83999997    2.78999996
   18.35083389   94.43280029    0.83999997    2.78999996
   18.35388947   94.80760193    0.83999997    2.78999996
   18.35722351   94.20850372    0.83999997    2.78999996
   18.36055565   93.01300049    0.86000001    2.80999994
   18.36361122   99.60600281    0.88000000    2.78999996
   18.36694527   96.32340240    0.89999998    2.78999996
   18.37277794   96.32340240    0.89999998    2.78999996
   18.37694550   98.39579773    0.89999998    2.78999996
   18.38000107   97.43689728    0.89999998    2.78999996
   18.38333321  100.00299835    0.92000002    2.78999996
   18.38666725   97.69640350    0.94000000    2.78999996
   18.38999939   95.00060272    0.94000000    2.78999996
   18.39305496   96.84010315    0.94000000    2.78999996
   18.39638901   97.38320160    0.94000000    2.78999996
   18.39944458   94.70870209    0.92000002    2.78999996
   18.40277672   93.42990112    0.94000000    2.78999996
   18.40527725   97.40740204    0.94000000    2.78999996
   18.40638924   94.92040253    0.94000000    2.78999996
   18.40972137   99.43540192    0.95999998    2.78999996
   18.41555595   99.43540192    0.95999998    2.78999996
   18.41972160  100.40499878    0.95999998    2.78999996
   18.42277718   92.95149994    0.94000000    2.78999996
   18.42611122   98.05280304    0.94000000    2.78999996
   18.42944336   96.39469910    0.92000002    2.78999996
   18.43249893   95.24890137    0.92000002    2.78999996
   18.43583298   95.63040161    0.92000002    2.78999996
   18.43861008   93.54399872    0.92000002    2.78999996
   18.43944359   95.95919800    0.92000002    2.78999996
   18.44277763   94.77860260    0.92000002    2.78999996
   18.44583321   95.53170013    0.89999998    2.78999996
   18.44916534  102.39299774    0.89999998    2.78999996
   18.45250130   94.94570160    0.89999998    2.78999996
   18.45833397   94.94570160    0.89999998    2.76999998
   18.46250153   99.50579834    0.89999998    2.78999996
   18.46583366   95.78040314    0.89999998    2.78999996
   18.46888924   99.66840363    0.89999998    2.78999996
   18.47194481  100.78900146    0.88000000    2.78999996
   18.47249985   98.52500153    0.88000000    2.78999996
   18.47611237  102.13500214    0.89999998    2.78999996
   18.47916794  104.55799866    0.88000000    2.78999996
   18.48250008   98.15100098    0.88000000    2.78999996
   18.48583412   97.87999725    0.88000000    2.78999996
   18.48888969   93.47859955    0.88000000    2.78999996
   18.49222183  102.55899811    0.89999998    2.78999996
   18.49527740   94.55470276    0.89999998    2.76999998
   18.50111198   94.55470276    0.89999998    2.78999996
   18.50527763  100.85500336    0.92000002    2.78999996
   18.50583267  100.34700012    0.92000002    2.78999996
   18.50916672   98.14050293    0.92000002    2.76999998
   18.51222229  105.94300079    0.92000002    2.76999998
   18.51555634   97.98889923    0.89999998    2.78999996
   18.51888847   99.77149963    0.89999998    2.78999996
   18.52194405   96.93360138    0.92000002    2.78999996
   18.52527809  100.75499725    0.89999998    2.78999996
   18.52833366   99.55699921    0.89999998    2.78999996
   18.53166580   95.66100311    0.89999998    2.78999996
   18.53499985  170.69299316    0.89999998    2.76999998
   18.53805542   98.62760162    0.89999998    2.78999996
   18.53861046  101.95500183    0.89999998    2.78999996
   18.54416656  101.95500183    0.88000000    2.78999996
   18.54833221  102.46700287    0.88000000    2.78999996
   18.55138779   96.31960297    0.88000000    2.78999996
   18.55472183   94.32800293    0.88000000    2.78999996
   18.55805397   91.81150055    0.88000000    2.78999996
   18.56110954  101.19400024    0.89999998    2.78999996
   18.56444359   97.31210327    0.89999998    2.78999996
   18.56750107  100.61000061    0.89999998    2.78999996
   18.57083511   96.32340240    0.89999998    2.78999996
   18.57194519  100.00199890    0.92000002    2.78999996
   18.57444572   94.28250122    0.92000002    2.78999996
   18.57777786   97.52249908    0.89999998    2.78999996
   18.58083344  102.47299957    0.94000000    2.78999996
   18.58694458  102.47299957    0.95999998    2.78999996
   18.59111214  100.15499878    0.94000000    2.76999998
   18.59416771  102.16999817    0.94000000    2.78999996
   18.59749985  103.10099792    0.94000000    2.78999996
   18.60083389  101.34899902    0.92000002    2.78999996
   18.60388947  102.58100128    0.89999998    2.78999996
   18.60527802   97.88120270    0.89999998    2.78999996
   18.60750008  100.90899658    0.88000000    2.76999998
   18.61083412  103.77100372    0.88000000    2.78999996
   18.61388969  104.28700256    0.88000000    2.78999996
   18.61722183   96.33799744    0.88000000    2.78999996
   18.62055588   95.74690247    0.89999998    2.78999996
   18.62361145   98.87110138    0.92000002    2.78999996
   18.62972260   98.87110138    0.94000000    2.76999998
   18.63388824  101.94200134    0.92000002    2.76999998
   18.63722229   98.65720367    0.92000002    2.76999998
   18.63861084  104.28700256    0.92000002    2.78999996
   18.64083290  103.01000214    0.92000002    2.78999996
   18.64416695   97.96849823    0.89999998    2.76999998
   18.64722252  109.09300232    0.89999998    2.78999996
   18.65055466  100.51100159    0.89999998    2.76999998
   18.65388870  101.26300049    0.89999998    2.78999996
   18.65694427  106.00900269    0.89999998    2.78999996
   18.66027832  104.66600037    0.89999998    2.78999996
   18.66333389   99.31250000    0.89999998    2.78999996
   18.66666603  101.77999878    0.89999998    2.78999996
   18.67277718  101.77999878    0.92000002    2.76999998
   18.67666626  106.35399628    0.94000000    2.76999998
   18.68000031  108.52700043    0.94000000    2.76999998
   18.68333244  107.05699921    0.94000000    2.76999998
   18.68638802  103.52300262    0.95999998    2.78999996
   18.68972206  100.58799744    0.94000000    2.78999996
   18.69305420  102.31700134    0.94000000    2.78999996
   18.69610977   99.40010071    0.95999998    2.76999998
   18.69944382   94.67089844    0.95999998    2.76999998
   18.70277786  100.41600037    0.95999998    2.76999998
   18.70555687   96.19229889    0.98000002    2.76999998
   18.70611191   99.90029907    0.98000002    2.76999998
   18.70944595   95.83899689    0.98000002    2.76999998
   18.71555710   95.83899689    1.00000000    2.76999998
   18.71972275   96.62920380    1.01999998    2.76999998
   18.72277832  102.76300049    1.00000000    2.76999998
   18.72611237   93.24120331    1.00000000    2.76999998
   18.72944450   98.83229828    1.00000000    2.76999998
   18.73250008  102.90399933    1.00000000    2.76999998
   18.73583412  101.42500305    1.00000000    2.76999998
   18.73888969  102.44799805    1.00000000    2.76999998
   18.73944473   99.91439819    1.01999998    2.75000000
   18.74277878  105.27100372    1.01999998    2.75000000
   18.74583435  105.23899841    1.01999998    2.76999998
   18.74916649  103.22299957    1.00000000    2.76999998
   18.75250053   99.70919800    0.98000002    2.76999998
   18.75833321   99.70919800    0.98000002    2.76999998
   18.76250076   96.95130157    0.95999998    2.78999996
   18.76583290   96.91500092    0.95999998    2.76999998
   18.76888847   90.80999756    0.98000002    2.76999998
   18.77222252   97.86940002    0.98000002    2.76999998
   18.77249908   96.53710175    0.98000002    2.76999998
   18.77583313  104.03199768    0.98000002    2.76999998
   18.77916718  102.33000183    0.98000002    2.76999998
   18.78222275   96.40850067    0.98000002    2.76999998
   18.78555489   98.86219788    0.95999998    2.76999998
   18.78861046   94.26740265    0.98000002    2.76999998
   18.79194450   94.79019928    0.98000002    2.76999998
   18.79527664   98.40419769    1.00000000    2.76999998
   18.80111122   98.40419769    0.98000002    2.76999998
   18.80527687   99.42019653    0.95999998    2.76999998
   18.80583191   97.46450043    0.95999998    2.76999998
   18.80916595   96.50299835    0.98000002    2.76999998
   18.81250000   96.85900116    0.95999998    2.76999998
   18.81555557   95.57990265    0.95999998    2.76999998
   18.81888962  105.79299927    0.95999998    2.76999998
   18.82222366   97.69429779    0.95999998    2.76999998
   18.82527924  107.02799988    0.95999998    2.76999998
   18.82861137  105.71199799    0.94000000    2.78999996
   18.83194542   96.99909973    0.94000000    2.76999998
   18.83500099  101.30200195    0.94000000    2.78999996
   18.83833313  100.08499908    0.94000000    2.76999998
   18.83916664   99.16739655    0.94000000    2.76999998
   18.84416771   99.16739655    0.95999998    2.78999996
   18.84805679   93.43139648    0.98000002    2.76999998
   18.85138893   96.40160370    0.95999998    2.76999998
   18.85472298   92.72100067    1.01999998    2.76999998
   18.85777855   93.83380127    0.95999998    2.76999998
   18.86111069   94.94370270    0.95999998    2.76999998
   18.86444473   96.57510376    0.95999998    2.76999998
   18.86750031   98.04570007    0.95999998    2.76999998
   18.87083435   98.77660370    0.94000000    2.76999998
   18.87249947   92.99819946    0.94000000    2.76999998
   18.87444496   99.05529785    0.94000000    2.76999998
   18.87750053  100.93599701    0.94000000    2.76999998
   18.88083267   96.97080231    0.94000000    2.76999998
   18.88694382   96.97080231    0.94000000    2.76999998
   18.89111137   99.46040344    0.94000000    2.76999998
   18.89416695  100.80000305    0.94000000    2.76999998
   18.89749908   96.98449707    0.92000002    2.78999996
   18.90083313  176.18099976    0.89999998    2.76999998
   18.90388870   99.43479919    0.89999998    2.76999998
   18.90583229   93.57009888    0.89999998    2.76999998
   18.90749931   96.58139801    0.89999998    2.78999996
   18.91055489   93.42590332    0.89999998    2.76999998
   18.91388893   93.16259766    0.89999998    2.76999998
   18.91722107   96.39430237    0.89999998    2.78999996
   18.92027664  101.61799622    0.92000002    2.76999998
   18.92361069   95.07980347    0.92000002    2.76999998
   18.92972183   95.07980347    0.94000000    2.76999998
   18.93388748   98.26180267    0.94000000    2.76999998
   18.93722153   99.61209869    0.94000000    2.76999998
   18.93916512   98.73349762    0.92000002    2.75000000
   18.94083214  100.35900116    0.92000002    2.75000000
   18.94388771  105.37999725    0.92000002    2.75000000
   18.94722176   97.53440094    0.94000000    2.76999998
   18.95055580   97.33779907    0.94000000    2.76999998
   18.95361137  100.42299652    0.94000000    2.76999998
   18.95694542  100.79900360    0.94000000    2.76999998
   18.96027946   95.01850128    0.94000000    2.76999998
   18.96333504   99.19329834    0.94000000    2.76999998
   18.96666718  101.75800323    0.94000000    2.75000000
   18.97277832  101.75800323    0.95999998    2.75000000
   18.97694588   95.33219910    0.95999998    2.76999998
   18.98000145   97.04740143    0.94000000    2.76999998
   18.98333359   95.56700134    0.94000000    2.76999998
   18.98666763   97.33309937    0.95999998    2.76999998
   18.98972321   99.03320313    0.94000000    2.75000000
   18.99305534  105.37400055    0.94000000    2.75000000
   18.99611092  102.52500153    0.92000002    2.75000000
   18.99944496   96.93609619    0.92000002    2.76999998
   19.00277710  101.21199799    0.94000000    2.76999998
   19.00583267  101.18699646    0.94000000    2.76999998
   19.00638962   91.25980377    0.94000000    2.76999998
   19.00944519   98.40029907    0.94000000    2.76999998
   19.01555634   98.40029907    0.94000000    2.76999998
   19.01944351   98.88749695    0.94000000    2.76999998
   19.02277756   99.42610168    0.92000002    2.76999998
   19.02611160  103.71099854    0.94000000    2.76999998
   19.02972221  102.01100159    0.94000000    2.76999998
   19.03277779  100.19200134    0.94000000    2.76999998
   19.03610992   98.77970123    0.95999998    2.76999998
   19.03916550   94.20529938    0.95999998    2.75000000
   19.03972244   98.90409851    0.95999998    2.75000000
   19.04305458  101.08499908    0.98000002    2.76999998
   19.04611015  102.76200104    0.95999998    2.75000000
   19.04944420   99.47540283    0.95999998    2.75000000
   19.05277634  101.80200195    0.95999998    2.76999998
   19.05833244  101.80200195    1.00000000    2.75000000
   19.06250000   99.87280273    1.13000000    2.76999998
   19.06555557   94.21150208    1.01999998    2.75000000
   19.06888962   99.88289642    1.01999998    2.75000000
   19.07222366   98.93329620    1.11000001    2.75000000
   19.07250023   99.70169830    1.11000001    2.75000000
   19.07555580   99.64630127    1.00000000    2.75000000
   19.07888985   97.93129730    1.00000000    2.75000000
   19.08194542   91.99459839    0.95999998    2.76999998
   19.08527756  101.48100281    0.95999998    2.75000000
   19.08861160  101.45099640    0.95999998    2.75000000
   19.09166718  100.69799805    0.95999998    2.75000000
   19.09500122  103.67099762    0.95999998    2.75000000
   19.10111237  103.67099762    0.98000002    2.76999998
   19.10527802  101.80300140    0.98000002    2.75000000
   19.10583305   96.79900360    0.98000002    2.75000000
   19.10888863   99.83709717    0.98000002    2.78999996
   19.11222267  102.55500031    0.98000002    2.75000000
   19.11527824   95.69719696    1.00000000    2.75000000
   19.11861038   98.16110229    1.00000000    2.75000000
   19.12194443  102.36100006    1.00000000    2.75000000
   19.12500000   95.59940338    1.01999998    2.73000002
   19.12833405  100.19699860    1.01999998    2.75000000
   19.13166618   96.85890198    1.01999998    2.75000000
   19.13472176   97.25160217    1.01999998    2.75000000
   19.13805580   97.56770325    1.01999998    2.75000000
   19.13916588   94.22139740    1.01999998    2.75000000
   19.14388847   94.22139740    1.01999998    2.75000000
   19.14805603  102.28600311    1.00000000    2.75000000
   19.15138817  108.63500214    1.00000000    2.75000000
   19.15444374  100.11599731    1.00000000    2.75000000
   19.15777779  101.99800110    1.00000000    2.73000002
   19.16110992  100.44899750    1.00000000    2.73000002
   19.16444397  101.82700348    1.00000000    2.75000000
   19.16749954   96.19519806    0.98000002    2.75000000
   19.17083359  100.42400360    1.00000000    2.75000000
   19.17249870   99.46810150    1.00000000    2.75000000
   19.17444420   97.05639648    1.00000000    2.75000000
   19.17777634  100.47000122    1.01999998    2.75000000
   19.18083191   95.39379883    1.01999998    2.75000000
   19.18694305   95.39379883    1.03999996    2.75000000
   19.19083214   96.44069672    1.03999996    2.75000000
   19.19416618   98.03700256    1.01999998    2.75000000
   19.19749832  171.03900146    1.01999998    2.73000002
   19.20083427  101.87699890    1.00000000    2.75000000
   19.20388985   92.21890259    1.00000000    2.75000000
   19.20583344  101.93099976    1.00000000    2.73000002
   19.20750046   94.27590179    1.00000000    2.73000002
   19.21083450  108.85099792    1.00000000    2.75000000
   19.21389008   98.06500244    1.01999998    2.75000000
   19.21722221   99.20749664    1.00000000    2.75000000
   19.22055626   95.59339905    1.00000000    2.75000000
   19.22361183  100.33899689    1.00000000    2.75000000
   19.22972298  100.33899689    0.98000002    2.73000002
   19.23388863  100.52500153    0.95999998    2.75000000
   19.23694420   99.98410034    0.95999998    2.75000000
   19.23944473   95.67520142    0.95999998    2.75000000
   19.24055672   94.82350159    0.95999998    2.75000000
   19.24388885  100.51799774    0.98000002    2.75000000
   19.24722290   98.27739716    1.00000000    2.75000000
   19.25027847  102.00399780    0.98000002    2.75000000
   19.25361061  103.31800079    1.00000000    2.73000002
   19.25694466   99.38189697    1.00000000    2.73000002
   19.26000023   96.80629730    1.00000000    2.75000000
   19.26333427  101.12500000    0.98000002    2.73000002
   19.26638794   94.70050049    0.98000002    2.75000000
   19.27249908   94.70050049    1.00000000    2.75000000
   19.29083252   95.67289734    1.01999998    2.75000000
   19.29416656   95.56189728    1.01999998    2.75000000
   19.29722214   94.10970306    1.01999998    2.75000000
   19.30055428   93.87249756    1.01999998    2.73000002
   19.30388832  101.43499756    1.01999998    2.75000000
   19.30694389   98.08429718    1.01999998    2.75000000
   19.30749893   99.46440125    1.01999998    2.75000000
   19.31083298   97.20890045    1.07000005    2.75000000
   19.31555557   97.20890045    1.13000000    2.75000000
   19.31972313  100.14600372    1.13000000    2.75000000
   19.32277870  102.69200134    1.09000003    2.75000000
   19.32611275  100.94899750    1.19000006    2.75000000
   19.32944489  101.88099670    1.13000000    2.75000000
   19.33250046   96.76830292    1.09000003    2.75000000
   19.33583450  102.73999786    1.07000005    2.75000000
   19.33916664  100.78299713    1.07000005    2.75000000
   19.34083366   99.49410248    1.09000003    2.73000002
   19.34277916   97.60250092    1.09000003    2.73000002
   19.34611130   99.74829865    1.11000001    2.73000002
   19.34916687   92.34190369    1.11000001    2.73000002
   19.35250092   94.11509705    1.13000000    2.73000002
   19.35833359   94.11509705    1.13000000    2.73000002
   19.36250114   96.94229889    1.11000001    2.73000002
   19.36583328   96.69460297    1.11000001    2.75000000
   19.36888885  107.83699799    1.13000000    2.73000002
   19.37222290  107.86299896    1.13000000    2.73000002
   19.37444496  102.63200378    1.13000000    2.73000002
   19.37583351  104.50199890    1.11000001    2.73000002
   19.37916756  102.76999664    1.13000000    2.73000002
   19.38222313   95.62059784    1.13000000    2.73000002
   19.38555527   95.74729919    1.13000000    2.73000002
   19.38888931   99.98619843    1.14999998    2.73000002
   19.39194489   99.47830200    1.13000000    2.73000002
   19.39527702  102.43699646    1.11000001    2.73000002
   19.40138817  102.43699646    1.11000001    2.73000002
   19.40527725   97.08589935    1.11000001    2.73000002
   19.40777779   98.94470215    1.11000001    2.73000002
   19.40888786  107.37000275    1.11000001    2.73000002
   19.41222191  100.99400330    1.11000001    2.73000002
   19.41527748  105.65000153    1.11000001    2.73000002
   19.41860962  102.37300110    1.11000001    2.73000002
   19.42194366   97.56340027    1.13000000    2.73000002
   19.42527771  102.37999725    1.13000000    2.75000000
   19.42833328   95.67220306    1.13000000    2.75000000
   19.43166542   96.69309998    1.13000000    2.71000004
   19.43499947  101.96700287    1.13000000    2.75000000
   19.43805504   97.89299774    1.21000004    2.73000002
   19.44416618   97.89299774    1.25000000    2.73000002
   19.44833183   98.24919891    1.26999998    2.73000002
   19.45138931   98.17420197    1.26999998    2.71000004
   19.45472336   98.64920044    1.28999996    2.71000004
   19.45777893  101.42400360    1.30999994    2.73000002
   19.46111107   99.27989960    1.30999994    2.71000004
   19.46444511   96.61399841    1.28999996    2.71000004
   19.46805573  100.14700317    1.28999996    2.71000004
   19.47111130   97.98549652    1.30999994    2.71000004
   19.47444534  105.73500061    1.33000004    2.73000002
   19.47500038   98.93589783    1.33000004    2.73000002
   19.47805595  102.55699921    1.34000003    2.71000004
   19.48139000   98.88130188    1.38000000    2.73000002
   19.48694420   98.88130188    1.38000000    2.71000004
   19.49111176  103.20999908    1.38000000    2.71000004
   19.49416733   98.37129974    1.36000001    2.71000004
   19.49749947  100.78299713    1.36000001    2.71000004
   19.50083351   99.15070343    1.34000003    2.71000004
   19.50388908   99.59919739    1.34000003    2.71000004
   19.50722313  100.57299805    1.34000003    2.71000004
   19.50833321   93.57109833    1.36000001    2.71000004
   19.51083374  101.16600037    1.36000001    2.71000004
   19.51416588  101.94799805    1.34000003    2.71000004
   19.51722145   98.20919800    1.34000003    2.71000004
   19.52055550   97.04139709    1.36000001    2.71000004
   19.52388954   97.91649628    1.41999996    2.71000004
   19.52972221   97.91649628    1.41999996    2.71000004
   19.53388786  103.24299622    1.41999996    2.71000004
   19.53722191  101.62100220    1.41999996    2.71000004
   19.54027748   94.54479980    1.41999996    2.71000004
   19.54194450   91.16809845    1.41999996    2.69000006
   19.54388809   97.21099854    1.41999996    2.69000006
   19.54722214   99.31410217    1.44000006    2.71000004
   19.55055428   94.40859985    1.44000006    2.71000004
   19.55360985  100.82499695    1.44000006    2.71000004
   19.55694389   94.76059723    1.44000006    2.71000004
   19.55999947   95.92919922    1.41999996    2.69000006
   19.56333351   98.21260071    1.44000006    2.71000004
   19.56666756  103.99800110    1.41999996    2.71000004
   19.57250023  103.99800110    1.41999996    2.71000004
   19.57666779  102.01799774    1.41999996    2.69000006
   19.58000183  104.96700287    1.39999998    2.71000004
   19.58333397   95.85340118    1.39999998    2.71000004
   19.58638954   99.98429871    1.38000000    2.71000004
   19.58972359  101.35800171    1.36000001    2.71000004
   19.59305573   95.73429871    1.36000001    2.71000004
   19.59611130  102.18399811    1.38000000    2.71000004
   19.59944534   98.15940094    1.36000001    2.69000006
   19.60277748  105.56300354    1.36000001    2.71000004
   19.60583305  104.25599670    1.38000000    2.71000004
   19.60861206   98.36949921    1.38000000    2.71000004
   19.60944557   95.47969818    1.38000000    2.71000004
   19.61555672   95.47969818    1.39999998    2.71000004
   19.61972237   96.96520233    1.39999998    2.71000004
   19.62277794  100.44999695    1.38000000    2.71000004
   19.62611198   98.54190063    1.38000000    2.71000004
   19.62944412  105.39600372    1.38000000    2.69000006
   19.63249969  105.22599792    1.38000000    2.69000006
   19.63583374  101.89800262    1.36000001    2.71000004
   19.63888931   98.45970154    1.34000003    2.71000004
   19.64194489  100.08200073    1.34000003    2.71000004
   19.64249992   98.83190155    1.34000003    2.71000004
   19.64583397  101.97799683    1.33000004    2.71000004
   19.64916611   98.02559662    1.33000004    2.71000004
   19.65222168   99.68949890    1.33000004    2.71000004
   19.65833282   99.68949890    1.34000003    2.71000004
   19.66250038  100.32700348    1.33000004    2.71000004
   19.66555595   94.86900330    1.33000004    2.71000004
   19.66888809   99.41239929    1.33000004    2.73000002
   19.67222214  102.49400330    1.33000004    2.71000004
   19.67527771   99.50289917    1.34000003    2.71000004
   19.67555428   97.76390076    1.34000003    2.71000004
   19.67888832  104.18399811    1.33000004    2.71000004
   19.68222237   96.90750122    1.33000004    2.71000004
   19.68527603   96.47830200    1.30999994    2.71000004
   19.68861008   97.71080017    1.30999994    2.71000004
   19.69194412   92.59300232    1.33000004    2.71000004
   19.69499969  102.05200195    1.33000004    2.71000004
   19.70111275  102.05200195    1.30999994    2.71000004
   19.70527840   93.10240173    1.30999994    2.71000004
   19.70861244  103.59200287    1.30999994    2.71000004
   19.70888901   96.68759918    1.26999998    2.71000004
   19.71222305   98.52359772    1.26999998    2.71000004
   19.71555710  105.80899811    1.25000000    2.71000004
   19.71861076  100.63400269    1.28999996    2.71000004
   19.72194481   98.43419647    1.28999996    2.71000004
   19.72527885   97.15959930    1.25000000    2.71000004
   19.72833443  101.71199799    1.25000000    2.71000004
   19.73166656  102.56500244    1.25000000    2.71000004
   19.73472214   98.31109619    1.26999998    2.71000004
   19.73805618  101.04499817    1.28999996    2.71000004
   19.74416733  101.04499817    1.34000003    2.71000004
   19.74805641   96.47840118    1.34000003    2.71000004
   19.75138855   98.50289917    1.34000003    2.71000004
   19.75472260   97.80699921    1.38000000    2.71000004
   19.75777817   99.50450134    1.39999998    2.71000004
   19.76111031  104.00399780    1.39999998    2.71000004
   19.76444435   99.04850006    1.36000001    2.71000004
   19.76749992   98.40419769    1.36000001    2.69000006
   19.77083397   73.84300232    1.36000001    2.71000004
   19.77388954   99.53829956    1.38000000    2.71000004
   19.77527809   98.42520142    1.38000000    2.71000004
   19.77777672   99.75060272    1.34000003    2.71000004
   19.78083229   88.26270294    1.34000003    2.71000004
   19.78694344   88.26270294    1.38000000    2.69000006
   19.79111099   97.82309723    1.39999998    2.71000004
   19.79416656   95.58529663    1.44000006    2.71000004
   19.79749870  100.76799774    1.51999998    2.71000004
   19.80055428  101.49199677    1.61000001    2.69000006
   19.80388832   98.80259705    1.61000001    2.69000006
   19.80722237  103.46800232    1.50000000    2.69000006
   19.80861092  103.93000031    1.44000006    2.69000006
   19.81083298  104.91300201    1.44000006    2.69000006
   19.81416512  100.78500366    1.41999996    2.71000004
   19.81722260   99.96150208    1.39999998    2.71000004
   19.82055664  100.86799622    1.48000002    2.69000006
   19.82361221   96.55030060    1.41999996    2.69000006
   19.82972336   96.55030060    1.34000003    2.69000006
   19.83388901  101.09200287    1.36000001    2.69000006
   19.83694458   99.66960144    1.33000004    2.69000006
   19.84027863  100.54799652    1.33000004    2.69000006
   19.84222221   98.25859833    1.33000004    2.69000006
   19.84388924  101.15699768    1.34000003    2.69000006
   19.84722328   98.19689941    1.34000003    2.69000006
   19.85055542   94.83750153    1.34000003    2.69000006
   19.85361099  101.42700195    1.36000001    2.69000006
   19.85694504  106.88800049    1.38000000    2.69000006
   19.86027908  102.05100250    1.39999998    2.69000006
   19.86333466  101.08399963    1.41999996    2.69000006
   19.86666679   96.61180115    1.41999996    2.69000006
   19.87249947   96.61180115    1.46000004    2.69000006
   19.87666702   94.07009888    1.46000004    2.69000006
   19.88000107   96.77269745    1.50000000    2.69000006
   19.88305473   95.58439636    1.53999996    2.69000006
   19.88638878   94.93720245    1.63000000    2.69000006
   19.88972282   92.69719696    1.63000000    2.69000006
   19.89277840   94.63569641    1.86000001    2.67000008
   19.89611053   93.57260132    2.53999996    2.69000006
   19.89944458   95.90100098    3.28999996    2.67000008
   19.90250015   99.38379669    3.57999992    2.67000008
   19.90583229  102.16699982    4.90999985    2.55999994
   19.90888786   99.92030334    4.90999985    2.51999998
   19.90916634   94.67559814    4.90999985    2.46000004
   19.91527748   94.67559814    0.23000000    0.47999999
   19.91944313  194.46299744    0.23000000    0.47999999
   19.92277718   96.35299683    0.23000000    0.47999999
   19.92611122   97.82640076    0.23000000    0.47999999
   19.92916679   97.35289764    0.23000000    0.47999999
   19.93249893   98.76650238    0.23000000    0.47999999
   19.93555450  102.52300262    0.23000000    0.47999999
   19.93888855   98.35759735    0.23000000    0.47999999
   19.94222069   98.68560028    0.23000000    0.47999999
   19.94249916   98.26850128    0.23000000    0.47999999
   19.94583321   99.54540253    0.23000000    0.47999999
   19.94916534  103.13400269    0.23000000    0.47999999
   19.95222282  102.09700012    0.23000000    0.47999999
   19.95833397  102.09700012    0.23000000    0.47999999
   19.96250153   94.01260376    0.23000000    0.47999999
   19.96555710   97.59339905    0.23000000    0.47999999
   19.96888924   96.82939911    0.23000000    0.47999999
   19.97194481   99.15850067    0.23000000    0.47999999
   19.97527885  103.25399780    0.23000000    0.47999999
   19.97583389   94.73719788    0.23000000    0.47999999
   19.97916794  100.08399963    0.23000000    0.47999999
   19.98222351  102.16300201    0.23000000    0.47999999
   19.98555565  104.61000061    0.23000000    0.47999999
   19.98861122   95.67230225    0.23000000    0.47999999
   19.99194527   95.01999664    0.23000000    0.47999999
   19.99527740   99.34870148    0.23000000    0.47999999
   20.00111198   99.34870148    0.23000000    0.47999999
   20.00527763   93.14270020    0.23000000    0.47999999
   20.00861168   96.40619659    0.23000000    0.47999999
   20.00916672   96.34100342    0.23000000    0.47999999
   20.01222229   93.50229645    0.23000000    0.47999999
   20.01527786  106.64900208    0.23000000    0.47999999
   20.01861000   95.14759827    0.23000000    0.47999999
   20.02166557   98.06790161    0.23000000    0.47999999
   20.02499962   98.00589752    0.23000000    0.47999999
   20.02833366   99.91829681    0.23000000    0.47999999
   20.03138924   99.71479797    0.23000000    0.47999999
   20.03472137   99.30200195    0.23000000    0.47999999
   20.03805542  101.22599792    0.23000000    0.47999999
   20.04388809  101.22599792    0.23000000    0.47999999
   20.04805565  105.16600037    0.23000000    0.47999999
   20.05138779   98.45429993    0.23000000    0.47999999
   20.05444336   97.18280029    0.23000000    0.47999999
   20.05777740  102.92500305    0.23000000    0.47999999
   20.06110954   93.98560333    0.23000000    0.47999999
   20.06416512   96.70529938    0.23000000    0.47999999
   20.06750107   96.28070068    0.23000000    0.47999999
   20.07055664   96.62629700    0.23000000    0.47999999
   20.07389069  100.85800171    0.23000000    0.47999999
   20.07583427   96.06050110    0.23000000    0.47999999
   20.07750130  101.06800079    0.23000000    0.47999999
   20.08055687   96.26309967    0.23000000    0.47999999
   20.08666801   96.26309967    0.23000000    0.47999999
   20.09083366   95.07800293    0.23000000    0.47999999
   20.09416771   95.40869904    0.23000000    0.47999999
   20.09749985   97.28939819    0.23000000    0.47999999
   20.10055542   93.72689819    0.23000000    0.47999999
   20.10388947  100.91200256    0.23000000    0.47999999
   20.10694504   98.04640198    0.23000000    0.47999999
   20.10916710   99.60189819    0.23000000    0.47999999
   20.11083412   91.91040039    0.23000000    0.47999999
   20.11388969   97.96299744    0.23000000    0.47999999
   20.11722183   97.19270325    0.23000000    0.47999999
   20.12055588   94.11599731    0.23000000    0.47999999
   20.12361145   98.07589722    0.23000000    0.47999999
   20.12972260   98.07589722    0.23000000    0.47999999
   20.13388824   96.78520203    0.23000000    0.47999999
   20.13694382   98.04810333    0.23000000    0.47999999
   20.14027786   99.89160156    0.23000000    0.47999999
   20.14249992   95.74279785    0.23000000    0.47999999
   20.14388847  102.87100220    0.23000000    0.47999999
   20.14694405  107.27200317    0.23000000    0.47999999
   20.15027809   99.53549957    0.23000000    0.47999999
   20.15361023  103.65899658    0.23000000    0.47999999
   20.15666580  103.98500061    0.23000000    0.47999999
   20.15999985  104.55500031    0.23000000    0.47999999
   20.16305542   97.80500031    0.23000000    0.47999999
   20.16638756   94.84120178    0.23000000    0.47999999
   20.17249870   94.84120178    0.23000000    0.47999999
   20.17666626  123.12899780    0.23000000    0.47999999
   20.18000031   -1.00000000    0.23000000    0.47999999
   20.18305397   -1.00000000    0.23000000    0.47999999
   20.18638802   -1.00000000    0.23000000    0.47999999
   20.18972206   92.20590210    0.23000000    0.47999999
   20.19277763  114.35399628    0.23000000    0.47999999
   20.19610977   93.43280029    0.23000000    0.47999999
   20.19916534  107.14499664    0.23000000    0.47999999
   20.20250130  106.30899811    0.23000000    0.47999999
   20.20583344  102.77899933    0.23000000    0.47999999
   20.20916748  103.60600281    0.23000000    0.47999999
   20.20944595  107.99700165    0.23000000    0.47999999
   20.21527863  107.99700165    0.23000000    0.47999999
   20.21944427  101.93800354    0.23000000    0.47999999
   20.22277832   98.68720245    0.23000000    0.47999999
   20.22583389  102.77700043    0.23000000    0.47999999
   20.22916794  104.38800049    0.23000000    0.47999999
   20.23250008   99.89479828    0.23000000    0.47999999
   20.23555565   98.24479675    0.23000000    0.47999999
   20.23888969  107.75800323    0.23000000    0.47999999
   20.24194527  117.12699890    0.23000000    0.47999999
   20.24277878  108.33699799    0.23000000    0.47999999
   20.24555588  104.83300018    0.23000000    0.47999999
   20.24888992   90.65239716    0.23000000    0.47999999
   20.25194359  103.40499878    0.23000000    0.47999999
   20.25805473  103.40499878    0.23000000    0.47999999
   20.26222229  102.30400085    0.23000000    0.47999999
   20.26555634   98.55110168    0.23000000    0.47999999
   20.26888847   95.68890381    0.23000000    0.47999999
   20.27194405  103.84799957    0.23000000    0.47999999
   20.27527809  101.73300171    0.23000000    0.47999999
   20.27611160  101.28900146    0.23000000    0.47999999
   20.27888870  109.36599731    0.23000000    0.47999999
   20.28222275   99.73120117    0.23000000    0.47999999
   20.30166626   -1.00000000   -1.00000000   -1.00000000
