    HOUR (UT)   FLARE FACTOR    SKY TESTER    SUN TESTER
   11.38944435   -1.00000000   -1.00000000   -1.00000000
   11.41333294  375.01400757    2.05999994    2.17000008
   11.41666698  323.98498535    2.03999996    2.19000006
   11.41972256  390.17599487    2.03999996    2.19000006
   11.42361164  456.27099609    2.05999994    2.19000006
   11.42555618  405.29501343    2.05999994    2.21000004
   11.42694473  421.15200806    2.05999994    2.19000006
   11.42833328  457.89898682    2.07999992    2.19000006
   11.42972279  417.46301270    2.09999990    2.19000006
   11.43111134  422.53399658    2.13000011    2.21000004
   11.43249989  384.93200684    2.21000004    2.19000006
   11.43388939  391.05999756    2.23000002    2.19000006
   11.43527794  384.17599487    2.36999989    2.19000006
   11.43666649  432.34500122    2.44000006    2.19000006
   11.43805599  355.01400757    2.55999994    2.19000006
   11.43944454  257.02398682    2.55999994    2.21000004
   11.43944454  323.98498535    2.03999996    2.19000006
   11.43944454  390.17599487    2.03999996    2.19000006
   11.43972206  456.27099609    2.05999994    2.19000006
   11.44027805  312.95800781    2.55999994    2.21000004
   11.44333363  376.17599487    2.51999998    2.21000004
   11.44694424  326.19299316    2.44000006    2.21000004
   11.45111084  348.74499512    2.30999994    2.19000006
   11.45416641  372.58200073    2.23000002    2.19000006
   11.46027756  372.58200073    2.15000010    2.21000004
   11.46416664  301.29699707    2.32999992    2.21000004
   11.46749973  341.21798706    2.34999990    2.21000004
   11.47083282  300.74499512    2.25000000    2.21000004
   11.47333336  318.98400879    2.19000006    2.21000004
   11.47444439  324.49798584    2.17000008    2.21000004
   11.47777748  303.62298584    2.15000010    2.23000002
   11.48083305  355.74798584    2.21000004    2.21000004
   11.48416710  373.24600220    2.23000002    2.13000011
   11.48750019  331.71499634    2.19000006    2.13000011
   11.49055576  291.05700684    2.17000008    2.23000002
   11.49388885  310.38900757    2.15000010    2.21000004
   11.49722290  301.11599731    2.13000011    2.23000002
   11.50305557  301.11599731    2.03999996    2.23000002
   11.50722218  275.01199341    2.03999996    2.23000002
   11.51027775  276.26699829    2.05999994    2.23000002
   11.51361084  287.06399536    2.03999996    2.23000002
   11.51694393  242.33000183    2.01999998    2.25000000
   11.51999950  282.93701172    1.96000004    2.25000000
   11.52333355  278.47900391    1.94000006    2.25000000
   11.52638817  292.27700806    1.96000004    2.25000000
   11.52972221  286.72900391    1.98000002    2.25000000
   11.53305531  276.54699707    2.01999998    2.26999998
   11.53611183  259.07699585    2.00000000    2.25000000
   11.53944492  265.87600708    2.00000000    2.26999998
   11.54000092  266.44799805    2.00000000    2.26999998
   11.54583359  266.44799805    1.96000004    2.26999998
   11.55000019  260.05599976    1.94000006    2.26999998
   11.55333328  258.64001465    1.94000006    2.26999998
   11.55638885  240.38600159    1.94000006    2.26999998
   11.55972195  261.48699951    1.94000006    2.26999998
   11.56277752  236.20799255    1.89999998    2.26999998
   11.56611156  259.20098877    1.89999998    2.26999998
   11.56944466  240.33500671    1.89999998    2.26999998
   11.57250023  230.33900452    1.88000000    2.28999996
   11.57333374  244.97599792    1.88000000    2.28999996
   11.57638836  248.74400330    1.86000001    2.26999998
   11.57944393  242.50900269    1.85000002    2.28999996
   11.58277798  232.93099976    1.85000002    2.28999996
   11.58861065  232.93099976    1.86000001    2.28999996
   11.59277725  227.80599976    1.86000001    2.30999994
   11.59611034  190.58700562    1.86000001    2.28999996
   11.59916592  204.55999756    1.85000002    2.30999994
   11.60249996  231.19700623    1.83000004    2.28999996
   11.60583401  226.65499878    1.80999994    2.30999994
   11.60666752  204.38499451    1.80999994    2.30999994
   11.60944462  236.85499573    1.80999994    2.30999994
   11.61250019  205.71000671    1.80999994    2.30999994
   11.61583328  234.00100708    1.80999994    2.30999994
   11.61888885  218.42399597    1.80999994    2.30999994
   11.62222195  215.07400513    1.78999996    2.30999994
   11.62555599  227.87399292    1.78999996    2.30999994
   11.63166714  227.87399292    1.75000000    2.30999994
   11.63583279  200.78399658    1.75000000    2.32999992
   11.63888836  199.63999939    1.75000000    2.32999992
   11.64000034  187.01699829    1.73000002    2.32999992
   11.64277744  203.34800720    1.71000004    2.32999992
   11.64583302  229.67700195    1.71000004    2.32999992
   11.64916611  175.71299744    1.71000004    2.32999992
   11.65249920  187.71899414    1.69000006    2.32999992
   11.65583324  178.39599609    1.66999996    2.32999992
   11.65888882  204.87100220    1.66999996    2.32999992
   11.66222191  215.18699646    1.66999996    2.34999990
   11.66555500  206.79100037    1.66999996    2.32999992
   11.66861153  185.74000549    1.66999996    2.34999990
   11.67444515  185.74000549    1.66999996    2.34999990
   11.67861176  167.89599609    1.66999996    2.34999990
   11.68166733  198.67700195    1.66999996    2.36999989
   11.68500042  200.41900635    1.64999998    2.34999990
   11.68833351  164.00500488    1.64999998    2.34999990
   11.69138908  197.05499268    1.64999998    2.34999990
   11.69472218  200.43200684    1.64999998    2.36999989
   11.69777775  190.44000244    1.64999998    2.34999990
   11.70111084  186.73899841    1.61000001    2.34999990
   11.70444393  186.03999329    1.61000001    2.34999990
   11.70666695  182.16200256    1.61000001    2.34999990
   11.70805550  188.65400696    1.61000001    2.34999990
   11.71111107  186.15800476    1.61000001    2.34999990
   11.71722221  186.15800476    1.58000004    2.36999989
   11.72138882  178.09399414    1.55999994    2.36999989
   11.72472191  182.02600098    1.58000004    2.39000010
   11.72777748  162.08099365    1.58000004    2.36999989
   11.73111057  182.61799622    1.55999994    2.36999989
   11.73444462  183.39700317    1.55999994    2.39000010
   11.73750019  163.42300415    1.55999994    2.36999989
   11.74000072  173.66700745    1.55999994    2.36999989
   11.74138927  179.10200500    1.55999994    2.36999989
   11.74444485  173.41299438    1.55999994    2.36999989
   11.74777794  159.82400513    1.55999994    2.36999989
   11.75083351  166.24800110    1.55999994    2.36999989
   11.75416660  156.46099854    1.55999994    2.39000010
   11.76000023  156.46099854    1.53999996    2.36999989
   11.76416683  155.14700317    1.53999996    2.36999989
   11.76749992  172.29600525    1.51999998    2.39000010
   11.77055550  171.38900757    1.51999998    2.39000010
   11.77333355  160.47700500    1.51999998    2.39000010
   11.77444458  153.97999573    1.51999998    2.39000010
   11.77750015  149.04499817    1.51999998    2.40000010
   11.78083324  161.18899536    1.51999998    2.39000010
   11.78388977  150.87699890    1.51999998    2.40000010
   11.78722286  145.91700745    1.51999998    2.40000010
   11.79055595  167.60200500    1.51999998    2.40000010
   11.79361153  157.33700562    1.53999996    2.40000010
   11.79694462  174.15600586    1.51999998    2.40000010
   11.80305576  174.15600586    1.51999998    2.40000010
   11.80694485  153.01499939    1.51999998    2.40000010
   11.81027794  148.82499695    1.51999998    2.40000010
   11.81361103  149.89500427    1.50000000    2.40000010
   11.81666660  150.81700134    1.50000000    2.40000010
   11.81999969  153.93499756    1.50000000    2.40000010
   11.82333374  158.38200378    1.51999998    2.40000010
   11.82638836  154.94900513    1.50000000    2.40000010
   11.82972240  160.90699768    1.50000000    2.40000010
   11.83277798  154.35200500    1.51999998    2.40000010
   11.83611107  154.33299255    1.50000000    2.42000008
   11.83944416  158.81300354    1.50000000    2.42000008
   11.84000015  171.77699280    1.50000000    2.40000010
   11.84583282  171.77699280    1.48000002    2.40000010
   11.85000038  151.04800415    1.48000002    2.42000008
   11.85305595  147.77600098    1.46000004    2.40000010
   11.85638905  146.41299438    1.48000002    2.42000008
   11.85944462  151.40600586    1.46000004    2.42000008
   11.86277771  144.53900146    1.46000004    2.42000008
   11.86611176  149.57200623    1.46000004    2.44000006
   11.86944485  153.66600037    1.46000004    2.42000008
   11.87250042  157.57800293    1.46000004    2.42000008
   11.87333393  145.50900269    1.46000004    2.42000008
   11.87638855  152.22999573    1.46000004    2.42000008
   11.87944412  155.21099854    1.46000004    2.42000008
   11.88277817  149.64999390    1.46000004    2.42000008
   11.88861084  149.64999390    1.46000004    2.42000008
   11.89277744  146.76699829    1.46000004    2.42000008
   11.89611053  140.57099915    1.44000006    2.44000006
   11.89916611  142.55599976    1.44000006    2.42000008
   11.90249920  135.73699951    1.44000006    2.44000006
   11.90555477  131.96000671    1.46000004    2.44000006
   11.90666676  133.45599365    1.46000004    2.44000006
   11.90944386  140.92399597    1.44000006    2.44000006
   11.91249943  133.76400757    1.44000006    2.44000006
   11.91583252  133.60200500    1.46000004    2.46000004
   11.91916656  141.69500732    1.44000006    2.46000004
   11.92222214  127.03500366    1.41999996    2.44000006
   11.92555618  136.65800476    1.41999996    2.44000006
   11.93138885  136.65800476    1.41999996    2.46000004
   11.93555546  122.31999969    1.41999996    2.44000006
   11.93888855  143.00799561    1.39999998    2.44000006
   11.94000053  126.07099915    1.39999998    2.46000004
   11.94250011  137.28500366    1.39999998    2.46000004
   11.94555569  134.45199585    1.38000000    2.46000004
   11.94888878  144.44999695    1.38000000    2.46000004
   11.95222187  148.06799316    1.38000000    2.46000004
   11.95527744  128.66900635    1.38000000    2.48000002
   11.95861053  148.29499817    1.36000001    2.46000004
   11.96194458  145.02200317    1.36000001    2.46000004
   11.96500015  149.88900757    1.36000001    2.46000004
   11.96833324  132.48100281    1.36000001    2.46000004
   11.97444439  132.48100281    1.34000003    2.46000004
   11.97861099  132.87100220    1.34000003    2.46000004
   11.98166656  152.19299316    1.33000004    2.46000004
   11.98500061  138.34599304    1.34000003    2.48000002
   11.98805618  137.71600342    1.33000004    2.48000002
   11.99138927  145.21200562    1.33000004    2.48000002
   11.99472237  137.49899292    1.33000004    2.46000004
   11.99777794  131.66900635    1.33000004    2.46000004
   12.00111103  147.68499756    1.33000004    2.48000002
   12.00416660  147.66299438    1.33000004    2.48000002
   12.00666714  151.65299988    1.33000004    2.48000002
   12.00805569  138.86799622    1.33000004    2.48000002
   12.01111126  146.85600281    1.33000004    2.46000004
   12.01722240  146.85600281    1.33000004    2.48000002
   12.02138901  147.19599915    1.33000004    2.48000002
   12.02444458  133.17700195    1.33000004    2.46000004
   12.02777767  157.57200623    1.33000004    2.48000002
   12.03083324  150.40699768    1.33000004    2.48000002
   12.03416729  127.54100037    1.30999994    2.48000002
   12.03750038  135.47599792    1.30999994    2.46000004
   12.04000092  147.85200500    1.30999994    2.46000004
   12.04111195  143.21099854    1.30999994    2.46000004
   12.04416752  140.93899536    1.28999996    2.48000002
   12.04750061  143.75900269    1.30999994    2.48000002
   12.05083370  124.07599640    1.28999996    2.48000002
   12.05388927  146.75700378    1.30999994    2.48000002
   12.06000042  146.75700378    1.28999996    2.48000002
   12.06416702  160.63299561    1.28999996    2.50000000
   12.06722260  131.90100098    1.28999996    2.50000000
   12.07055569  154.03700256    1.28999996    2.50000000
   12.07333374  153.75300598    1.30999994    2.48000002
   12.07416630  143.44000244    1.30999994    2.48000002
   12.07722187  146.06700134    1.30999994    2.50000000
   12.08055592  140.50300598    1.30999994    2.50000000
   12.08388901  150.34700012    1.28999996    2.50000000
   12.08694458  147.73500061    1.28999996    2.50000000
   12.09027767  142.46000671    1.28999996    2.50000000
   12.09333324  143.45300293    1.28999996    2.50000000
   12.09666634  148.48199463    1.28999996    2.50000000
   12.10277843  148.48199463    1.26999998    2.50000000
   12.10694504  155.17599487    1.26999998    2.51999998
   12.11027813  155.66900635    1.26999998    2.50000000
   12.11333370  155.14900208    1.26999998    2.50000000
   12.11666679  135.87800598    1.26999998    2.50000000
   12.11999989  143.68899536    1.26999998    2.51999998
   12.12305546  164.56500244    1.26999998    2.50000000
   12.12638855  149.85299683    1.25000000    2.51999998
   12.12944412  153.23100281    1.25000000    2.50000000
   12.13277817  151.24499512    1.25000000    2.51999998
   12.13611126  145.43400574    1.25000000    2.51999998
   12.13916683  144.58200073    1.25000000    2.51999998
   12.14000034  152.13800049    1.25000000    2.51999998
   12.14583302  152.13800049    1.25000000    2.51999998
   12.14972210  152.00599670    1.25000000    2.51999998
   12.15305519  149.05200195    1.25000000    2.51999998
   12.15638828  156.55799866    1.25000000    2.51999998
   12.15944386  155.47300720    1.25000000    2.51999998
   12.16277695  162.86500549    1.25000000    2.50000000
   12.16583252  178.03199768    1.23000002    2.53999996
   12.16916656  162.97599792    1.23000002    2.51999998
   12.17250061  174.65199280    1.23000002    2.53999996
   12.17333412  161.08599854    1.23000002    2.53999996
   12.17611122  160.41499329    1.21000004    2.51999998
   12.17916679  153.22500610    1.21000004    2.51999998
   12.18249989  168.84800720    1.19000006    2.53999996
   12.18861103  168.84800720    1.19000006    2.51999998
   12.19277763  163.41700745    1.21000004    2.55999994
   12.19583321  167.12800598    1.19000006    2.53999996
   12.19916630  174.57800293    1.16999996    2.55999994
   12.20249939  168.19999695    1.14999998    2.51999998
   12.20555496  179.91499329    1.13000000    2.53999996
   12.20666695  171.82299805    1.13000000    2.53999996
   12.20944405  163.44000244    1.13000000    2.53999996
   12.21277714  187.16499329    1.13000000    2.55999994
   12.21583271  179.42900085    1.13000000    2.55999994
   12.21916580  221.99200439    1.13000000    2.53999996
   12.22222137  183.14700317    1.13000000    2.53999996
   12.22555542  248.01400757    1.13000000    2.53999996
   12.23138809  248.01400757    1.11000001    2.55999994
   12.23555565  196.41000366    1.11000001    2.55999994
   12.23861122  193.49099731    1.09000003    2.53999996
   12.24000072  198.68899536    1.11000001    2.55999994
   12.24250031  182.97599792    1.11000001    2.53999996
   12.24555588  185.23699951    1.09000003    2.55999994
   12.24888897  197.81100464    1.09000003    2.55999994
   12.25222206  179.63900757    1.09000003    2.53999996
   12.25527763  180.22900391    1.09000003    2.55999994
   12.25861073  197.12100220    1.09000003    2.53999996
   12.26194477  177.25700378    1.09000003    2.55999994
   12.26500034  146.27400208    1.09000003    2.55999994
   12.26833344  157.73599243    1.09000003    2.55999994
   12.27416611  157.73599243    1.09000003    2.55999994
   12.27833271  169.21499634    1.07000005    2.55999994
   12.28166676  157.81199646    1.07000005    2.55999994
   12.28472233  143.15699768    1.07000005    2.55999994
   12.28805637  155.93800354    1.07000005    2.55999994
   12.29138947  172.92100525    1.07000005    2.55999994
   12.29444504  171.03100586    1.07000005    2.55999994
   12.29777813  140.45899963    1.05999994    2.55999994
   12.30083370  160.74000549    1.05999994    2.55999994
   12.30416679  154.42500305    1.03999996    2.55999994
   12.30666733  144.22200012    1.03999996    2.57999992
   12.30777836  126.05100250    1.03999996    2.57999992
   12.31083393  155.68499756    1.01999998    2.57999992
   12.31694412  155.68499756    1.01999998    2.57999992
   12.32111073  155.50100708    1.01999998    2.57999992
   12.32444477  149.77600098    1.01999998    2.57999992
   12.32777786  145.12300110    1.01999998    2.55999994
   12.33083344  139.07299805    1.01999998    2.57999992
   12.33416653  140.62199402    1.01999998    2.57999992
   12.33722210  135.93699646    1.00000000    2.59999990
   12.34000015  137.65800476    0.98000002    2.57999992
   12.34111118  136.58599854    0.98000002    2.57999992
   12.34444427  143.41499329    0.98000002    2.59999990
   12.34749985  135.08000183    0.95999998    2.59999990
   12.35083389  142.23800659    0.95999998    2.59999990
   12.35388947  145.10800171    0.95999998    2.59999990
   12.36000061  145.10800171    0.94000000    2.59999990
   12.36416721  139.72200012    0.94000000    2.57999992
   12.36722279  136.48800659    0.94000000    2.57999992
   12.37055588  148.82099915    0.92000002    2.57999992
   12.37333393  141.92399597    0.92000002    2.59999990
   12.37416649  132.32200623    0.92000002    2.59999990
   12.37750053  138.11599731    0.92000002    2.59999990
   12.38055611  137.27400208    0.92000002    2.59999990
   12.38388920  137.28500366    0.92000002    2.59999990
   12.38694477  136.00300598    0.92000002    2.59999990
   12.39027786  149.21800232    0.92000002    2.59999990
   12.39361095  145.05000305    0.92000002    2.59999990
   12.39666653  148.40600586    0.92000002    2.59999990
   12.40277767  148.40600586    0.92000002    2.59999990
   12.40694427  142.63900757    0.89999998    2.59999990
   12.40999985  143.93299866    0.89999998    2.59999990
   12.41333294  160.72999573    0.89999998    2.59999990
   12.43305588  131.07899475    0.88000000    2.61999989
   12.43638897  140.55200195    0.88000000    2.61999989
   12.43972206  147.11799622    0.86000001    2.59999990
   12.44027805  150.34800720    0.86000001    2.59999990
   12.44583321  150.34800720    0.86000001    2.61999989
   12.44999981  149.89300537    0.86000001    2.61999989
   12.45333290  139.79800415    0.86000001    2.61999989
   12.45638847  155.58099365    0.83999997    2.61999989
   12.45972157  142.11399841    0.83999997    2.61999989
   12.46277714  165.48899841    0.83999997    2.64000010
   12.46611118  139.93800354    0.83999997    2.64000010
   12.46944427  142.97599792    0.83999997    2.61999989
   12.47249985  146.86799622    0.83999997    2.61999989
   12.47361088  158.85299683    0.83999997    2.61999989
   12.47638798  153.49899292    0.81999999    2.61999989
   12.47944355  149.16799927    0.83999997    2.61999989
   12.48277760  155.30700684    0.81999999    2.64000010
   12.48861122  155.30700684    0.81999999    2.64000010
   12.49277782  151.28199768    0.81999999    2.64000010
   12.49611092  155.84800720    0.81999999    2.64000010
   12.49916649  132.88900757    0.81999999    2.64000010
   12.50249958  126.41200256    0.81999999    2.61999989
   12.50583363  140.58700562    0.81999999    2.61999989
   12.50694466  135.42799377    0.81999999    2.64000010
   12.50944424  143.85600281    0.81999999    2.64000010
   12.51249981  141.41499329    0.81999999    2.64000010
   12.51583290  134.91499329    0.81999999    2.64000010
   12.51916599  126.58000183    0.81999999    2.64000010
   12.52222157  132.88299561    0.81999999    2.64000010
   12.52555561  138.50100708    0.81999999    2.64000010
   12.53166676  138.50100708    0.81999999    2.64000010
   12.53555584  125.17800140    0.80000001    2.64000010
   12.53888893  142.63800049    0.81999999    2.64000010
   12.54027843  146.53199768    0.81999999    2.64000010
   12.54277802  147.22300720    0.80000001    2.64000010
   12.54583359  136.31500244    0.81999999    2.66000009
   12.54916668  144.29499817    0.81999999    2.66000009
   12.55249977  133.39199829    0.81999999    2.66000009
   12.55555534  143.89700317    0.80000001    2.64000010
   12.55888939  138.97900391    0.80000001    2.64000010
   12.56222248  139.96600342    0.80000001    2.64000010
   12.56527805  134.16000366    0.80000001    2.64000010
   12.56861115  129.03199768    0.80000001    2.66000009
   12.57444477  129.03199768    0.80000001    2.66000009
   12.57861137  127.69000244    0.80000001    2.64000010
   12.58166695  137.05599976    0.80000001    2.64000010
   12.58500004  128.98899841    0.80000001    2.66000009
   12.58833313  126.73600006    0.80000001    2.66000009
   12.59138870  134.90600586    0.80000001    2.64000010
   12.59472179  129.71800232    0.80000001    2.66000009
   12.59777737  126.36399841    0.80000001    2.66000009
   12.60111141  145.09500122    0.79000002    2.66000009
   12.60444450  140.05999756    0.79000002    2.66000009
   12.60694504  134.61199951    0.76999998    2.67000008
   12.60833359  137.27799988    0.76999998    2.67000008
   12.61138916  131.34500122    0.76999998    2.67000008
   12.61722279  131.34500122    0.76999998    2.66000009
   12.62138939  147.61000061    0.76999998    2.66000009
   12.62472248  124.59500122    0.76999998    2.67000008
   12.62777805  141.59399414    0.76999998    2.66000009
   12.63111115  152.01600647    0.76999998    2.66000009
   12.63444424  144.82299805    0.76999998    2.66000009
   12.63749981  157.00599670    0.76999998    2.66000009
   12.64027786  126.78700256    0.76999998    2.66000009
   12.64138889  130.82600403    0.76999998    2.66000009
   12.64444447  127.79399872    0.76999998    2.66000009
   12.64777756  125.19799805    0.79000002    2.66000009
   12.65111065  155.08200073    0.79000002    2.66000009
   12.65416622  148.99099731    0.79000002    2.66000009
   12.65999985  148.99099731    0.79000002    2.66000009
   12.66416645  119.62599945    0.79000002    2.66000009
   12.66750050  134.28100586    0.79000002    2.66000009
   12.67055607  148.39999390    0.79000002    2.66000009
   12.67361164  129.37300110    0.79000002    2.64000010
   12.67444515  137.48599243    0.79000002    2.64000010
   12.67750072  141.18400574    0.80000001    2.66000009
   12.68083382  138.11099243    0.80000001    2.67000008
   12.68416691  131.62600708    0.80000001    2.67000008
   12.68722248  153.76100159    0.80000001    2.66000009
   12.69055557  148.66600037    0.80000001    2.66000009
   12.69361115  146.69000244    0.81999999    2.66000009
   12.69694424  129.74699402    0.80000001    2.66000009
   12.70305538  129.74699402    0.80000001    2.67000008
   12.70694447  155.19000244    0.80000001    2.66000009
   12.71027756  148.41000366    0.79000002    2.66000009
   12.71361065  142.38299561    0.79000002    2.66000009
   12.71666622  148.53399658    0.79000002    2.67000008
   12.71999931  153.56599426    0.79000002    2.67000008
   12.72333336  138.38000488    0.79000002    2.67000008
   12.72638798  150.11399841    0.79000002    2.66000009
   12.72972202  133.22999573    0.79000002    2.66000009
   12.73277760  135.20500183    0.76999998    2.66000009
   12.73611164  145.25799561    0.79000002    2.67000008
   12.73944473  127.66000366    0.76999998    2.66000009
   12.74027824  139.02900696    0.76999998    2.66000009
   12.74583340  139.02900696    0.76999998    2.69000006
   12.75000000  135.87100220    0.75000000    2.69000006
   12.75305557  134.26699829    0.75000000    2.67000008
   12.75638866  134.57699585    0.75000000    2.67000008
   12.75972176  142.18099976    0.75000000    2.67000008
   12.76277733  130.67500305    0.75000000    2.67000008
   12.76611137  132.92500305    0.75000000    2.67000008
   12.76916599  130.79400635    0.75000000    2.66000009
   12.77250004  129.65400696    0.73000002    2.67000008
   12.77361107  127.40000153    0.73000002    2.67000008
   12.77611065  133.59300232    0.73000002    2.67000008
   12.77916622  124.57399750    0.73000002    2.67000008
   12.78249931  127.97200012    0.73000002    2.67000008
   12.78861141  127.97200012    0.73000002    2.67000008
   12.79277802  135.30999756    0.73000002    2.69000006
   12.79611111  130.81199646    0.70999998    2.69000006
   12.79916668  147.45899963    0.70999998    2.67000008
   12.80249977  138.45500183    0.70999998    2.69000006
   12.80583382  132.36000061    0.70999998    2.67000008
   12.80694485  132.07699585    0.70999998    2.67000008
   12.80944443  132.74600220    0.70999998    2.69000006
   12.81250000  127.63899994    0.70999998    2.69000006
   12.81583309  130.34899902    0.73000002    2.69000006
   12.81916618  134.04600525    0.73000002    2.67000008
   12.82250023  131.45199585    0.73000002    2.67000008
   12.82555580  134.88800049    0.73000002    2.67000008
   12.83138847  134.88800049    0.70999998    2.69000006
   12.83555508  138.86399841    0.70999998    2.67000008
   12.83888817  143.04499817    0.70999998    2.67000008
   12.84027767  136.70199585    0.70999998    2.67000008
   12.84249973  138.79800415    0.70999998    2.67000008
   12.84555531  145.72799683    0.70999998    2.69000006
   12.84888840  127.69599915    0.70999998    2.69000006
   12.85222244  137.84399414    0.70999998    2.67000008
   12.85527802  130.99000549    0.70999998    2.67000008
   12.85861111  136.46499634    0.70999998    2.69000006
   12.86194515  135.98599243    0.70999998    2.67000008
   12.86500072  150.68200684    0.70999998    2.71000004
   12.86833382  129.14100647    0.70999998    2.69000006
   12.87444496  129.14100647    0.70999998    2.69000006
   12.87833309  160.10899353    0.70999998    2.69000006
   12.88166714  146.27799988    0.70999998    2.69000006
   12.88500023  144.18699646    0.70999998    2.69000006
   12.88805580  142.13099670    0.70999998    2.69000006
   12.89138889  142.34599304    0.70999998    2.69000006
   12.89472198  132.83399963    0.70999998    2.69000006
   12.89777756  139.52900696    0.70999998    2.71000004
   12.90111065  151.94000244    0.70999998    2.69000006
   12.90416622  152.77799988    0.70999998    2.69000006
   12.90694427  145.18699646    0.70999998    2.71000004
   12.90805531  152.50300598    0.70999998    2.69000006
   12.91111088  145.38999939    0.70999998    2.69000006
   12.91722298  145.38999939    0.69000000    2.69000006
   12.92138958  145.84199524    0.69000000    2.69000006
   12.92444515  139.33399963    0.70999998    2.69000006
   12.92777824  137.35299683    0.70999998    2.71000004
   12.93111134  135.80700684    0.69000000    2.71000004
   12.93416691  129.61900330    0.67000002    2.71000004
   12.93750000  132.75199890    0.67000002    2.71000004
   12.94027805  129.06799316    0.69000000    2.69000006
   12.94111156  130.09599304    0.69000000    2.69000006
   12.94416714  126.70200348    0.67000002    2.69000006
   12.94750023  142.57499695    0.67000002    2.71000004
   12.95083332  127.88400269    0.64999998    2.71000004
   12.95388889  120.89600372    0.64999998    2.71000004
   12.96000004  120.89600372    0.64999998    2.69000006
   12.96416664  148.92599487    0.64999998    2.71000004
   12.96749973  130.12300110    0.64999998    2.71000004
   12.97055531  130.25700378    0.64999998    2.71000004
   12.97361088  126.47599792    0.63000000    2.71000004
   12.97444439  134.03700256    0.63000000    2.71000004
   12.97749996  130.14700317    0.63000000    2.71000004
   12.98083305  132.02600098    0.63000000    2.71000004
   12.98416710  131.44900513    0.64999998    2.71000004
   12.98722267  131.11799622    0.64999998    2.73000002
   12.99055576  135.00100708    0.64999998    2.71000004
   12.99388885  131.62899780    0.64999998    2.71000004
   12.99694443  128.68899536    0.64999998    2.71000004
   13.00277805  128.68899536    0.67000002    2.71000004
   13.00694466  125.45999908    0.64999998    2.71000004
   13.01027775  141.21800232    0.64999998    2.71000004
   13.01333332  146.41400146    0.64999998    2.69000006
   13.01666641  129.66200256    0.64999998    2.71000004
   13.01999950  125.26200104    0.64999998    2.71000004
   13.02305508  163.42500305    0.64999998    2.71000004
   13.02638817  151.19999695    0.67000002    2.71000004
   13.02972221  155.66700745    0.64999998    2.71000004
   13.03277779  135.70100403    0.67000002    2.71000004
   13.03611183  139.61399841    0.67000002    2.71000004
   13.03916740  135.64700317    0.67000002    2.71000004
   13.04027843  155.27400208    0.67000002    2.71000004
   13.04583359  155.27400208    0.64999998    2.71000004
   13.04972267  169.63299561    0.67000002    2.71000004
   13.05305576  139.54200745    0.67000002    2.71000004
   13.05638885  139.28100586    0.64999998    2.71000004
   13.05944443  157.47900391    0.64999998    2.71000004
   13.06277752  152.05099487    0.64999998    2.71000004
   13.06611156  139.88299561    0.64999998    2.71000004
   13.06916618  142.49400330    0.64999998    2.71000004
   13.07250023  156.58200073    0.64999998    2.71000004
   13.07361126  152.00399780    0.64999998    2.71000004
   13.07611084  152.17999268    0.64999998    2.71000004
   13.07944393  141.99400330    0.64999998    2.69000006
   13.08249950  168.45799255    0.64999998    2.71000004
   13.08944416  168.45799255    0.63000000    2.71000004
   13.09361076  126.83399963    0.63000000    2.71000004
   13.09666634  135.19900513    0.61000001    2.73000002
   13.10000038  135.25700378    0.61000001    2.71000004
   13.10333347  167.23199463    0.61000001    2.73000002
   13.10638905  147.59800720    0.61000001    2.71000004
   13.10694504  155.34199524    0.61000001    2.71000004
   13.11000061  162.47799683    0.61000001    2.73000002
   13.11333370  157.43099976    0.58999997    2.73000002
   13.11638927  160.03399658    0.61000001    2.73000002
   13.11972237  176.94999695    0.61000001    2.73000002
   13.12305546  157.19400024    0.61000001    2.73000002
   13.12611103  167.63299561    0.61000001    2.73000002
   13.13138866  167.63299561    0.61000001    2.75000000
   13.13555527  169.71299744    0.61000001    2.73000002
   13.13888836  138.10800171    0.58999997    2.73000002
   13.14027786  147.23199463    0.58999997    2.73000002
   13.14249992  134.52499390    0.58999997    2.73000002
   13.14583302  135.57899475    0.58999997    2.73000002
   13.14888859  155.72099304    0.61000001    2.75000000
   13.15222168  173.03500366    0.61000001    2.76999998
   13.15527725  141.48300171    0.61000001    2.73000002
   13.15861034  166.49099731    0.61000001    2.75000000
   13.16194439  170.57600403    0.61000001    2.73000002
   13.16499996  164.39900208    0.63000000    2.73000002
   13.16833401  166.68899536    0.63000000    2.73000002
   13.17416668  166.68899536    0.63000000    2.73000002
   13.17833328  157.63400269    0.61000001    2.71000004
   13.18166733  152.71400452    0.61000001    2.73000002
   13.18472195  175.13699341    0.61000001    2.73000002
   13.18805599  185.87600708    0.61000001    2.75000000
   13.19138908  207.37300110    0.61000001    2.75000000
   13.19444466  199.35699463    0.61000001    2.75000000
   13.19777775  175.36700439    0.61000001    2.73000002
   13.20111084  178.83999634    0.61000001    2.73000002
   13.20416641  196.73599243    0.61000001    2.73000002
   13.20694447  188.88699341    0.63000000    2.75000000
   13.20777798  191.71600342    0.61000001    2.75000000
   13.21111107  158.69099426    0.58999997    2.75000000
   13.21722221  158.69099426    0.58999997    2.73000002
   13.22111034  159.79200745    0.56999999    2.75000000
   13.22444439  159.49000549    0.56999999    2.75000000
   13.22777748  192.66499329    0.56999999    2.75000000
   13.23083305  157.64300537    0.56999999    2.75000000
   13.23416710  159.62600708    0.56999999    2.75000000
   13.23750019  171.82499695    0.56999999    2.75000000
   13.24027824  179.12800598    0.56999999    2.73000002
   13.24111176  170.32000732    0.56999999    2.73000002
   13.24444485  184.99800110    0.55000001    2.75000000
   13.24750042  193.76800537    0.56999999    2.73000002
   13.25083351  167.60200500    0.56999999    2.73000002
   13.25388908  162.00799561    0.56999999    2.73000002
   13.26000023  162.00799561    0.55000001    2.73000002
   13.26416683  169.98599243    0.55000001    2.75000000
   13.26722240  177.66900635    0.55000001    2.76999998
   13.27055550  167.40400696    0.55000001    2.75000000
   13.27361107  166.98300171    0.55000001    2.75000000
   13.27416611  187.47200012    0.55000001    2.75000000
   13.27750015  167.83399963    0.55000001    2.75000000
   13.28055573  173.34100342    0.55000001    2.75000000
   13.28388977  153.69500732    0.55000001    2.76999998
   13.28722286  172.34899902    0.55000001    2.76999998
   13.29305553  150.76699829    0.55000001    2.75000000
   13.29611111  171.67300415    0.55000001    2.75000000
   13.30277824  171.67300415    0.55000001    2.75000000
   13.30694485  154.39799500    0.55000001    2.75000000
   13.30861092  180.23300171    0.55000001    2.75000000
   13.31055546  149.05000305    0.55000001    2.75000000
   13.31388950  147.09199524    0.52999997    2.75000000
   13.31694412  175.44299316    0.55000001    2.75000000
   13.32027817  158.34399414    0.52999997    2.75000000
   13.32333374  156.19700623    0.52999997    2.75000000
   13.32666683  152.47599792    0.52999997    2.75000000
   13.32999992  148.60800171    0.52999997    2.75000000
   13.33305550  176.46699524    0.55000001    2.75000000
   13.33638859  161.50700378    0.52999997    2.76999998
   13.33972168  152.73300171    0.52999997    2.76999998
   13.34194374  152.50399780    0.52999997    2.75000000
   13.34611034  152.50399780    0.52999997    2.76999998
   13.35027790  167.80299377    0.55000001    2.76999998
   13.35361195  148.94099426    0.55000001    2.75000000
   13.35666752  179.80200195    0.55000001    2.75000000
   13.36000061  163.64500427    0.55000001    2.75000000
   13.36333370  146.92399597    0.55000001    2.75000000
   13.36638927  155.65299988    0.55000001    2.75000000
   13.36972237  158.24200439    0.55000001    2.75000000
   13.37305546  157.83700562    0.55000001    2.76999998
   13.37527752  142.91700745    0.55000001    2.76999998
   13.37666702  156.73599243    0.55000001    2.76999998
   13.38000011  152.82000732    0.55000001    2.76999998
   13.38305569  150.82899475    0.55000001    2.75000000
   13.38888836  150.82899475    0.55000001    2.76999998
   13.39305496  158.34700012    0.55000001    2.75000000
   13.39638901  159.96600342    0.52999997    2.75000000
   13.39972210  145.30700684    0.52999997    2.75000000
   13.40277767  155.60600281    0.52999997    2.75000000
   13.40611076  150.55400085    0.52999997    2.76999998
   13.40861034  181.72500610    0.52999997    2.76999998
   13.40972137  142.83700562    0.52999997    2.76999998
   13.41305542  144.61199951    0.52999997    2.75000000
   13.41611099  152.93099976    0.51999998    2.76999998
   13.41944504  153.20500183    0.51999998    2.76999998
   13.42250061  151.31399536    0.51999998    2.76999998
   13.42583370  148.74200439    0.51999998    2.76999998
   13.44777775   78.03289795    0.50000000    2.75000000
   13.44805527   85.16719818    0.50000000    2.75000000
   13.45138836  133.41099548    0.50000000    2.76999998
   13.45444393  135.31199646    0.50000000    2.76999998
   13.45777798  139.99699402    0.51999998    2.76999998
   13.46111107  161.78599548    0.51999998    2.78999996
   13.46416664  130.00500488    0.51999998    2.78999996
   13.46749973  142.54400635    0.50000000    2.76999998
   13.47083282  141.08200073    0.51999998    2.76999998
   13.47472191  141.08200073    0.51999998    2.75000000
   13.47888851  131.80400085    0.51999998    2.75000000
   13.48083305  149.30000305    0.51999998    2.75000000
   13.48249912  135.49800110    0.51999998    2.75000000
   13.48583317  147.86099243    0.51999998    2.76999998
   13.48916721  148.59700012    0.51999998    2.76999998
   13.49222279  138.26300049    0.52999997    2.76999998
   13.49555588  133.77799988    0.52999997    2.76999998
   13.49888897  144.01600647    0.52999997    2.76999998
   13.50194454  152.95100403    0.52999997    2.76999998
   13.50527763  129.83200073    0.51999998    2.76999998
   13.50861073  135.21299744    0.51999998    2.76999998
   13.51166630  128.72300720    0.52999997    2.76999998
   13.51777744  128.72300720    0.51999998    2.76999998
   13.52194405  126.02799988    0.52999997    2.76999998
   13.52499962  143.70399475    0.52999997    2.76999998
   13.52833271  143.97200012    0.51999998    2.76999998
   13.53138828  133.71299744    0.51999998    2.78999996
   13.53472233  143.32600403    0.50000000    2.78999996
   13.53805637  134.26800537    0.50000000    2.76999998
   13.54111195  142.24800110    0.50000000    2.76999998
   13.54444504  140.09300232    0.47999999    2.76999998
   13.54777813  158.17399597    0.47999999    2.78999996
   13.54861164  138.57400513    0.47999999    2.78999996
   13.55138874  137.50799561    0.47999999    2.78999996
   13.55444431  133.96800232    0.47999999    2.78999996
   13.56055546  133.96800232    0.47999999    2.78999996
   13.56472206  130.63699341    0.47999999    2.78999996
   13.56805515  165.78100586    0.47999999    2.78999996
   13.57111073  160.49200439    0.47999999    2.78999996
   13.57444477  176.44700623    0.47999999    2.78999996
   13.57750034  153.87399292    0.47999999    2.80999994
   13.58083344  190.31399536    0.47999999    2.76999998
   13.58194447  164.40400696    0.47999999    2.76999998
   13.58472157  148.35899353    0.47999999    2.78999996
   13.58777714  169.92500305    0.47999999    2.78999996
   13.59111118  175.02499390    0.47999999    2.76999998
   13.59444427  218.43600464    0.47999999    2.76999998
   13.59749985  142.55200195    0.47999999    2.78999996
   13.60333347  142.55200195    0.47999999    2.80999994
   13.60750008  177.98500061    0.47999999    2.78999996
   13.61083412  151.46600342    0.47999999    2.78999996
   13.61388969  179.79400635    0.47999999    2.80999994
   13.61555576  164.63200378    0.47999999    2.80999994
   13.61750031  151.65800476    0.46000001    2.78999996
   13.62083340  170.73100281    0.44000000    2.80999994
   13.62416649  168.02600098    0.46000001    2.78999996
   13.62722206  156.17599487    0.46000001    2.78999996
   13.63055611  163.17399597    0.46000001    2.78999996
   13.63388920  154.57200623    0.47999999    2.80999994
   13.63694477  145.49499512    0.50000000    2.78999996
   13.64027786  141.18400574    0.50000000    2.78999996
   13.64611053  141.18400574    0.51999998    2.80999994
   13.65027714  149.16499329    0.51999998    2.78999996
   13.65361118  150.09500122    0.51999998    2.78999996
   13.65694427  148.63499451    0.51999998    2.76999998
   13.65999985  137.65899658    0.51999998    2.78999996
   13.66333294  147.80700684    0.51999998    2.78999996
   13.66666698  145.74699402    0.51999998    2.78999996
   13.67000008  130.51899719    0.51999998    2.78999996
   13.67305565  131.11900330    0.51999998    2.78999996
   13.67638874  139.85400391    0.51999998    2.78999996
   13.67944431  131.91799927    0.50000000    2.78999996
   13.68222237  126.24500275    0.50000000    2.78999996
   13.68305588  123.52700043    0.52999997    2.76999998
   13.68916702  123.52700043    0.50000000    2.76999998
   13.69333363  129.94500732    0.50000000    2.76999998
   13.69638920  139.58599854    0.50000000    2.78999996
   13.69972229  131.68499756    0.50000000    2.78999996
   13.70277786  130.52000427    0.50000000    2.78999996
   13.70611095  132.51199341    0.50000000    2.80999994
   13.70944405  135.14399719    0.50000000    2.78999996
   13.71249962  129.49000549    0.50000000    2.78999996
   13.71555519  140.73500061    0.47999999    2.78999996
   13.71611118  128.18899536    0.47999999    2.78999996
   13.71944427  133.31500244    0.47999999    2.80999994
   13.72277737  132.17500305    0.47999999    2.78999996
   13.72583294  130.66000366    0.47999999    2.78999996
   13.73194408  130.66000366    0.46000001    2.78999996
   13.73611164  131.06300354    0.46000001    2.80999994
   13.73916721  125.81700134    0.47999999    2.82999992
   13.74250031  122.51499939    0.47999999    2.82999992
   13.74583340  130.19700623    0.47999999    2.78999996
   13.74888897  129.59599304    0.47999999    2.80999994
   13.74916649  130.19500732    0.47999999    2.80999994
   13.75249958  126.21099854    0.47999999    2.78999996
   13.75583363  124.91200256    0.50000000    2.80999994
   13.75888920  124.66899872    0.50000000    2.78999996
   13.76222229  117.10700226    0.50000000    2.78999996
   13.76555538  123.58200073    0.50000000    2.80999994
   13.76861095  121.21700287    0.50000000    2.80999994
   13.77472210  121.21700287    0.47999999    2.80999994
   13.77888870  135.12100220    0.47999999    2.80999994
   13.78222179  117.22000122    0.47999999    2.78999996
   13.78249931  115.53500366    0.47999999    2.78999996
   13.78583336  121.49500275    0.47999999    2.80999994
   13.78916740  120.20200348    0.47999999    2.80999994
   13.79222298  120.83499908    0.47999999    2.80999994
   13.79555607  115.50199890    0.47999999    2.78999996
   13.79861164  118.32700348    0.47999999    2.80999994
   13.80194473  111.10600281    0.47999999    2.80999994
   13.80527782  120.40799713    0.47999999    2.80999994
   13.80833340  115.51200104    0.47999999    2.80999994
   13.81166649  110.12799835    0.47999999    2.80999994
   13.81750011  110.12799835    0.46000001    2.78999996
   13.82166672  115.66999817    0.44000000    2.80999994
   13.82499981  114.73799896    0.44000000    2.80999994
   13.82833290  124.05799866    0.44000000    2.80999994
   13.83138847  110.56400299    0.46000001    2.78999996
   13.83472157  107.06800079    0.46000001    2.80999994
   13.83777714  114.57700348    0.47999999    2.80999994
   13.84111118  109.75900269    0.47999999    2.80999994
   13.84444427  116.86399841    0.47999999    2.80999994
   13.84749985  117.03299713    0.46000001    2.80999994
   13.84888840  112.11299896    0.47999999    2.80999994
   13.85111141  118.53700256    0.46000001    2.82999992
   13.85444450  115.92199707    0.47999999    2.80999994
   13.86055565  115.92199707    0.47999999    2.80999994
   13.86472225  121.67600250    0.50000000    2.78999996
   13.86777782  107.48799896    0.50000000    2.78999996
   13.87111092  112.76499939    0.47999999    2.80999994
   13.87416649  118.91999817    0.47999999    2.80999994
   13.87750053  109.55500031    0.46000001    2.80999994
   13.88083363  113.87500000    0.46000001    2.80999994
   13.88222218  114.15399933    0.46000001    2.82999992
   13.88416672  113.02500153    0.46000001    2.80999994
   13.88749981  114.21399689    0.46000001    2.80999994
   13.89083290  117.88700104    0.47999999    2.80999994
   13.89388847  119.85099792    0.47999999    2.78999996
   13.89722252  118.40499878    0.47999999    2.80999994
   13.90333271  118.40499878    0.46000001    2.80999994
   13.90749931  114.83599854    0.47999999    2.80999994
   13.91055489  124.39600372    0.46000001    2.80999994
   13.91388893  114.87300110    0.44000000    2.82999992
   13.91583252  117.76699829    0.44000000    2.80999994
   13.91750050  117.25099945    0.44000000    2.82999992
   13.92083359  122.47399902    0.46000001    2.80999994
   13.92388916  119.48999786    0.46000001    2.82999992
   13.92722225  126.02799988    0.47999999    2.82999992
   13.93055630  124.09999847    0.47999999    2.80999994
   13.93361092  125.93199921    0.47999999    2.80999994
   13.93694496  126.21499634    0.47999999    2.80999994
   13.94027805  121.51399994    0.47999999    2.80999994
   13.94611073  121.51399994    0.50000000    2.80999994
   13.95027733  117.04499817    0.47999999    2.82999992
   13.95361137  120.03700256    0.46000001    2.80999994
   13.95666695  114.94000244    0.46000001    2.82999992
   13.96000004  122.22100067    0.46000001    2.82999992
   13.96333313  119.01200104    0.46000001    2.82999992
   13.96638870  125.93499756    0.46000001    2.82999992
   13.96972179  117.36900330    0.44000000    2.82999992
   13.97277737  124.80400085    0.44000000    2.82999992
   13.97611046  121.98300171    0.44000000    2.82999992
   13.97944355  123.07499695    0.44000000    2.82999992
   13.98249912  118.97000122    0.44000000    2.82999992
   13.98305511  124.84200287    0.44000000    2.82999992
   13.98888874  124.84200287    0.46000001    2.82999992
   13.99305534  124.12999725    0.46000001    2.82999992
   13.99638939  125.52400208    0.47999999    2.80999994
   13.99944496  121.34100342    0.47999999    2.82999992
   14.00277805  126.38300323    0.50000000    2.82999992
   14.00611115  127.18099976    0.50000000    2.82999992
   14.00916672  125.87000275    0.47999999    2.82999992
   14.01249981  122.28700256    0.50000000    2.80999994
   14.01583290  118.78900146    0.50000000    2.82999992
   14.01611137  117.94999695    0.50000000    2.82999992
   14.01944447  121.77799988    0.50000000    2.82999992
   14.02250004  125.76499939    0.50000000    2.80999994
   14.02583313  123.75000000    0.50000000    2.80999994
   14.03194427  123.75000000    0.50000000    2.80999994
   14.03611183  118.16000366    0.51999998    2.82999992
   14.03916740  132.11700439    0.51999998    2.80999994
   14.04250050  120.07199860    0.51999998    2.82999992
   14.04555607  121.98000336    0.51999998    2.82999992
   14.04888916  120.12500000    0.50000000    2.80999994
   14.04944515  117.82099915    0.50000000    2.80999994
   14.05277824  124.18299866    0.51999998    2.80999994
   14.05583382  122.40399933    0.51999998    2.80999994
   14.05916691  117.96399689    0.51999998    2.82999992
   14.06250000  120.54299927    0.51999998    2.82999992
   14.06555557  114.26799774    0.52999997    2.82999992
   14.06888866  122.79199982    0.52999997    2.82999992
   14.07472229  122.79199982    0.52999997    2.82999992
   14.07888889  118.51000214    0.51999998    2.82999992
   14.08194447  120.88899994    0.50000000    2.82999992
   14.08277798  112.48300171    0.51999998    2.82999992
   14.08583260  116.69599915    0.51999998    2.82999992
   14.08888817  115.98000336    0.55000001    2.82999992
   14.09222221  109.46900177    0.55000001    2.82999992
   14.09555531  116.04299927    0.55000001    2.82999992
   14.09861088  109.93800354    0.52999997    2.82999992
   14.10194492  111.57499695    0.52999997    2.82999992
   14.10500050  113.71900177    0.55000001    2.80999994
   14.10833359  116.87799835    0.55000001    2.82999992
   14.11166668  112.16500092    0.55000001    2.82999992
   14.11750031  112.16500092    0.51999998    2.82999992
   14.12166691  115.78900146    0.51999998    2.82999992
   14.12500000  112.08899689    0.52999997    2.82999992
   14.12805557  115.00299835    0.52999997    2.82999992
   14.13138866  113.34700012    0.50000000    2.82999992
   14.13444424  110.58799744    0.47999999    2.82999992
   14.13777733  113.04499817    0.47999999    2.82999992
   14.14111137  115.90299988    0.51999998    2.82999992
   14.14416695  115.40799713    0.51999998    2.84999990
   14.14750004  109.84400177    0.52999997    2.82999992
   14.14944458  114.03399658    0.55000001    2.82999992
   14.15111065  115.41100311    0.52999997    2.82999992
   14.15416622  111.37200165    0.52999997    2.82999992
   14.16027737  111.37200165    0.46000001    2.82999992
   14.16444397  121.89700317    0.46000001    2.82999992
   14.16777802  117.24500275    0.44000000    2.84999990
   14.17111111  112.81600189    0.41999999    2.84999990
   14.17416668  115.97200012    0.41999999    2.84999990
   14.17750072  115.37699890    0.41999999    2.82999992
   14.18055630  119.49199677    0.46000001    2.84999990
   14.18277836  126.83300018    0.46000001    2.82999992
   14.18444443  126.78500366    0.46000001    2.84999990
   14.18750000  128.30200195    0.47999999    2.84999990
   14.19083309  126.01899719    0.46000001    2.82999992
   14.19416714  119.07700348    0.46000001    2.84999990
   14.19722271  118.18399811    0.46000001    2.82999992
   14.20333290  118.18399811    0.46000001    2.84999990
   14.20749950  122.23999786    0.44000000    2.84999990
   14.21055508  122.70800018    0.44000000    2.82999992
   14.21388912  121.17600250    0.44000000    2.84999990
   14.21611118  117.92400360    0.41999999    2.84999990
   14.21749973  116.72100067    0.44000000    2.84999990
   14.22055531  108.86199951    0.44000000    2.84999990
   14.22388840  110.53299713    0.41999999    2.84999990
   14.22722149  111.23600006    0.41999999    2.84999990
   14.23027706  105.73999786    0.40000001    2.84999990
   14.23361111  115.43399811    0.41999999    2.84999990
   14.23666668  123.46299744    0.41999999    2.82999992
   14.24000072  113.29100037    0.44000000    2.84999990
   14.24611092  113.29100037    0.55000001    2.84999990
   14.25027752  113.96900177    0.56999999    2.84999990
   14.25333309  116.00299835    0.56999999    2.84999990
   14.25666714  121.77899933    0.58999997    2.84999990
   14.26000023  117.82800293    0.56999999    2.84999990
   14.26305580  117.35500336    0.56999999    2.84999990
   14.26638889  121.95300293    0.55000001    2.84999990
   14.26972198  123.12599945    0.55000001    2.84999990
   14.27277756  118.02400208    0.55000001    2.86999989
   14.27611065  118.69899750    0.55000001    2.84999990
   14.27916622  123.92400360    0.55000001    2.84999990
   14.28249931  121.10399628    0.56999999    2.84999990
   14.28305531  131.82099915    0.56999999    2.84999990
   14.28888893  131.82099915    0.56999999    2.84999990
   14.29305553  124.06999969    0.56999999    2.84999990
   14.29638958  130.57699585    0.56999999    2.84999990
   14.29944515  120.19100189    0.56999999    2.84999990
   14.30277824  114.97100067    0.58999997    2.84999990
   14.30611134  111.49700165    0.61000001    2.84999990
   14.30916691  125.04799652    0.67000002    2.84999990
   14.31250000  129.44099426    0.67000002    2.84999990
   14.31555557  118.69599915    0.67000002    2.84999990
   14.31638908  112.72899628    0.64999998    2.84999990
   14.31944466  120.93800354    0.63000000    2.84999990
   14.32250023  114.08699799    0.63000000    2.84999990
   14.32583332  115.71600342    0.63000000    2.84999990
   14.33166695  115.71600342    0.63000000    2.84999990
   14.33583260  109.72699738    0.61000001    2.86999989
   14.33916664  103.46800232    0.63000000    2.86999989
   14.34249973  111.45600128    0.63000000    2.86999989
   14.34555531  108.45899963    0.63000000    2.86999989
   14.34888840  108.07599640    0.64999998    2.84999990
   14.34972191  107.64099884    0.64999998    2.84999990
   14.35249996  115.86199951    0.67000002    2.86999989
   14.35555553  112.77799988    0.67000002    2.86999989
   14.35888958  116.88999939    0.70999998    2.84999990
   14.36222267  113.59300232    0.75000000    2.84999990
   14.36527824  120.58699799    0.76999998    2.84999990
   14.36861134  117.79399872    0.81999999    2.86999989
   14.37472248  117.79399872    0.92000002    2.84999990
   14.37888908  121.57800293    0.95999998    2.84999990
   14.38194466  117.22100067    1.00000000    2.84999990
   14.38305569  119.70600128    0.98000002    2.84999990
   14.38583279  116.98100281    0.95999998    2.82999992
   14.38888836  131.37199402    0.94000000    2.86999989
   14.39222240  119.45500183    0.92000002    2.84999990
   14.39555550  130.67999268    0.94000000    2.84999990
   14.39861107  118.46299744    0.94000000    2.84999990
   14.40194416  109.91300201    0.94000000    2.84999990
   14.40499973  128.31599426    0.94000000    2.84999990
   14.40833282  125.62999725    0.95999998    2.84999990
   14.41166592  118.60800171    0.95999998    2.82999992
   14.41750050  118.60800171    0.98000002    2.84999990
   14.42166710  116.96199799    1.09000003    2.84999990
   14.42472267  110.20999908    1.25000000    2.82999992
   14.42805576  121.88899994    1.21000004    2.84999990
   14.43138885  120.60299683    1.14999998    2.84999990
   14.43444443  123.74500275    1.09000003    2.84999990
   14.43777752  118.48799896    0.98000002    2.84999990
   14.44111156  117.32900238    0.92000002    2.84999990
   14.44416714  120.36699677    0.83999997    2.86999989
   14.44750023  116.73999786    0.86000001    2.86999989
   14.46472168  119.59700012    1.21000004    2.84999990
   14.46888828  119.59700012    1.00000000    2.84999990
   14.47305489  117.51399994    0.88000000    2.86999989
   14.47638798  117.96399689    0.98000002    2.86999989
   14.47944355  110.75800323    1.03999996    2.84999990
   14.48277760  117.76200104    1.03999996    2.86999989
   14.48583317  118.38600159    1.00000000    2.86999989
   14.48916721  113.43499756    1.00000000    2.86999989
   14.49250031  115.05100250    1.01999998    2.84999990
   14.49555588  122.23200226    1.05999994    2.84999990
   14.49805546  112.36299896    1.01999998    2.84999990
   14.49916649  114.40699768    0.98000002    2.84999990
   14.50249958  112.83499908    0.79000002    2.86999989
   14.50583363  110.07900238    0.76999998    2.84999990
   14.51166630  110.07900238    0.86000001    2.86999989
   14.51583290  111.10800171    0.81999999    2.86999989
   14.51916599  107.51699829    0.83999997    2.86999989
   14.52222157  107.64499664    0.81999999    2.86999989
   14.52555561  110.03199768    0.81999999    2.86999989
   14.52888870  110.13099670    0.81999999    2.86999989
   14.53138828  108.24900055    0.80000001    2.86999989
   14.53222179  106.20400238    0.80000001    2.86999989
   14.53555584  116.86900330    0.81999999    2.86999989
   14.53888893  114.32199860    0.80000001    2.86999989
   14.54194450  109.16500092    0.73000002    2.86999989
   14.54527855  108.17800140    0.70999998    2.86999989
   14.54833412  111.78600311    0.67000002    2.86999989
   14.55472279  111.78600311    0.70999998    2.86999989
   14.55861092  110.72599792    0.69000000    2.86999989
   14.56194496  109.39199829    0.73000002    2.84999990
   14.56472206  102.69400024    0.75000000    2.86999989
   14.56555557  109.59200287    0.76999998    2.86999989
   14.56888866  112.00399780    0.76999998    2.89000010
   14.57222176  113.17800140    0.76999998    2.84999990
   14.57527733  105.82599640    0.75000000    2.86999989
   14.57861137  109.65100098    0.70999998    2.86999989
   14.58194447  108.96199799    0.69000000    2.86999989
   14.58500004  110.79399872    0.67000002    2.89000010
   14.58833313  108.18099976    0.67000002    2.86999989
   14.59138870  111.59999847    0.61000001    2.86999989
   14.59749985  111.59999847    0.63000000    2.86999989
   14.60166740  111.07900238    0.69000000    2.86999989
   14.60472298  112.50399780    0.67000002    2.86999989
   14.60805607  114.07700348    0.69000000    2.86999989
   14.61138916  115.02300262    0.69000000    2.89000010
   14.61444473  108.76899719    0.67000002    2.86999989
   14.61777782  112.62699890    0.70999998    2.86999989
   14.62083340  112.97699738    0.75000000    2.86999989
   14.62416649  114.20099640    0.76999998    2.86999989
   14.62750053  112.69200134    0.75000000    2.86999989
   14.63055611  108.20300293    0.75000000    2.86999989
   14.63249969  111.00900269    0.73000002    2.86999989
   14.63444424  115.24400330    0.73000002    2.86999989
   14.64027786  115.24400330    0.75000000    2.86999989
   14.64444447  107.42900085    0.75000000    2.86999989
   14.64777756  111.45099640    0.75000000    2.86999989
   14.65083313  109.25399780    0.76999998    2.86999989
   14.65416622  104.12000275    0.80000001    2.89000010
   14.65722179  106.52400208    0.64999998    2.86999989
   14.66055489  111.40100098    0.55000001    2.86999989
   14.66388893  112.82099915    0.55000001    2.86999989
   14.66583252  103.03199768    0.52999997    2.86999989
   14.66750050   97.49659729    0.52999997    2.84999990
   14.67055607  100.66400146    0.52999997    2.86999989
   14.67388916  100.73999786    0.55000001    2.86999989
   14.67722225   98.02259827    0.55000001    2.84999990
   14.68305588   98.02259827    0.55000001    2.86999989
   14.68722248  109.20600128    0.52999997    2.86999989
   14.69055557  113.04299927    0.52999997    2.86999989
   14.69388866  103.24600220    0.52999997    2.86999989
   14.69722271  110.66600037    0.52999997    2.86999989
   14.69944477  108.97299957    0.51999998    2.86999989
   14.70055580  106.91999817    0.51999998    2.86999989
   14.70388889  100.07099915    0.51999998    2.86999989
   14.70722198  114.65100098    0.51999998    2.86999989
   14.71027756  100.32299805    0.51999998    2.86999989
   14.71361065  103.75000000    0.51999998    2.86999989
   14.71694374   97.33630371    0.55000001    2.86999989
   14.72027779  105.74600220    0.55000001    2.86999989
   14.72611046  105.74600220    0.52999997    2.86999989
   14.72999954  178.68899536    0.52999997    2.89000010
   14.73277760  100.15799713    0.55000001    2.86999989
   14.73361111  107.84899902    0.55000001    2.86999989
   14.73694515  106.56700134    0.55000001    2.86999989
   14.74027824  105.44400024    0.55000001    2.86999989
   14.74333382  103.05000305    0.56999999    2.86999989
   14.74666691  103.34799957    0.56999999    2.86999989
   14.74972248   98.37560272    0.58999997    2.86999989
   14.75305557  101.60500336    0.56999999    2.84999990
   14.75638866  107.10399628    0.55000001    2.86999989
   14.75944424  111.62200165    0.55000001    2.86999989
   14.76277733  108.66899872    0.55000001    2.86999989
   14.76888847  108.66899872    0.56999999    2.86999989
   14.77305508  111.41400146    0.61000001    2.86999989
   14.77611065  100.07800293    0.63000000    2.86999989
   14.77944374  117.66500092    0.63000000    2.84999990
   14.78277779  111.11100006    0.63000000    2.84999990
   14.78611183  108.83399963    0.67000002    2.86999989
   14.78916740  117.04000092    0.50000000    2.89000010
   14.79250050  110.42099762    0.47999999    2.86999989
   14.79555607  114.18699646    0.47999999    2.86999989
   14.79888916  107.24199677    0.47999999    2.86999989
   14.79972267  112.25099945    0.47999999    2.86999989
   14.80249977  108.35399628    0.47999999    2.86999989
   14.80555534  112.09600067    0.50000000    2.86999989
   14.81166649  112.09600067    0.51999998    2.89000010
   14.81583309  114.23400116    0.55000001    2.86999989
   14.81916618  115.42700195    0.56999999    2.86999989
   14.82222176  110.20200348    0.58999997    2.86999989
   14.82555580  115.87200165    0.56999999    2.86999989
   14.82861137  114.41100311    0.56999999    2.86999989
   14.83194447  110.99900055    0.55000001    2.86999989
   14.83305550  115.09300232    0.52999997    2.86999989
   14.83555508  113.19400024    0.55000001    2.86999989
   14.83861065  113.10900116    0.55000001    2.89000010
   14.84194374  115.27200317    0.55000001    2.86999989
   14.84527779  113.13400269    0.55000001    2.86999989
   14.84833336  110.21199799    0.58999997    2.86999989
   14.85444450  110.21199799    0.56999999    2.86999989
   14.85861111  146.99499512    0.55000001    2.86999989
   14.86194515  120.09799957    0.55000001    2.86999989
   14.86500072  151.60400391    0.55000001    2.86999989
   14.86666679  157.90499878    0.55000001    2.86999989
   14.86888885  152.56900024    0.55000001    2.86999989
   14.87194443  137.84800720    0.55000001    2.86999989
   14.87527752  133.43200684    0.52999997    2.86999989
   14.87861156  133.47399902    0.51999998    2.89000010
   14.88166714  120.55100250    0.51999998    2.89000010
   14.88500023  120.80899811    0.51999998    2.86999989
   14.88805580  118.23500061    0.50000000    2.86999989
   14.89138889  118.61799622    0.50000000    2.86999989
   14.89750004  118.61799622    0.47999999    2.86999989
   14.90138817  112.76599884    0.47999999    2.86999989
   14.90472221  116.63700104    0.50000000    2.89000010
   14.90805531  114.56600189    0.50000000    2.86999989
   14.91111088  117.67400360    0.51999998    2.89000010
   14.91444397  122.60600281    0.50000000    2.86999989
   14.91777802  103.70300293    0.47999999    2.89000010
   14.92083359  112.93399811    0.50000000    2.86999989
   14.92416668  115.94400024    0.50000000    2.86999989
   14.92722225  115.68800354    0.50000000    2.86999989
   14.93055630  117.68199921    0.51999998    2.89000010
   14.93333340  113.50499725    0.50000000    2.89000010
   14.93444443  119.82099915    0.50000000    2.89000010
   14.94027805  119.82099915    0.51999998    2.86999989
   14.94444466  104.79799652    0.52999997    2.86999989
   14.94750023  112.18299866    0.51999998    2.89000010
   14.95083332  100.67299652    0.51999998    2.89000010
   14.95416641  107.21600342    0.51999998    2.89000010
   14.95722198  106.76699829    0.52999997    2.89000010
   14.96055508  113.85299683    0.50000000    2.86999989
   14.96388912  101.83399963    0.50000000    2.86999989
   14.96666622  109.64499664    0.50000000    2.86999989
   14.96749973  119.67700195    0.50000000    2.86999989
   14.97055531  106.44699860    0.47999999    2.89000010
   14.97388840  104.44400024    0.46000001    2.86999989
   14.97722149  110.01499939    0.46000001    2.89000010
   14.98305511  110.01499939    0.44000000    2.91000009
   14.98722267  106.12500000    0.41999999    2.89000010
   14.99055576  104.50099945    0.40000001    2.89000010
   14.99361134  104.00900269    0.41999999    2.89000010
   14.99694443  109.96199799    0.41999999    2.89000010
   15.00000000  107.10500336    0.41999999    2.89000010
   15.00055599  108.69699860    0.41999999    2.89000010
   15.00361156   95.16770172    0.41999999    2.89000010
   15.00694466  105.71399689    0.41999999    2.89000010
   15.01000023  115.93599701    0.41999999    2.89000010
   15.01333332  115.87200165    0.40000001    2.86999989
   15.01666641  105.26200104    0.41999999    2.91000009
   15.01972198  119.76100159    0.36000001    2.89000010
   15.02583313  119.76100159    0.36000001    2.89000010
   15.02999973  108.37000275    0.36000001    2.89000010
   15.03333378  114.94200134    0.38000000    2.91000009
   15.03388977  109.53500366    0.38000000    2.91000009
   15.03694534  104.92900085    0.38000000    2.89000010
   15.04027843  104.83300018    0.38000000    2.89000010
   15.04333401   98.36060333    0.38000000    2.89000010
   15.04666710  104.20500183    0.38000000    2.86999989
   15.05000019  114.30999756    0.36000001    2.89000010
   15.05305576  106.06800079    0.36000001    2.91000009
   15.05638885  101.80899811    0.36000001    2.91000009
   15.05972195  115.15899658    0.38000000    2.89000010
   15.06277752  101.49700165    0.40000001    2.89000010
   15.06888866  101.49700165    0.41999999    2.89000010
   15.07277775  107.09300232    0.40000001    2.91000009
   15.07611084  111.79799652    0.44000000    2.89000010
   15.07944393  119.61100006    0.44000000    2.91000009
   15.08249950  109.07599640    0.44000000    2.91000009
   15.08583260  105.00000000    0.44000000    2.89000010
   15.08916664  107.21499634    0.44000000    2.89000010
   15.09222221  110.51599884    0.46000001    2.89000010
   15.09555531   92.70339966    0.44000000    2.89000010
   15.09861088  106.41100311    0.46000001    2.89000010
   15.10000038  116.64499664    0.46000001    2.89000010
   15.10249996  102.29199982    0.47999999    2.89000010
   15.10555553  109.19499969    0.47999999    2.89000010
   15.11166668  109.19499969    0.46000001    2.91000009
   15.11583328  109.39700317    0.46000001    2.89000010
   15.11888885  105.00099945    0.46000001    2.91000009
   15.12222195  104.02100372    0.44000000    2.89000010
   15.12555599  101.16000366    0.41999999    2.89000010
   15.12861156  105.51399994    0.41999999    2.89000010
   15.13194466  107.16100311    0.44000000    2.89000010
   15.13333321  104.28199768    0.34000000    2.89000010
   15.13555527  105.04299927    0.31999999    2.89000010
   15.13861084  101.05400085    0.31999999    2.89000010
   15.14194393  109.46700287    0.31999999    2.89000010
   15.14527798  104.45600128    0.31999999    2.89000010
   15.14833355  108.66200256    0.31999999    2.89000010
   15.15444374  108.66200256    0.40000001    2.91000009
   15.15861034  111.59600067    0.44000000    2.91000009
   15.16194439  109.93800354    0.44000000    2.89000010
   15.16499996  109.98600006    0.44000000    2.89000010
   15.16694450  108.22599792    0.44000000    2.89000010
   15.16861153  110.27100372    0.44000000    2.89000010
   15.17194462  107.19499969    0.44000000    2.91000009
   15.17527771  107.84799957    0.44000000    2.91000009
   15.17833328  111.16100311    0.44000000    2.89000010
   15.18166733  110.07399750    0.40000001    2.91000009
   15.18500042  110.44999695    0.41999999    2.91000009
   15.18805599  122.59899902    0.40000001    2.91000009
   15.19138908  114.86799622    0.41999999    2.91000009
   15.19722271  114.86799622    0.40000001    2.91000009
   15.20138836  123.33000183    0.36000001    2.91000009
   15.20472240  109.88700104    0.38000000    2.89000010
   15.20777798  106.60500336    0.38000000    2.91000009
   15.21111107  109.62599945    0.38000000    2.89000010
   15.21444416  128.41299438    0.40000001    2.91000009
   15.21749973  114.18199921    0.46000001    2.91000009
   15.22083282   98.86380005    0.46000001    2.91000009
   15.22416592  103.66999817    0.46000001    2.91000009
   15.22722149  101.20800018    0.47999999    2.91000009
   15.23055553  112.60800171    0.47999999    2.91000009
   15.23361111  102.19999695    0.47999999    2.91000009
   15.23388958  110.98400116    0.47999999    2.91000009
   15.24027824  110.98400116    0.52999997    2.91000009
   15.24416733  102.27200317    0.51999998    2.89000010
   15.24750042  103.89800262    0.51999998    2.91000009
   15.25083351  105.11900330    0.50000000    2.89000010
   15.25388908  108.44200134    0.41999999    2.89000010
   15.25722218  109.18399811    0.41999999    2.89000010
   15.26055527  108.51100159    0.41999999    2.91000009
   15.26361084  104.87100220    0.44000000    2.91000009
   15.26694393  105.04900360    0.47999999    2.91000009
   15.26722240  107.42099762    0.47999999    2.91000009
   15.27055550  104.54000092    0.47999999    2.91000009
   15.27388859  107.76999664    0.47999999    2.89000010
   15.27694416  101.95600128    0.46000001    2.91000009
   15.28305531  101.95600128    0.46000001    2.91000009
   15.28722286   96.94470215    0.46000001    2.91000009
   15.29027843  101.47399902    0.46000001    2.91000009
   15.29361153  110.54699707    0.46000001    2.91000009
   15.29694462  116.82800293    0.46000001    2.91000009
   15.30000019  107.83399963    0.46000001    2.91000009
   15.30055618  108.69899750    0.47999999    2.91000009
   15.30388927  103.36399841    0.47999999    2.91000009
   15.30694485  107.02700043    0.51999998    2.91000009
   15.31027794  107.97299957    0.56999999    2.91000009
   15.31361103  105.25199890    0.61000001    2.91000009
   15.31666660  103.00700378    0.61000001    2.89000010
   15.31999969  102.98699951    0.61000001    2.89000010
   15.32583332  102.98699951    0.76999998    2.89000010
   15.32999992  107.98600006    0.75000000    2.89000010
   15.33333302  109.39199829    0.73000002    2.91000009
   15.33388901  109.18699646    0.73000002    2.91000009
   15.33694458  109.73300171    0.61000001    2.89000010
   15.34000015  111.09999847    0.61000001    2.89000010
   15.34333324  113.02899933    0.67000002    2.89000010
   15.34666634  108.72399902    0.67000002    2.91000009
   15.35055637  106.16500092    0.67000002    2.91000009
   15.35388947  105.84400177    0.67000002    2.91000009
   15.35694504   98.76869965    0.61000001    2.89000010
   15.36027813  117.19699860    0.50000000    2.91000009
   15.36333370  106.93499756    0.44000000    2.91000009
   15.36861134  106.93499756    0.41999999    2.91000009
   15.37277794  109.30799866    0.40000001    2.91000009
   15.37611103  121.70400238    0.38000000    2.91000009
   15.37916660  113.48600006    0.38000000    2.91000009
   15.39083290  107.84400177    0.00000000    0.00000000
   15.41083336  110.52999878    0.00000000    0.00000000
   15.41138840  107.28099823    0.51999998    2.91000009
   15.41444397  105.53399658    0.51999998    2.91000009
   15.42027855  105.53399658    0.51999998    2.91000009
   15.42444515  107.63300323    0.52999997    2.91000009
   15.42750072  107.60099792    0.52999997    2.91000009
   15.43083382  111.35900116    0.56999999    2.89000010
   15.43416691  109.53500366    0.63000000    2.89000010
   15.43722248  111.89099884    0.67000002    2.89000010
   15.44055557  110.72599792    0.58999997    2.91000009
   15.44388866  111.98000336    0.55000001    2.89000010
   15.44472218  112.67099762    0.55000001    2.89000010
   15.44750023  104.66400146    0.55000001    2.89000010
   15.45055580  107.88700104    0.61000001    2.89000010
   15.45388889  109.32299805    0.61000001    2.89000010
   15.45722198  109.84999847    0.61000001    2.89000010
   15.46305561  109.84999847    0.69000000    2.89000010
   15.48194408  113.42400360    0.88000000    2.89000010
   15.48527813  111.85399628    0.88000000    2.89000010
   15.48861122  113.21399689    0.89999998    2.89000010
   15.49166679  116.20400238    0.89999998    2.91000009
   15.49499989  112.15399933    0.89999998    2.91000009
   15.49805546  107.50399780    0.76999998    2.91000009
   15.50138855  106.86799622    0.64999998    2.89000010
   15.50611115  106.86799622    0.55000001    2.91000009
   15.51027775  114.73699951    0.47999999    2.91000009
   15.51361084  108.93499756    0.44000000    2.91000009
   15.51500034  112.32599640    0.67000002    2.91000009
   15.51722240  114.51499939    0.64999998    2.91000009
   15.52027798  108.16300201    0.64999998    2.91000009
   15.52361107  107.95500183    0.63000000    2.91000009
   15.52694416  103.61900330    0.56999999    2.91000009
   15.52999973  111.40299988    0.50000000    2.91000009
   15.53333378  103.04199982    0.47999999    2.91000009
   15.53666687  109.42299652    0.47999999    2.91000009
   15.53972244  104.53800201    0.46000001    2.91000009
   15.54305553  110.40699768    0.46000001    2.91000009
   15.54916668  110.40699768    0.40000001    2.91000009
   15.55333328  101.46800232    0.40000001    2.89000010
   15.55666733  104.02799988    0.40000001    2.89000010
   15.56027794  105.52700043    0.40000001    2.91000009
   15.56361103  105.75299835    0.40000001    2.91000009
   15.56666660  104.25599670    0.40000001    2.91000009
   15.56999969  100.91500092    0.38000000    2.91000009
   15.57333374  103.71499634    0.34000000    2.91000009
   15.57638836  107.29399872    0.34000000    2.91000009
   15.57972240  101.44699860    0.34000000    2.91000009
   15.68388939   -1.00000000   -1.00000000   -1.00000000
   15.77722168   -1.00000000   -1.00000000   -1.00000000
   15.95749950   -1.00000000   -1.00000000   -1.00000000
   15.97944355   84.23429871    0.55000001    2.91000009
   15.98277760  125.05100250    0.52999997    2.89000010
   15.98611164  146.87600708    0.55000001    2.89000010
   15.98916721  133.28599548    0.52999997    2.91000009
   15.99250031  137.55299377    0.52999997    2.89000010
   15.99583340  113.82299805    0.55000001    2.89000010
   15.99972248  113.82299805    0.55000001    2.91000009
   16.00388908  123.60600281    0.55000001    2.91000009
   16.00722313  115.10800171    0.55000001    2.89000010
   16.01055527  122.62100220    0.55000001    2.89000010
   16.01277733  120.97599792    0.55000001    2.89000010
   16.01416588  118.90799713    0.55000001    2.89000010
   16.01722145  121.75299835    0.55000001    2.89000010
   16.02055550  120.27100372    0.56999999    2.89000010
   16.02388954  111.04100037    0.55000001    2.89000010
   16.02694511  127.20300293    0.56999999    2.89000010
   16.03027725  112.03299713    0.56999999    2.89000010
   16.03361130  103.36399841    0.56999999    2.91000009
   16.03666687  108.62899780    0.56999999    2.91000009
   16.04277802  108.62899780    0.58999997    2.89000010
   16.04694366  104.64299774    0.61000001    2.91000009
   16.04999924  105.52999878    0.61000001    2.89000010
   16.05333328  102.92900085    0.61000001    2.89000010
   16.05638885  103.91200256    0.61000001    2.89000010
   16.05972099  105.31199646    0.61000001    2.89000010
   16.06305504   98.07859802    0.61000001    2.89000010
   16.06611061  104.18299866    0.61000001    2.91000009
   16.06944466  115.51100159    0.61000001    2.89000010
   16.07277870  105.58899689    0.61000001    2.89000010
   16.07583427  110.70700073    0.61000001    2.89000010
   16.07916832  108.35900116    0.61000001    2.91000009
   16.07972336  106.25199890    0.61000001    2.91000009
   16.08555603  106.25199890    0.61000001    2.89000010
   16.08972359  107.11100006    0.58999997    2.89000010
   16.09277916  100.49800110    0.58999997    2.89000010
   16.09611130  106.59100342    0.58999997    2.89000010
   16.09944534  106.42199707    0.58999997    2.89000010
   16.10250092  105.93499756    0.56999999    2.89000010
   16.10583305  105.85299683    0.56999999    2.91000009
   16.10916710  105.17400360    0.56999999    2.91000009
   16.11222267  104.70500183    0.52999997    2.89000010
   16.11305618  103.23200226    0.52999997    2.91000009
   16.11611176  100.99600220    0.52999997    2.86999989
   16.11916733  100.16899872    0.52999997    2.86999989
   16.12249947  103.93499756    0.52999997    2.89000010
   16.12833405  103.93499756    0.55000001    2.89000010
   16.13249969  101.93199921    0.51999998    2.89000010
   16.13583374  101.89499664    0.52999997    2.91000009
   16.13888931  103.53399658    0.51999998    2.89000010
   16.14222145  108.33399963    0.52999997    2.89000010
   16.14555550  105.15799713    0.55000001    2.89000010
   16.14638901  102.65499878    0.55000001    2.89000010
   16.14888954   99.38600159    0.55000001    2.89000010
   16.15222168  101.62100220    0.55000001    2.89000010
   16.15555573  105.85099792    0.55000001    2.89000010
   16.15861130  107.19999695    0.55000001    2.89000010
   16.16194344  103.04699707    0.55000001    2.89000010
   16.16527748  104.17199707    0.55000001    2.89000010
   16.17138863  104.17199707    0.55000001    2.89000010
   16.17527771  102.74900055    0.55000001    2.89000010
   16.17860985  100.48000336    0.55000001    2.89000010
   16.17972183  101.59600067    0.55000001    2.89000010
   16.18222237  105.74700165    0.55000001    2.89000010
   16.18555450  105.31199646    0.55000001    2.89000010
   16.18888855  104.08799744    0.55000001    2.89000010
   16.19194412  103.20800018    0.55000001    2.89000010
   16.19527626  105.93399811    0.55000001    2.89000010
   16.19861031  100.91600037    0.55000001    2.89000010
   16.20166779  112.54399872    0.55000001    2.89000010
   16.20499992  105.82499695    0.55000001    2.89000010
   16.20805550  106.57399750    0.55000001    2.89000010
   16.21416664  106.57399750    0.55000001    2.89000010
   16.21833420  105.28199768    0.55000001    2.89000010
   16.22138977  108.91100311    0.55000001    2.89000010
   16.22472191  111.61499786    0.55000001    2.89000010
   16.22777748  107.65699768    0.55000001    2.89000010
   16.23111153  109.76599884    0.55000001    2.89000010
   16.23444557  109.31900024    0.55000001    2.89000010
   16.23750114  106.95700073    0.55000001    2.89000010
   16.24083328  103.27400208    0.55000001    2.89000010
   16.24416733  107.82700348    0.55000001    2.89000010
   16.24638939  106.64800262    0.55000001    2.89000010
   16.24749947  107.85800171    0.55000001    2.89000010
   16.25083351  105.70099640    0.55000001    2.89000010
   16.25694466  105.70099640    0.55000001    2.89000010
   16.26111031  107.16899872    0.55000001    2.89000010
   16.26416588   99.62779999    0.55000001    2.89000010
   16.26749992  119.18599701    0.55000001    2.89000010
   16.27083397  111.91500092    0.55000001    2.89000010
   16.27388954  115.26300049    0.55000001    2.89000010
   16.27722168  154.85200500    0.55000001    2.89000010
   16.27972221  109.49600220    0.55000001    2.89000010
   16.28083229  117.55500031    0.55000001    2.89000010
   16.28416634  112.42600250    0.55000001    2.89000010
   16.28750038  106.23600006    0.55000001    2.89000010
   16.29055595  110.80000305    0.55000001    2.89000010
   16.29388809  104.19599915    0.55000001    2.89000010
   16.29972076  104.19599915    0.55000001    2.89000010
   16.30388832  104.36699677    0.55000001    2.89000010
   16.30722237  110.22799683    0.55000001    2.89000010
   16.31027794  100.76999664    0.55000001    2.89000010
   16.31305504  110.07299805    0.55000001    2.89000010
   16.31388855  106.01000214    0.55000001    2.89000010
   16.31722260  101.30799866    0.55000001    2.89000010
   16.32055664  107.80699921    0.55000001    2.89000010
   16.32361221  109.27700043    0.55000001    2.89000010
   16.32694626  110.53399658    0.55000001    2.89000010
   16.33027840  112.17800140    0.55000001    2.89000010
   16.33333397  115.92700195    0.55000001    2.89000010
   16.33666801  113.51000214    0.55000001    2.89000010
   16.34250069  113.51000214    0.55000001    2.89000010
   16.34666824  109.16500092    0.55000001    2.89000010
   16.35000038  110.75900269    0.55000001    2.89000010
   16.35333443  112.17199707    0.55000001    2.89000010
   16.35639000  107.63400269    0.55000001    2.89000010
   16.35972214  105.68099976    0.55000001    2.89000010
   16.36277771  110.69400024    0.55000001    2.89000010
   16.36611176  106.82199860    0.55000001    2.89000010
   16.36944389  107.80899811    0.55000001    2.89000010
   16.37249947  107.38099670    0.55000001    2.89000010
   16.37583351  116.23300171    0.55000001    2.89000010
   16.37916756  107.79199982    0.55000001    2.89000010
   16.37972260  113.06700134    0.55000001    2.89000010
   16.38555527  113.06700134    0.55000001    2.89000010
   16.38972282  105.78600311    0.55000001    2.89000010
   16.39277840  107.15100098    0.55000001    2.89000010
   16.39611053  102.72299957    0.55000001    2.89000010
   16.39916611  110.47000122    0.55000001    2.89000010
   16.40250015  104.49600220    0.55000001    2.89000010
   16.40583229   98.87280273    0.55000001    2.89000010
   16.40916634  108.09899902    0.55000001    2.89000010
   16.41222191   97.44249725    0.55000001    2.89000010
   16.41305542  107.46600342    0.55000001    2.89000010
   16.41611099   98.42600250    0.55000001    2.89000010
   16.41916656  108.22899628    0.55000001    2.89000010
   16.42249870  106.53900146    0.55000001    2.89000010
   16.42833328  106.53900146    0.55000001    2.89000010
   16.43249893  104.82900238    0.55000001    2.89000010
   16.43555450  106.31900024    0.55000001    2.89000010
   16.43888855  103.79000092    0.55000001    2.89000010
   16.44222069  105.05699921    0.55000001    2.89000010
   16.44527626  113.16799927    0.55000001    2.89000010
   16.44638824  102.22599792    0.55000001    2.89000010
   16.44916534  102.17800140    0.55000001    2.89000010
   16.45222282  104.88899994    0.55000001    2.89000010
   16.45555687  105.19400024    0.55000001    2.89000010
   16.45861244  111.67900085    0.55000001    2.89000010
   16.46194458  111.79299927    0.55000001    2.89000010
   16.46527863  101.67299652    0.55000001    2.89000010
   16.47111130  101.67299652    0.55000001    2.89000010
   16.47527885  103.70899963    0.55000001    2.89000010
   16.47861099  104.25000000    0.55000001    2.89000010
   16.47972298  105.05999756    0.55000001    2.89000010
   16.48222351  105.04399872    0.55000001    2.89000010
   16.48527718  102.07299805    0.55000001    2.89000010
   16.48861122  110.33499908    0.55000001    2.89000010
   16.49166679  108.39800262    0.55000001    2.89000010
   16.49500084  106.32900238    0.55000001    2.89000010
   16.49833298  105.11900330    0.55000001    2.89000010
   16.50138855  107.46299744    0.55000001    2.89000010
   16.50472260  106.23100281    0.55000001    2.89000010
   16.50805473  109.07299805    0.55000001    2.89000010
   16.51388931  109.07299805    0.55000001    2.89000010
   16.51805496  114.38899994    0.55000001    2.89000010
   16.52138901  107.58899689    0.55000001    2.89000010
   16.52444458  107.68499756    0.55000001    2.89000010
   16.52777672  100.17299652    0.55000001    2.89000010
   16.53111076   96.88289642    0.55000001    2.89000010
   16.53416634  142.49099731    0.55000001    2.89000010
   16.53750038  108.26000214    0.55000001    2.89000010
   16.54083252  110.69699860    0.55000001    2.89000010
   16.54388809  104.79599762    0.55000001    2.89000010
   16.54638863  106.75000000    0.55000001    2.89000010
   16.54777718  104.14399719    0.55000001    2.89000010
   16.55083275  100.47000122    0.55000001    2.89000010
   16.55694389  100.47000122    0.55000001    2.89000010
   16.56083298  102.63899994    0.55000001    2.89000010
   16.56416512  103.02899933    0.55000001    2.89000010
   16.56750107  106.79599762    0.55000001    2.89000010
   16.57055664  111.33499908    0.55000001    2.89000010
   16.57389069  105.20999908    0.55000001    2.89000010
   16.57722282  103.82599640    0.55000001    2.89000010
   16.57972336  104.26599884    0.55000001    2.89000010
   16.58083344  111.19999695    0.55000001    2.89000010
   16.58388901  101.36799622    0.55000001    2.89000010
   16.58722305  106.30000305    0.55000001    2.89000010
   16.59027863  102.60600281    0.55000001    2.89000010
   16.59361267  106.93099976    0.55000001    2.89000010
   16.59972191  106.93099976    0.55000001    2.89000010
   16.60388947  105.15000153    0.55000001    2.89000010
   16.60694504  105.77400208    0.55000001    2.89000010
   16.61027908  106.21600342    0.55000001    2.89000010
   16.61305618  105.53500366    0.55000001    2.89000010
   16.61388969  116.71499634    0.55000001    2.89000010
   16.61694527  106.72599792    0.55000001    2.89000010
   16.62027740  104.16899872    0.55000001    2.89000010
   16.62333298  104.65599823    0.55000001    2.89000010
   16.62666702  106.01999664    0.55000001    2.89000010
   16.63000107  106.34999847    0.55000001    2.89000010
   16.63305473  101.30699921    0.55000001    2.89000010
   16.63638878  103.23100281    0.55000001    2.89000010
   16.64249992  103.23100281    0.55000001    2.89000010
   16.64666748  106.77100372    0.55000001    2.89000010
   16.64999962  109.99900055    0.55000001    2.89000010
   16.65305519  110.07900238    0.55000001    2.89000010
   16.65638924  105.55699921    0.55000001    2.89000010
   16.65944481  106.12500000    0.55000001    2.89000010
   16.66277695  109.30400085    0.55000001    2.89000010
   16.66611099  110.74400330    0.55000001    2.89000010
   16.66916656  110.05100250    0.55000001    2.89000010
   16.67249870  105.49900055    0.55000001    2.89000010
   16.67583275  108.17600250    0.55000001    2.89000010
   16.67888832  104.67900085    0.55000001    2.89000010
   16.67972183  108.54000092    0.55000001    2.89000010
   16.68527603  108.54000092    0.55000001    2.89000010
   16.68944359  100.36699677    0.55000001    2.89000010
   16.69277763  101.74700165    0.55000001    2.89000010
   16.69583321  109.23699951    0.55000001    2.89000010
   16.69916534  105.36499786    0.55000001    2.89000010
   16.70250130  103.93900299    0.55000001    2.89000010
   16.70555687  105.65599823    0.55000001    2.89000010
   16.70888901  107.97499847    0.55000001    2.89000010
   16.71222305  104.64499664    0.55000001    2.89000010
   16.71305656  108.88899994    0.55000001    2.89000010
   16.71583366  105.18299866    0.55000001    2.89000010
   16.71888924  112.56199646    0.55000001    2.89000010
   16.72222328  104.38600159    0.55000001    2.89000010
   16.72833443  104.38600159    0.55000001    2.89000010
   16.73222351  103.59600067    0.55000001    2.89000010
   16.73555565  107.37899780    0.55000001    2.89000010
   16.73888969  104.85299683    0.55000001    2.89000010
   16.74194527  104.49299622    0.55000001    2.89000010
   16.74527740  107.40599823    0.55000001    2.89000010
   16.74638939  106.33499908    0.55000001    2.89000010
   16.74888992  103.63400269    0.55000001    2.89000010
   16.75194359  110.86199951    0.55000001    2.89000010
   16.75527763  107.27500153    0.55000001    2.89000010
   16.75861168  111.81800079    0.55000001    2.89000010
   16.76166725  106.70300293    0.55000001    2.89000010
   16.76499939  105.16400146    0.55000001    2.89000010
   16.77111053  105.16400146    0.55000001    2.89000010
   16.77527809  104.76399994    0.55000001    2.89000010
   16.77833366  104.80899811    0.55000001    2.89000010
   16.77972221  108.34999847    0.55000001    2.89000010
   16.78222275  107.04599762    0.55000001    2.89000010
   16.78527641  102.51200104    0.55000001    2.89000010
   16.78861046  106.95700073    0.55000001    2.89000010
   16.79194450  104.80200195    0.55000001    2.89000010
   16.79500008  106.14800262    0.55000001    2.89000010
   16.79833221  104.32099915    0.55000001    2.89000010
   16.80138779  107.50800323    0.55000001    2.89000010
   16.80472183  104.93299866    0.55000001    2.89000010
   16.80805397  105.76699829    0.55000001    2.89000010
   16.81388855  105.76699829    0.55000001    2.89000010
   16.81805611  109.47799683    0.55000001    2.89000010
   16.82139015  107.61299896    0.55000001    2.89000010
   16.82444572  108.90699768    0.55000001    2.89000010
   16.82777786  107.57599640    0.55000001    2.89000010
   16.83083344  106.14700317    0.55000001    2.89000010
   16.83416748  107.63700104    0.55000001    2.89000010
   16.83750153  104.98300171    0.55000001    2.89000010
   16.84055710  103.55200195    0.55000001    2.89000010
   16.84388924  108.03299713    0.55000001    2.89000010
   16.84638977  108.46099854    0.55000001    2.89000010
   16.84749985  108.09999847    0.55000001    2.89000010
   16.85055542  107.78900146    0.55000001    2.89000010
   16.85666656  107.78900146    0.55000001    2.89000010
   16.86083412  104.24500275    0.55000001    2.89000010
   16.86416626  103.28399658    0.55000001    2.89000010
   16.86722183  103.19799805    0.55000001    2.89000010
   16.87055588  106.92099762    0.55000001    2.89000010
   16.87388992  106.62100220    0.55000001    2.89000010
   16.87694550  104.38800049    0.55000001    2.89000010
   16.87972260  101.16999817    0.55000001    2.89000010
   16.88083267   98.59580231    0.55000001    2.89000010
   16.88388824  103.48500061    0.55000001    2.89000010
   16.88722229  105.80799866    0.55000001    2.89000010
   16.89055634  103.66899872    0.55000001    2.89000010
   16.89361191  105.78199768    0.55000001    2.89000010
   16.89972115  105.78199768    0.55000001    2.89000010
   16.90361023  109.58000183    0.55000001    2.89000010
   16.90694427  104.43699646    0.55000001    2.89000010
   16.91027832  102.91699982    0.55000001    2.89000010
   16.91305542  107.73500061    0.55000001    2.89000010
   16.91388893  106.22699738    0.55000001    2.89000010
   16.91694450  103.10600281    0.55000001    2.89000010
   16.92027664  102.49199677    0.55000001    2.89000010
   16.92361069  101.74199677    0.55000001    2.89000010
   16.92666626  105.16500092    0.55000001    2.89000010
   16.93000031  105.14099884    0.55000001    2.89000010
   16.93333244  105.99099731    0.55000001    2.89000010
   16.93638802  107.60900116    0.55000001    2.89000010
   16.94249916  107.60900116    0.55000001    2.89000010
   16.94666672  101.07099915    0.55000001    2.89000010
   16.94972038  106.39800262    0.55000001    2.89000010
   16.95305634  104.71900177    0.55000001    2.89000010
   16.95639038  107.93000031    0.55000001    2.89000010
   16.95944595   99.56130219    0.55000001    2.89000010
   16.96277809  103.14800262    0.55000001    2.89000010
   16.96583366  105.65699768    0.55000001    2.89000010
   16.96916771  105.14399719    0.55000001    2.89000010
   16.97249985  109.05100250    0.55000001    2.89000010
   16.97555542  102.72000122    0.55000001    2.89000010
   16.97888947  110.95300293    0.55000001    2.89000010
   16.97972298  106.78099823    0.55000001    2.89000010
   17.00055504  106.78099823    0.55000001    2.89000010
   17.00472260  106.15000153    0.55000001    2.89000010
   17.00777817  104.76899719    0.55000001    2.89000010
   17.01111031  106.78700256    0.55000001    2.89000010
   17.01305580  105.12699890    0.55000001    2.89000010
   17.01472282  106.73999786    0.55000001    2.89000010
   17.01805496  105.18000031    0.55000001    2.89000010
   17.02111053  105.13099670    0.55000001    2.89000010
   17.02444458   97.87999725    0.55000001    2.89000010
   17.02750015  109.31800079    0.55000001    2.89000010
   17.03083229  101.18800354    0.55000001    2.89000010
   17.03416634  107.06700134    0.55000001    2.89000010
   17.03722191  105.70600128    0.55000001    2.89000010
   17.04333305  105.70600128    0.55000001    2.89000010
   17.04722214  104.38099670    0.55000001    2.89000010
   17.05055428  108.06900024    0.55000001    2.89000010
   17.05388832  104.21600342    0.55000001    2.89000010
   17.05694389  103.90599823    0.55000001    2.89000010
   17.06027794   99.92500305    0.55000001    2.89000010
   17.06361008  108.06199646    0.55000001    2.89000010
   17.06666756  102.31400299    0.55000001    2.89000010
   17.07000160  106.69999695    0.55000001    2.89000010
   17.07305717  105.65100098    0.55000001    2.89000010
   17.07638931  103.47299957    0.55000001    2.89000010
   17.07972336  106.67099762    0.55000001    2.89000010
   17.08027840  110.39900208    0.55000001    2.89000010
   17.08611107  110.39900208    0.55000001    2.89000010
   17.09027863  106.91899872    0.55000001    2.89000010
   17.09333420  114.32399750    0.55000001    2.89000010
   17.09666824  105.86900330    0.55000001    2.89000010
   17.10000038  108.02300262    0.55000001    2.89000010
   17.10305595  107.23899841    0.55000001    2.89000010
   17.10639000  102.80000305    0.55000001    2.89000010
   17.10944557  102.12899780    0.55000001    2.89000010
   17.11277771  111.47200012    0.55000001    2.89000010
   17.11361122  102.24700165    0.55000001    2.89000010
   17.11638832  102.88899994    0.55000001    2.89000010
   17.11972237  111.20700073    0.55000001    2.89000010
   17.12305641  104.06199646    0.55000001    2.89000010
   17.12888908  104.06199646    0.55000001    2.89000010
   17.13305473  110.56700134    0.55000001    2.89000010
   17.13638878  122.91799927    0.55000001    2.89000010
   17.13944435  119.07700348    0.55000001    2.89000010
   17.14277840  111.81999969    0.55000001    2.89000010
   17.14583397  112.41600037    0.55000001    2.89000010
   17.14694405  105.58200073    0.55000001    2.89000010
   17.14972115  112.64700317    0.55000001    2.89000010
   17.15277672  110.37000275    0.75000000    2.91000009
   17.15611076  106.02999878    0.76999998    2.91000009
   17.15944481  121.11599731    0.81999999    2.91000009
   17.16250038  117.42199707    0.88000000    2.91000009
   17.16583252  115.79900360    0.92000002    2.91000009
   17.17166519  115.79900360    0.95999998    2.91000009
   17.17583275  112.47599792    0.89999998    2.91000009
   17.17916679  112.36399841    0.92000002    2.91000009
   17.18027687  113.61599731    0.89999998    2.91000009
   17.18277740  106.24700165    0.86000001    2.91000009
   17.18610954  108.90399933    0.83999997    2.91000009
   17.18944359  116.89600372    0.88000000    2.91000009
   17.19249916  107.27700043    0.81999999    2.91000009
   17.19583321  106.46299744    0.76999998    2.91000009
   17.19888878  103.01200104    0.76999998    2.91000009
   17.20222282  110.38099670    0.76999998    2.91000009
   17.20555687  111.63300323    0.75000000    2.91000009
   17.20861244  115.00099945    0.76999998    2.93000007
   17.21472359  115.00099945    0.76999998    2.93000007
   17.21861076  112.91899872    0.75000000    2.93000007
   17.22194481  123.42900085    0.75000000    2.91000009
   17.22527885  103.13600159    0.70999998    2.91000009
   17.22833443  100.42900085    0.70999998    2.91000009
   17.23166656  107.30799866    0.67000002    2.91000009
   17.23500061  108.88600159    0.67000002    2.91000009
   17.23805618  109.00299835    0.67000002    2.91000009
   17.24138832  111.29699707    0.67000002    2.91000009
   17.24444389  107.17299652    0.67000002    2.91000009
   17.24694443  110.95800018    0.67000002    2.91000009
   17.24805641  112.73500061    0.67000002    2.91000009
   17.25138855  118.34899902    0.69000000    2.93000007
   17.25749969  118.34899902    0.69000000    2.93000007
   17.26166725  114.24600220    0.69000000    2.91000009
   17.26472282  126.25199890    0.69000000    2.91000009
   17.26805496  117.90000153    0.67000002    2.93000007
   17.27138901  115.69799805    0.67000002    2.93000007
   17.27444458  109.87200165    0.67000002    2.91000009
   17.27777672  121.15200043    0.69000000    2.93000007
   17.28027725  112.04399872    0.67000002    2.93000007
   17.28138924  120.10199738    0.67000002    2.93000007
   17.28472137  113.62799835    0.64999998    2.93000007
   17.28805542  115.91000366    0.64999998    2.93000007
   17.29111099  129.40699768    0.64999998    2.93000007
   17.29444313  112.83799744    0.64999998    2.91000009
   17.30027771  112.83799744    0.63000000    2.91000009
   17.30444336  105.67099762    0.61000001    2.93000007
   17.30777740  109.23699951    0.64999998    2.93000007
   17.31083298  103.22100067    0.64999998    2.91000009
   17.31361008  113.69200134    0.64999998    2.91000009
   17.31444359  107.35800171    0.64999998    2.91000009
   17.31777954  113.36900330    0.64999998    2.91000009
   17.32111168  109.12200165    0.63000000    2.91000009
   17.32416725  107.26100159    0.63000000    2.91000009
   17.32750130  107.75900269    0.63000000    2.91000009
   17.33055687  105.22699738    0.64999998    2.91000009
   17.33388901  104.54000092    0.64999998    2.93000007
   17.33722305  115.96600342    0.69000000    2.91000009
   17.34305573  115.96600342    0.70999998    2.93000007
   17.34722328  108.42800140    0.70999998    2.91000009
   17.35055542  107.43699646    0.69000000    2.93000007
   17.35361099  108.57800293    0.69000000    2.93000007
   17.35694504  107.26999664    0.70999998    2.91000009
   17.36027908  106.57099915    0.70999998    2.91000009
   17.36333466  120.82399750    0.76999998    2.91000009
   17.36666679  108.59799957    0.75000000    2.91000009
   17.37000084  108.94999695    0.75000000    2.91000009
   17.37305641  108.84300232    0.75000000    2.91000009
   17.37638855  105.32800293    0.75000000    2.91000009
   17.37972260  111.90200043    0.70999998    2.91000009
   17.38027763  117.82800293    0.70999998    2.91000009
   17.38611031  117.82800293    0.70999998    2.91000009
   17.38999939  111.33499908    0.70999998    2.91000009
   17.39333344  105.23300171    0.70999998    2.91000009
   17.39666748  110.11599731    0.70999998    2.93000007
   17.39972115  108.05999756    0.70999998    2.91000009
   17.40305519  107.53900146    0.70999998    2.91000009
   17.40638924  108.20700073    0.69000000    2.91000009
   17.40944481  109.11000061    0.69000000    2.93000007
   17.41277695  113.89399719    0.69000000    2.93000007
   17.41361046  112.71099854    0.69000000    2.91000009
   17.41666603  106.62000275    0.69000000    2.91000009
   17.41972160  112.75399780    0.69000000    2.93000007
   17.42305565  106.48000336    0.70999998    2.93000007
   17.42888832  106.48000336    0.69000000    2.91000009
   17.43305397  109.78299713    0.69000000    2.91000009
   17.43610954  113.99099731    0.69000000    2.91000009
   17.43944359  110.32099915    0.69000000    2.91000009
   17.44277763  109.44499969    0.69000000    2.91000009
   17.44583321  107.66899872    0.69000000    2.93000007
   17.44694328  103.45099640    0.69000000    2.93000007
   17.44944382  111.55999756    0.69000000    2.91000009
   17.45277786  113.32399750    0.70999998    2.91000009
   17.45611191  108.21399689    0.73000002    2.91000009
   17.45916748  109.51000214    0.73000002    2.91000009
   17.46250153  105.20700073    0.75000000    2.89000010
   17.46583366  109.25199890    0.75000000    2.91000009
   17.47166634  109.25199890    0.75000000    2.91000009
   17.47583389  106.91200256    0.75000000    2.91000009
   17.47916794  105.92099762    0.73000002    2.91000009
   17.48027802  106.92199707    0.73000002    2.91000009
   17.48250008  110.18000031    0.73000002    2.93000007
   17.48583412  109.02100372    0.73000002    2.91000009
   17.48916626  118.73799896    0.73000002    2.91000009
   17.49222183  108.93299866    0.73000002    2.91000009
   17.49555588  114.09799957    0.73000002    2.91000009
   17.49888992  108.12699890    0.73000002    2.91000009
   17.50194359  107.91699982    0.70999998    2.91000009
   17.50527763  105.74500275    0.73000002    2.91000009
   17.50861168   97.66670227    0.75000000    2.91000009
   17.51444435   97.66670227    0.79000002    2.93000007
   17.51861000  114.51100159    0.88000000    2.91000009
   17.52194405  108.89800262    1.00000000    2.93000007
   17.52499962  111.77999878    0.92000002    2.91000009
   17.52833366  106.68299866    0.92000002    2.91000009
   17.53166580  109.84500122    0.86000001    2.91000009
   17.53472137  106.98799896    0.80000001    2.91000009
   17.53805542  105.83699799    0.80000001    2.91000009
   17.54138756  111.82900238    0.80000001    2.91000009
   17.54444313  104.66799927    0.75000000    2.91000009
   17.54694366  109.15699768    0.75000000    2.91000009
   17.54805565  110.95899963    0.73000002    2.91000009
   17.55138779  114.49500275    0.73000002    2.91000009
   17.55805397  114.49500275    0.69000000    2.91000009
   17.56222153  115.95899963    0.67000002    2.91000009
   17.56527710  108.69899750    0.67000002    2.91000009
   17.56861115  103.88700104    0.67000002    2.91000009
   17.57194519  113.55699921    0.67000002    2.93000007
   17.57500076  105.77400208    0.67000002    2.93000007
   17.57833481  112.44599915    0.64999998    2.91000009
   17.58027840  108.72299957    0.64999998    2.91000009
   17.58194542  115.12699890    0.63000000    2.91000009
   17.58527756  107.90200043    0.63000000    2.91000009
   17.58861160  108.10500336    0.63000000    2.91000009
   17.59166718  112.77899933    0.58999997    2.93000007
   17.59500122  109.13500214    0.58999997    2.91000009
   17.60027885  109.13500214    0.58999997    2.91000009
   17.60444450  109.23300171    0.58999997    2.93000007
   17.60750008  107.93499756    0.61000001    2.93000007
   17.61083412  114.99400330    0.61000001    2.91000009
   17.61361122  113.03199768    0.61000001    2.93000007
   17.61444473  104.77100372    0.61000001    2.93000007
   17.61750031  110.65499878    0.61000001    2.91000009
   17.62083435  118.96600342    0.63000000    2.91000009
   17.62388992  113.43900299    0.63000000    2.93000007
   17.62722206  103.54900360    0.64999998    2.91000009
   17.63055611  113.52700043    0.64999998    2.91000009
   17.63361168  106.84700012    0.64999998    2.91000009
   17.63694382  107.89600372    0.64999998    2.91000009
   17.64305496  107.89600372    0.67000002    2.91000009
   17.64722252  113.37699890    0.64999998    2.91000009
   17.65055466  103.60500336    0.67000002    2.91000009
   17.65361023  118.98000336    0.69000000    2.91000009
   17.65694427  116.71099854    0.69000000    2.91000009
   17.65999985  115.07800293    0.67000002    2.91000009
   17.66333389  120.73600006    0.69000000    2.91000009
   17.66666603  104.87999725    0.69000000    2.91000009
   17.66972160  107.43299866    0.67000002    2.91000009
   17.67333221  119.11000061    0.67000002    2.91000009
   17.67638779  115.94699860    0.69000000    2.91000009
   17.67972183  117.14499664    0.69000000    2.91000009
   17.68027687  117.78299713    0.69000000    2.91000009
   17.68583298  117.78299713    0.69000000    2.91000009
   17.68999863  106.88999939    0.70999998    2.91000009
   17.69333267  110.33000183    0.70999998    2.91000009
   17.69638824  112.09600067    0.70999998    2.91000009
   17.69972038  108.00199890    0.73000002    2.91000009
   17.70305634  112.64299774    0.70999998    2.91000009
   17.70611191  118.41699982    0.73000002    2.91000009
   17.70944595  119.91500092    0.75000000    2.91000009
   17.71277809  111.66999817    0.75000000    2.91000009
   17.71361160  125.70999908    0.76999998    2.89000010
   17.71638870  113.97599792    0.76999998    2.91000009
   17.71944427  119.29499817    0.76999998    2.89000010
   17.72277832  114.37799835    0.76999998    2.91000009
   17.72888947  114.37799835    0.79000002    2.89000010
   17.73277855  117.00099945    0.79000002    2.91000009
   17.73611069  116.40299988    0.81999999    2.89000010
   17.73944473  108.39299774    0.81999999    2.89000010
   17.74250031  108.41400146    0.81999999    2.91000009
   17.74583435  115.90200043    0.83999997    2.91000009
   17.74694443  111.86000061    0.83999997    2.91000009
   17.74944496  115.72000122    0.88000000    2.91000009
   17.75250053  119.95200348    0.88000000    2.91000009
   17.75611115  111.92600250    0.89999998    2.89000010
   17.75944519  117.85399628    0.92000002    2.91000009
   17.76250076  114.95999908    0.92000002    2.91000009
   17.76583290  111.26100159    0.92000002    2.89000010
   17.77166557  111.26100159    0.94000000    2.89000010
   17.77583313  113.47299957    0.94000000    2.89000010
   17.77888870  105.77400208    0.98000002    2.89000010
   17.78027725  112.48000336    1.00000000    2.91000009
   17.78277779  106.02400208    1.03999996    2.91000009
   17.78583336  110.62999725    1.01999998    2.89000010
   17.78916550  106.22699738    0.89999998    2.91000009
   17.79222107  102.39700317    0.89999998    2.89000010
   17.79555511  108.09500122    0.88000000    2.89000010
   17.79888916  115.09700012    0.86000001    2.91000009
   17.80194283  111.31099701    0.88000000    2.91000009
   17.80527687  112.59400177    0.83999997    2.91000009
   17.80861092  107.96399689    0.83999997    2.91000009
   17.81444359  107.96399689    0.86000001    2.89000010
   17.81861115   99.76799774    0.86000001    2.91000009
   17.82194519  103.50199890    0.81999999    2.91000009
   17.82500076  108.99099731    0.81999999    2.91000009
   17.82833481  108.28700256    1.05999994    2.91000009
   17.83139038  110.08699799    1.00000000    2.91000009
   17.83472252  109.93800354    1.00000000    2.91000009
   17.83805656  109.61199951    0.98000002    2.89000010
   17.84111214  111.85299683    0.80000001    2.91000009
   17.84444427  113.27999878    0.79000002    2.91000009
   17.84694481  109.71399689    0.79000002    2.91000009
   17.84833336  112.23300171    0.79000002    2.91000009
   17.85138893  110.36900330    0.76999998    2.91000009
   17.85722351  110.36900330    0.73000002    2.91000009
   17.86138916  114.92099762    0.73000002    2.89000010
   17.86472321  118.49700165    0.73000002    2.91000009
   17.86777878  121.23100281    0.73000002    2.91000009
   17.87111092  114.83300018    0.70999998    2.89000010
   17.87444496  119.91500092    0.69000000    2.89000010
   17.87750053  117.60199738    0.69000000    2.89000010
   17.88027763  117.05500031    0.69000000    2.91000009
   17.88138962  117.83499908    0.69000000    2.91000009
   17.88444519  114.10500336    0.69000000    2.91000009
   17.88777733  113.17099762    0.67000002    2.91000009
   17.89083290  109.39600372    0.67000002    2.91000009
   17.89416695  111.52300262    0.67000002    2.91000009
   17.90027809  111.52300262    0.69000000    2.89000010
   17.90416718  117.04299927    0.69000000    2.91000009
   17.90749931  109.99199677    0.67000002    2.91000009
   17.91083336  112.64600372    0.67000002    2.91000009
   17.91361046  114.32599640    0.67000002    2.91000009
   17.91444397  113.65000153    0.67000002    2.91000009
   17.91749954  116.87699890    0.67000002    2.89000010
   17.92083359  120.16999817    0.67000002    2.91000009
   17.92388916  116.54299927    0.67000002    2.91000009
   17.92722130  116.54900360    0.67000002    2.91000009
   17.93055534  119.00000000    0.67000002    2.91000009
   17.93361092  123.57099915    0.67000002    2.91000009
   17.93694305  116.97299957    0.67000002    2.91000009
   17.94305420  116.97299957    0.67000002    2.91000009
   17.94722176  113.18099976    0.67000002    2.91000009
   17.95027924  113.62300110    0.67000002    2.91000009
   17.95361137  122.28500366    0.69000000    2.91000009
   17.95694542  120.12000275    0.69000000    2.91000009
   17.96000099  109.69300079    0.69000000    2.91000009
   17.96333504  112.76699829    0.67000002    2.89000010
   17.96638870  105.78199768    0.69000000    2.91000009
   17.96972275  107.25299835    0.67000002    2.91000009
   17.97305679  110.27799988    0.69000000    2.91000009
   17.97611237  109.76999664    0.69000000    2.91000009
   17.97944450  111.29100037    0.70999998    2.91000009
   17.98027802  110.43000031    0.70999998    2.91000009
   17.98583412  110.43000031    0.69000000    2.91000009
   17.98999977  107.48799896    0.70999998    2.91000009
   17.99333382  112.57199860    0.69000000    2.89000010
   17.99638939  118.10099792    0.69000000    2.89000010
   18.01416588  109.28099823    0.69000000    2.91000009
   18.01638794  109.00399780    0.70999998    2.89000010
   18.01972198  105.51999664    0.70999998    2.91000009
   18.02277756  112.48600006    0.70999998    2.91000009
   18.02888870  112.48600006    0.75000000    2.89000010
   18.03305435  105.50000000    0.75000000    2.89000010
   18.03610992  105.74900055    0.75000000    2.89000010
   18.03944397  114.68800354    0.76999998    2.89000010
   18.04277802  110.07299805    0.75000000    2.91000009
   18.04583359  102.88999939    0.76999998    2.91000009
   18.04722214  109.30699921    0.76999998    2.91000009
   18.04972076  108.91799927    0.76999998    2.91000009
   18.05277634  110.94699860    0.76999998    2.91000009
   18.05611038  109.19400024    0.76999998    2.89000010
   18.05944443  109.43699646    0.76999998    2.91000009
   18.06250000  108.46399689    0.76999998    2.91000009
   18.06583214  108.40899658    0.76999998    2.89000010
   18.07166672  108.40899658    0.75000000    2.89000010
   18.07583427  110.92900085    0.75000000    2.89000010
   18.07916832  109.57499695    0.75000000    2.91000009
   18.08055687  109.71499634    0.75000000    2.91000009
   18.08277893  108.86499786    0.75000000    2.91000009
   18.08611107  109.30699921    0.75000000    2.89000010
   18.08916664  104.21600342    0.75000000    2.89000010
   18.09250069  102.95099640    0.76999998    2.89000010
   18.09555626  108.48200226    0.79000002    2.89000010
   18.09889030  111.88500214    0.76999998    2.89000010
   18.10222244  108.44899750    0.76999998    2.89000010
   18.10527802   99.83260345    0.80000001    2.91000009
   18.10861206  109.44400024    0.81999999    2.91000009
   18.11444473  109.44400024    0.83999997    2.89000010
   18.11861038  115.17199707    0.83999997    2.89000010
   18.12194443  108.60900116    0.86000001    2.89000010
   18.12527847  105.06099701    0.86000001    2.89000010
   18.12833405  105.27899933    0.89999998    2.89000010
   18.13166618  108.18299866    0.89999998    2.89000010
   18.13500023  104.58699799    0.92000002    2.91000009
   18.13805580  106.98799896    0.92000002    2.89000010
   18.14138794  105.17099762    0.92000002    2.91000009
   18.14472198  105.29399872    0.94000000    2.89000010
   18.14722252  106.38099670    0.94000000    2.89000010
   18.14833260  110.36599731    0.94000000    2.89000010
   18.15166664  104.73200226    0.92000002    2.89000010
   18.15749931  104.73200226    0.94000000    2.89000010
   18.16166687  108.79900360    0.94000000    2.91000009
   18.16472244  108.59899902    1.00000000    2.89000010
   18.16805458  104.23400116    0.98000002    2.89000010
   18.17111015  104.38800049    0.98000002    2.89000010
   18.17444420  105.73600006    0.98000002    2.89000010
   18.17777634  100.73799896    0.98000002    2.91000009
   18.18055534  106.73300171    0.95999998    2.89000010
   18.18138885  110.13700104    0.95999998    2.89000010
   18.18472099  109.58000183    0.92000002    2.91000009
   18.18777657  103.88800049    0.89999998    2.89000010
   18.19111061  105.56500244    0.89999998    2.89000010
   18.19416618  105.32199860    0.89999998    2.89000010
   18.20027924  105.32199860    0.83999997    2.91000009
   18.20444489  106.46399689    0.83999997    2.91000009
   18.20750046  105.96600342    0.83999997    2.91000009
   18.21083450  102.95200348    0.86000001    2.89000010
   18.21389008  106.16600037    0.88000000    2.91000009
   18.21444511  111.60600281    0.88000000    2.91000009
   18.21777916  105.06500244    0.88000000    2.91000009
   18.22083473  103.63800049    0.88000000    2.89000010
   18.22416687  111.37500000    0.94000000    2.89000010
   18.22722244  106.31800079    0.94000000    2.89000010
   18.23055649  113.70600128    0.94000000    2.89000010
   18.23388863  107.71199799    0.94000000    2.89000010
   18.23694420  111.63300323    0.94000000    2.89000010
   18.24305534  111.63300323    0.95999998    2.89000010
   18.24722290  106.24199677    0.98000002    2.89000010
   18.24777794  109.13500214    0.98000002    2.89000010
   18.25111198  111.64399719    1.00000000    2.89000010
   18.25416756  110.66200256    0.95999998    2.89000010
   18.25749969  105.15799713    0.95999998    2.89000010
   18.26055527  110.88600159    0.92000002    2.89000010
   18.26388931  108.96299744    0.89999998    2.89000010
   18.26722145  102.79199982    0.89999998    2.89000010
   18.27027702  109.28299713    0.89999998    2.89000010
   18.27361107  112.59300232    0.98000002    2.89000010
   18.27694511  110.47799683    0.98000002    2.89000010
   18.28000069  108.93800354    0.95999998    2.86999989
   18.28055573  104.22599792    0.95999998    2.86999989
   18.28583336  104.22599792    1.13000000    2.89000010
   18.28999901  109.65799713    1.21000004    2.89000010
   18.29333305  112.17900085    1.13000000    2.89000010
   18.29666710  109.06999969    1.13000000    2.89000010
   18.29972076  113.58300018    1.13000000    2.89000010
   18.30305481  111.88899994    1.09000003    2.89000010
   18.30611038  104.10500336    0.95999998    2.91000009
   18.30944443  106.82499695    0.95999998    2.91000009
   18.31277657  111.75299835    0.95999998    2.89000010
   18.31388855  111.05799866    1.01999998    2.86999989
   18.31638718  111.25399780    1.01999998    2.86999989
   18.31972313  119.04399872    1.00000000    2.89000010
   18.32277870  120.69799805    0.95999998    2.89000010
   18.32888985  120.69799805    0.95999998    2.89000010
   18.33305550  114.35900116    0.95999998    2.89000010
   18.33611107  117.60199738    0.95999998    2.89000010
   18.33944511  116.59400177    0.95999998    2.89000010
   18.34250069  111.74299622    0.95999998    2.89000010
   18.34583473  122.82499695    0.95999998    2.89000010
   18.34722328  120.74500275    0.95999998    2.89000010
   18.34944534  116.16300201    0.94000000    2.89000010
   18.35277748  116.56700134    0.92000002    2.89000010
   18.35583305  120.98600006    0.92000002    2.89000010
   18.35916710  121.14900208    0.92000002    2.89000010
   18.36250114  119.22100067    0.92000002    2.89000010
   18.36555672  124.35800171    0.92000002    2.89000010
   18.37166595  124.35800171    0.92000002    2.89000010
   18.37583351  118.09700012    0.92000002    2.89000010
   18.37888908  116.76100159    0.92000002    2.89000010
   18.38055611  116.41300201    2.39000010    2.91000009
   18.38249969  115.02300262    2.39000010    2.91000009
   18.38583374  123.70500183    4.90999985    2.93000007
   18.38888931  103.56600189    4.90999985    2.96000004
   18.39222145   -1.00000000    4.90999985    0.11000000
   18.39555550   -1.00000000    4.90999985    0.19000000
   18.39861107  177.28900146    4.90999985    0.50000000
   18.40194321  121.40200043    4.90999985    2.82999992
   18.40499878  122.93800354    4.90999985    2.91000009
   18.40833282  116.98300171    1.78999996    2.89000010
   18.41444397  116.98300171    4.90999985    2.86999989
   18.41860962  123.62999725    4.90999985    2.80999994
   18.42194366  133.69099426    4.48999977    2.82999992
   18.42499924  119.48600006    3.41000009    2.84999990
   18.42833328  120.74500275    1.53999996    2.86999989
   18.43166542  125.46800232    1.19000006    2.84999990
   18.43472099  118.55500031    1.05999994    2.86999989
   18.43805504  126.81600189    1.07000005    2.86999989
   18.44138718  124.74800110    1.07000005    2.86999989
   18.44444275  129.08700562    1.09000003    2.86999989
   18.44722176  123.86499786    1.09000003    2.86999989
   18.44805527  120.17800140    1.09000003    2.86999989
   18.45138931  130.86599731    1.09000003    2.86999989
   18.45722389  130.86599731    1.07000005    2.86999989
   18.46138954  134.16900635    1.07000005    2.86999989
   18.46472359  135.48399353    1.07000005    2.86999989
   18.46805573  131.90299988    1.07000005    2.86999989
   18.47111130  137.28500366    1.11000001    2.86999989
   18.47444534  122.13099670    1.13000000    2.86999989
   18.47750092  124.67199707    1.13000000    2.86999989
   18.48055649  119.85900116    1.13000000    2.86999989
   18.48111153  120.02799988    1.13000000    2.86999989
   18.48444557  127.65299988    1.13000000    2.86999989
   18.48750114  114.89399719    1.13000000    2.86999989
   18.49083328  117.43199921    1.11000001    2.86999989
   18.49416733  115.45999908    1.11000001    2.86999989
   18.50027847  115.45999908    1.13000000    2.86999989
   18.50444412  116.09899902    1.11000001    2.86999989
   18.50749969  114.94499969    1.11000001    2.86999989
   18.51083374  119.68399811    1.11000001    2.84999990
   18.51388931  119.94100189    1.11000001    2.86999989
   18.51444435  122.59600067    1.11000001    2.86999989
   18.51777840  120.53600311    1.09000003    2.86999989
   18.52083397  120.56800079    1.11000001    2.86999989
   18.52416611  116.87300110    1.11000001    2.86999989
   18.52750015  113.12599945    1.14999998    2.86999989
   18.53055573  112.52799988    1.16999996    2.86999989
   18.53388786  112.77100372    1.16999996    2.86999989
   18.53694344  116.39399719    1.16999996    2.86999989
   18.54305458  116.39399719    1.19000006    2.86999989
   18.54722214  124.14299774    1.21000004    2.86999989
   18.55666542  114.39199829    1.11000001    2.89000010
   18.55999947  111.99299622    1.11000001    2.89000010
   18.56333351  116.34300232    1.13000000    2.89000010
   18.56638718  105.64900208    1.13000000    2.89000010
   18.56972313  114.79000092    1.21000004    2.86999989
   18.57305717  112.06900024    1.16999996    2.89000010
   18.57611275  114.54900360    1.13000000    2.89000010
   18.57972336  115.16699982    1.13000000    2.89000010
   18.58111191  117.64499664    1.13000000    2.89000010
   18.58583450  117.64499664    1.11000001    2.89000010
   18.59000015  116.21399689    1.11000001    2.89000010
   18.59333420  117.37699890    1.11000001    2.89000010
   18.59638977  114.36100006    1.13000000    2.89000010
   18.59972191  111.78399658    1.13000000    2.86999989
   18.60305595  110.91500092    1.13000000    2.86999989
   18.60611153  112.55599976    1.14999998    2.89000010
   18.60944557  116.66999817    1.14999998    2.86999989
   18.61250114  121.76200104    1.14999998    2.89000010
   18.61444473  121.02999878    1.14999998    2.89000010
   18.61611176  118.16799927    1.14999998    2.89000010
   18.61944389  118.49500275    1.16999996    2.89000010
   18.62277794  117.87300110    1.16999996    2.89000010
   18.62861061  117.87300110    1.21000004    2.89000010
   18.63277817  113.40299988    1.21000004    2.89000010
   18.63611031  116.90200043    1.21000004    2.89000010
   18.63944435  111.72399902    1.21000004    2.89000010
   18.64249992  109.43000031    1.21000004    2.89000010
   18.65527725  117.29299927    0.00000000    0.00000000
   18.65583229  113.07299805    1.21000004    2.86999989
   18.65888786  113.36000061    1.21000004    2.86999989
   18.66222191  118.37699890    1.19000006    2.89000010
   18.66527748  116.97299957    1.21000004    2.86999989
   18.67166519  116.97299957    1.21000004    2.89000010
   18.67583275  114.02600098    1.16999996    2.89000010
   18.67916679  116.08499908    1.16999996    2.89000010
   18.68222237  118.48000336    1.16999996    2.89000010
   18.68555450  118.30200195    1.16999996    2.89000010
   18.68888855  118.20300293    1.14999998    2.89000010
   18.68944359  116.76799774    1.14999998    2.89000010
   18.69222069  113.64600372    1.13000000    2.86999989
   18.69555473  122.10600281    1.11000001    2.89000010
   18.69861031  119.80300140    1.11000001    2.86999989
   18.70222282  122.41500092    1.09000003    2.84999990
   18.70527840  111.39199829    1.09000003    2.86999989
   18.70861244  118.57299805    1.11000001    2.86999989
   18.71444511  118.57299805    1.14999998    2.89000010
   18.71861076  117.60800171    1.13000000    2.89000010
   18.72166634  116.76000214    1.13000000    2.89000010
   18.72277832  114.95500183    1.13000000    2.86999989
   18.72527885  124.90499878    1.13000000    2.86999989
   18.72861099  112.70600128    1.14999998    2.86999989
   18.73194504  113.98400116    1.14999998    2.86999989
   18.73500061  111.43399811    1.13000000    2.89000010
   18.73833275  116.48500061    1.13000000    2.86999989
   18.74166679  115.80500031    1.11000001    2.86999989
   18.74472237  116.52600098    1.11000001    2.86999989
   18.74805641  121.65000153    1.11000001    2.89000010
   18.75111198  112.21600342    1.09000003    2.86999989
   18.75722313  112.21600342    1.11000001    2.86999989
   18.76138878  109.58000183    1.11000001    2.86999989
   18.76472282  114.95700073    1.11000001    2.86999989
   18.76777840  108.91600037    1.14999998    2.86999989
   18.77111053  119.03500366    1.14999998    2.86999989
   18.77444458  116.16100311    1.14999998    2.86999989
   18.77750015  114.41899872    1.14999998    2.89000010
   18.78083229  116.56999969    1.14999998    2.86999989
   18.78416634  112.56600189    1.14999998    2.86999989
   18.78750038  114.18099976    1.14999998    2.86999989
   18.78944397  114.83699799    1.14999998    2.86999989
   18.79111099  115.39600372    1.14999998    2.86999989
   18.79444313  114.61299896    1.14999998    2.86999989
   18.80888748  114.61299896    1.16999996    2.86999989
   18.82250023  112.50499725    0.00000000    0.00000000
   18.82444572  110.43800354    1.21000004    2.86999989
   18.82611275  111.78500366    1.21000004    2.86999989
   18.82916832  111.81300354    1.21000004    2.86999989
   18.83250046  118.44400024    1.25000000    2.86999989
   18.83583450  115.53099823    1.23000002    2.86999989
   18.83889008  110.74800110    1.23000002    2.86999989
   18.84222221  111.79499817    1.23000002    2.86999989
   18.84555626  112.58499908    1.25000000    2.86999989
   18.85000038  112.58499908    1.23000002    2.86999989
   18.85416794  118.61799622    1.21000004    2.86999989
   18.85750008  109.38800049    1.21000004    2.86999989
   18.85805511  109.70999908    1.21000004    2.86999989
   18.86083412  113.80899811    1.21000004    2.86999989
   18.86416626  120.35199738    1.19000006    2.86999989
   18.86750031  117.81300354    1.16999996    2.86999989
   18.87055588  108.98999786    1.16999996    2.86999989
   18.87388992  108.24900055    1.16999996    2.86999989
   18.87694550  113.00900269    1.16999996    2.86999989
   18.88027763  108.30200195    1.14999998    2.86999989
   18.88361168  112.45600128    1.14999998    2.86999989
   18.88666725  110.41400146    1.14999998    2.86999989
   18.89277840  110.41400146    1.11000001    2.86999989
   18.89694405  107.72899628    1.11000001    2.86999989
   18.90027809  108.23000336    1.11000001    2.86999989
   18.90361023  105.52100372    1.13000000    2.86999989
   18.90666580  108.53500366    1.16999996    2.86999989
   18.90999985  110.13600159    1.28999996    2.86999989
   18.91305542  111.20800018    1.16999996    2.84999990
   18.91638756  116.07199860    1.13000000    2.86999989
   18.91972160  111.22499847    1.11000001    2.86999989
   18.92277718  113.75700378    1.11000001    2.89000010
   18.92472076  111.75499725    1.11000001    2.86999989
   18.92638779  109.87799835    1.13000000    2.86999989
   18.92972183  111.35800171    1.14999998    2.86999989
   18.93583298  111.35800171    1.21000004    2.86999989
   18.93972206  108.51699829    1.25000000    2.86999989
   18.94305420  110.48200226    1.25000000    2.86999989
   18.94638824  108.25299835    1.25000000    2.84999990
   18.94944382  108.49800110    1.25000000    2.86999989
   18.95277786  113.12500000    1.26999998    2.86999989
   18.95611191  111.53299713    1.26999998    2.86999989
   18.95805550  111.65200043    1.26999998    2.86999989
   18.95944595  113.21199799    1.26999998    2.86999989
   18.96277809  112.22899628    1.26999998    2.86999989
   18.96611214  114.96199799    1.26999998    2.84999990
   18.96916771  115.96499634    1.26999998    2.84999990
   18.97249985  113.68800354    1.28999996    2.84999990
   18.97861099  113.68800354    1.26999998    2.84999990
   18.98277855  113.21299744    1.28999996    2.86999989
   18.98583412  115.13500214    1.28999996    2.86999989
   18.98916626  111.81400299    1.30999994    2.84999990
   18.99138832  111.76300049    1.30999994    2.84999990
   18.99277878  112.48300171    1.30999994    2.84999990
   18.99611092  113.88800049    1.28999996    2.84999990
   18.99944496  108.35600281    1.30999994    2.86999989
   19.00250053  111.83499908    1.28999996    2.86999989
   19.00583267  111.20200348    1.28999996    2.86999989
   19.00888824  110.15200043    1.28999996    2.86999989
   19.01222229  110.61900330    1.28999996    2.86999989
   19.01555634  109.80599976    1.28999996    2.84999990
   19.02138901  109.80599976    1.33000004    2.84999990
   19.02555466  112.45500183    1.33000004    2.84999990
   19.04500008  110.11699677    1.28999996    2.86999989
   19.04833221  108.57099915    1.28999996    2.86999989
   19.05138779  113.02700043    1.28999996    2.86999989
   19.05472183  116.75900269    1.28999996    2.84999990
   19.05805397  114.31099701    1.30999994    2.86999989
   19.05861092  112.30000305    1.30999994    2.86999989
   19.06444359  112.30000305    1.28999996    2.84999990
   19.06861115  113.86100006    1.28999996    2.86999989
   19.07166672  114.28500366    1.30999994    2.84999990
   19.07500076  107.18000031    1.30999994    2.84999990
   19.07833481  111.93900299    1.30999994    2.84999990
   19.08139038  111.41899872    1.30999994    2.84999990
   19.08472252  114.40699768    1.28999996    2.86999989
   19.08777809  112.05100250    1.28999996    2.86999989
   19.09111214  110.38999939    1.28999996    2.86999989
   19.09194565  110.61399841    1.28999996    2.86999989
   19.09472275  108.81099701    1.28999996    2.86999989
   19.09805679  116.77999878    1.28999996    2.86999989
   19.10138893  116.84300232    1.28999996    2.86999989
   19.10722351  116.84300232    1.26999998    2.86999989
   19.11138916  108.72399902    1.26999998    2.86999989
   19.11472321  109.62999725    1.28999996    2.84999990
   19.11777878  108.83999634    1.28999996    2.84999990
   19.12111092  109.46700287    1.28999996    2.84999990
   19.12416649  110.23699951    1.28999996    2.86999989
   19.12527847  114.32099915    1.28999996    2.86999989
   19.12777710  106.42700195    1.28999996    2.84999990
   19.13111115  110.47599792    1.30999994    2.84999990
   19.13444519  106.88800049    1.30999994    2.84999990
   19.13750076  109.10399628    1.30999994    2.86999989
   19.14083290  113.65100098    1.30999994    2.86999989
   19.14388847  113.61699677    1.30999994    2.86999989
   19.14999962  113.61699677    1.28999996    2.86999989
   19.15416718  113.13400269    1.28999996    2.86999989
   19.15749931  122.71800232    1.28999996    2.84999990
   19.15861130  115.67299652    1.28999996    2.84999990
   19.16110992  120.34899902    1.30999994    2.84999990
   19.16555595  115.72699738    1.30999994    2.86999989
   19.16888809  116.19999695    1.33000004    2.86999989
   19.17222214  111.15499878    1.33000004    2.86999989
   19.17527771  116.48100281    4.90999985    2.91000009
   19.17860985  114.84300232    4.90999985    2.89000010
   19.18166542   95.94210052    4.90999985    2.30999994
   19.18499947  109.63600159    4.90999985    2.71000004
   19.18833160  114.78199768    3.18000007    2.86999989
   19.19333267  114.78199768    2.01999998    2.84999990
   19.19749832  110.63600159    3.00000000    2.84999990
   19.20055580  109.28900146    2.98000002    2.80999994
   19.20388985  104.12100220    2.98000002    2.82999992
   19.20694542  109.15699768    2.91000009    2.82999992
   19.21027946  107.08100128    2.48000002    2.86999989
   19.21361160  109.37599945    2.19000006    2.84999990
   19.21694565  109.03600311    2.15000010    2.84999990
   19.22055626  105.80899811    2.09999990    2.84999990
   19.22361183  112.87599945    2.09999990    2.84999990
   19.22527885  110.83200073    2.09999990    2.84999990
   19.22722244  111.95400238    1.96000004    2.84999990
   19.23972321  116.76200104    0.00000000    0.00000000
   19.24638939  116.76200104    1.63000000    2.84999990
   19.25055504  116.05200195    1.64999998    2.84999990
   19.25388908  107.12200165    1.63000000    2.84999990
   19.25694466  107.38899994    1.63000000    2.84999990
   19.25861168  112.92600250    1.63000000    2.84999990
   19.26055527  110.35500336    1.66999996    2.84999990
   19.26388931  111.91000366    1.66999996    2.84999990
   19.26722145  110.22399902    1.98000002    2.82999992
   19.27027702  111.68800354    1.98000002    2.82999992
   19.27361107  114.67900085    1.86000001    2.86999989
   19.27666664  112.87999725    1.86000001    2.84999990
   19.28000069  111.44899750    1.86000001    2.84999990
   19.28694344  111.44899750    1.76999998    2.84999990
   19.29083252  110.31800079    1.75000000    2.84999990
   19.29194450  116.23500061    1.69000006    2.84999990
   19.29472160  114.50599670    1.75000000    2.84999990
   19.29777718  115.84600067    1.75000000    2.84999990
   19.30111122  112.76599884    1.75000000    2.84999990
   19.30416679  110.81400299    1.71000004    2.84999990
   19.30749893  111.79399872    1.53999996    2.84999990
   19.31083298  106.72599792    1.51999998    2.84999990
   19.31388855  114.92400360    1.51999998    2.84999990
   19.31722260  111.67600250    1.51999998    2.84999990
   19.32055664  107.37599945    1.51999998    2.86999989
   19.32361221  102.95500183    1.51999998    2.86999989
   19.32527924  112.19699860    4.90999985    2.93000007
   19.32972336  112.19699860    4.90999985    2.91000009
   19.33388901   87.87169647    4.90999985    2.71000004
   19.33694458   74.88230133    4.90999985    2.73000002
   19.34027863  127.03199768    4.90999985    1.83000004
   19.34361267   86.49659729    4.90999985    1.66999996
   19.34666824  117.68499756    4.90999985    2.75000000
   19.35000038   -1.00000000    4.90999985    2.66000009
   19.35305595  110.15799713    4.90999985    0.83999997
   19.35639000  109.32700348    4.90999985    2.89000010
   19.35861206  121.12699890    4.90999985    2.94000006
   19.36000061  109.03700256    4.90999985    2.78999996
   19.36333466  102.97899628    4.90999985    2.94000006
   19.36666679  106.00199890    4.90999985    2.94000006
   19.37666702   -1.00000000    4.90999985    0.01000000
   19.37972260   -1.00000000    4.90999985    0.01000000
   19.38305473   -1.00000000    4.90999985    0.01000000
   19.38611031   -1.00000000    4.90999985    0.01000000
   19.38944435   -1.00000000    4.90999985    0.01000000
   19.39305496   -1.00000000    4.90999985    0.01000000
   19.39638901   -1.00000000    4.90999985    0.01000000
   19.39944458   -1.00000000    4.90999985    0.01000000
   19.40277672   -1.00000000    4.90999985    0.01000000
   19.40611076   -1.00000000    4.90999985    0.01000000
   19.40916634   -1.00000000    4.90999985    0.01000000
   19.41944313   -1.00000000    4.90999985    0.01000000
   19.42249870   -1.00000000    4.90999985    0.01000000
   19.42611122   -1.00000000    4.90999985    0.01000000
   19.42944336   -1.00000000    4.90999985    0.01000000
   19.43249893   -1.00000000    4.90999985    0.01000000
   19.43583298   -1.00000000    4.90999985    0.01000000
   19.43916512   -1.00000000    4.90999985    0.01000000
   19.44222069   -1.00000000    4.90999985    0.01000000
   19.44555473   -1.00000000    4.90999985    0.01000000
   19.44861031   -1.00000000    4.90999985    0.01000000
   19.45194435   -1.00000000    1.13000000    0.01000000
   19.46222305   -1.00000000    4.90999985    0.11000000
   19.46555710   -1.00000000    4.90999985    0.20999999
   19.46861076  113.63700104    4.90999985    0.79000002
   19.47194481  135.74699402    4.90999985    2.40000010
   19.47527885  140.19599915    4.90999985    2.89000010
   19.47833443  124.19499969    4.90999985    2.89000010
   19.48166656  122.88300323    4.28999996    2.86999989
   19.48500061  117.65599823    4.90999985    2.93000007
   19.48805618   -1.00000000    4.90999985    2.69000006
   19.49138832  198.39900208    4.90999985    0.67000002
   19.49305534  168.91200256    4.90999985    1.21000004
   19.49500084  181.84599304    4.90999985    1.16999996
   19.50499916   -1.00000000    4.90999985    0.09000000
   19.50833321   -1.00000000    4.90999985    0.11000000
   19.51166725   -1.00000000    4.90999985    0.83999997
   19.51472282   -1.00000000    4.90999985    0.13000000
   19.51805496   -1.00000000    4.90999985    0.13000000
   19.52111053   -1.00000000    4.90999985    0.09000000
   19.52444458   -1.00000000    4.90999985    0.09000000
   19.52805519   -1.00000000    4.90999985    0.09000000
   19.53111076   -1.00000000    4.90999985    0.13000000
   19.53444481   -1.00000000    4.90999985    0.38000000
   19.53777695  135.06500244    4.90999985    1.03999996
   19.54388809  135.06500244    4.90999985    1.78999996
   19.54805565  124.09100342    4.90999985    2.01999998
   19.55111122   -1.00000000    4.90999985    2.66000009
   19.55444336   -1.00000000    4.90999985    0.34000000
   19.55777740   -1.00000000    4.90999985    0.44000000
   19.56138802   -1.00000000    4.90999985    0.61000001
   19.56444359   -1.00000000    4.90999985    0.89999998
   19.56777954   86.85939789    4.90999985    0.83999997
   19.57111168  115.74299622    4.90999985    2.55999994
   19.57416725  139.22500610    4.90999985    1.73000002
   19.57750130   70.96189880    4.90999985    1.91999996
   19.58055687  102.84700012    4.90999985    0.83999997
   19.58666801  102.84700012    4.90999985    0.47999999
   19.59083366  141.68800354    4.90999985    2.34999990
   19.59305573  127.38500214    4.90999985    2.86999989
   19.59444427  132.07000732    4.90999985    2.86999989
   19.59777832  127.91300201    4.90999985    2.80999994
   19.60083389  197.96600342    4.90999985    2.78999996
   19.60416794  120.63400269    4.90999985    2.71000004
   19.60750008  122.33100128    4.90999985    2.69000006
   19.61055565   84.30899811    4.90999985    2.42000008
   19.61388969  180.64799500    4.90999985    2.17000008
   19.61694527  172.82299805    4.90999985    1.85000002
   19.62027740  121.44899750    4.90999985    1.80999994
   19.62361145  168.70799255    4.90999985    1.94000006
   19.62944412  168.70799255    4.90999985    2.23000002
   19.63361168  123.83100128    4.90999985    1.46000004
   19.63694382   -1.00000000    4.90999985    0.63000000
   19.64027786   -1.00000000    4.90999985    0.34000000
   19.64333344   -1.00000000    4.90999985    0.11000000
   19.64666748   -1.00000000    4.90999985    0.09000000
   19.64972115   -1.00000000    4.90999985    0.07000000
   19.65305519   -1.00000000    4.90999985    0.07000000
   19.65638924   -1.00000000    4.90999985    0.11000000
   19.65944481   -1.00000000    4.90999985    0.25999999
   19.66305542   -1.00000000    4.90999985    0.31999999
   19.66638756   -1.00000000    4.90999985    0.50000000
   19.67638779   -1.00000000    4.90999985    1.21000004
   19.67972183   -1.00000000    4.90999985    0.55000001
   19.68305397   -1.00000000    4.90999985    0.52999997
   19.68610954   -1.00000000    4.90999985    0.63000000
   19.68944359   -1.00000000    4.90999985    0.64999998
   19.69249916   -1.00000000    4.90999985    0.75000000
   19.69610977   -1.00000000    4.90999985    0.83999997
   19.69944382   -1.00000000    4.90999985    0.64999998
   19.70250130   -1.00000000    4.90999985    0.56999999
   19.70583344   -1.00000000    4.90999985    0.64999998
   19.70916748   -1.00000000    4.90999985    0.52999997
   19.71916771   -1.00000000    4.90999985    0.09000000
   19.72249985   -1.00000000    4.90999985    0.09000000
   19.72583389   -1.00000000    4.90999985    0.28000000
   19.72944450   -1.00000000    4.90999985    0.63000000
   19.73250008   -1.00000000    4.90999985    0.25000000
   19.73583412   -1.00000000    4.90999985    0.11000000
   19.73916626   -1.00000000    4.90999985    0.05000000
   19.74222183   -1.00000000    4.90999985    0.28000000
   19.74555588   -1.00000000    4.90999985    0.03000000
   19.74861145   -1.00000000    4.90999985    0.03000000
   19.75194359   -1.00000000    4.90999985    0.01000000
   19.76222229   -1.00000000    4.90999985    0.01000000
   19.76527786   -1.00000000    4.90999985    0.01000000
   19.76861000   -1.00000000    4.90999985    0.01000000
   19.77194405   -1.00000000    4.90999985    0.01000000
   19.77499962   -1.00000000    4.90999985    0.01000000
   19.77833366   -1.00000000    4.90999985    0.01000000
   19.78166580   -1.00000000    4.90999985    0.01000000
   19.78472137   -1.00000000    4.90999985    0.01000000
   19.78805542   -1.00000000    4.90999985    0.01000000
   19.79111099   -1.00000000    4.90999985    0.01000000
   19.79472160   -1.00000000    4.90999985    0.01000000
   19.80499840   -1.00000000    4.90999985    0.01000000
   19.80833244   -1.00000000    4.90999985    0.01000000
   19.81138802   -1.00000000    4.90999985    0.01000000
   19.81472206   -1.00000000    4.90999985    0.01000000
   19.81805611   -1.00000000    4.90999985    0.01000000
   19.82111168   -1.00000000    4.90999985    0.01000000
   19.82444572   -1.00000000    4.90999985    0.01000000
   19.82805634   -1.00000000    4.90999985    0.01000000
   19.83111191   -1.00000000    4.90999985    0.01000000
   19.83444595   -1.00000000    4.90999985    0.01000000
   19.83777809   -1.00000000    4.90999985    0.01000000
   19.84777832   -1.00000000    4.90999985    0.01000000
   19.85111237   -1.00000000    4.90999985    0.01000000
   19.85444450   -1.00000000    4.90999985    0.01000000
   19.85750008   -1.00000000    4.90999985    0.01000000
   19.86111069   -1.00000000    4.90999985    0.01000000
   19.86416626   -1.00000000    4.90999985    0.01000000
   19.86750031   -1.00000000    4.90999985    0.01000000
   19.87083435   -1.00000000    4.90999985    0.01000000
   19.87388992   -1.00000000    4.90999985    0.01000000
   19.87722206   -1.00000000    4.90999985    0.01000000
   19.88027763   -1.00000000    4.90999985    0.01000000
   19.89055634   -1.00000000    4.90999985    0.01000000
   19.89444351   -1.00000000    4.90999985    0.01000000
   19.89749908   -1.00000000    4.90999985    0.01000000
   19.90083313   -1.00000000    4.90999985    0.01000000
   19.90388870   -1.00000000    4.90999985    0.01000000
   19.90722275   -1.00000000    4.90999985    0.01000000
   19.91055489   -1.00000000    4.90999985    0.01000000
   19.91361046   -1.00000000    4.90999985    0.01000000
   19.91694450   -1.00000000    4.90999985    0.01000000
   19.92027664   -1.00000000    4.90999985    0.01000000
   19.92333221   -1.00000000    4.90999985    0.01000000
   19.93361092   -1.00000000    4.90999985    0.01000000
   19.93666649   -1.00000000    4.90999985    0.01000000
   19.93999863   -1.00000000    2.86999989    0.01000000
   19.94333267   -1.00000000    4.90999985    0.01000000
   19.94638824   -1.00000000    4.90999985    0.03000000
   19.94972038   -1.00000000    4.90999985    0.05000000
   19.95277786   -1.00000000    4.90999985    0.07000000
   19.95611191   -1.00000000    4.90999985    0.15000001
   19.95944595   -1.00000000    4.90999985    0.30000001
   19.96305656   -1.00000000    4.90999985    0.79000002
   19.96611214   -1.00000000    4.90999985    0.92000002
   19.97638893   -1.00000000    4.90999985    0.58999997
   19.97972298   -1.00000000    4.90999985    0.52999997
   19.98277855   -1.00000000    4.90999985    0.52999997
   19.98611069   -1.00000000    4.90999985    0.36000001
   19.98944473   -1.00000000    4.90999985    0.73000002
   19.99250031   -1.00000000    4.90999985    1.07000005
   19.99611092   -1.00000000    4.90999985    0.83999997
   19.99916649   -1.00000000    4.90999985    0.41999999
   20.00250053   -1.00000000    4.90999985    0.05000000
   20.00583267   -1.00000000    4.90999985    0.03000000
   20.00888824   -1.00000000    4.90999985    0.01000000
   20.01916695   -1.00000000    4.59999990    0.01000000
   20.02249908   -1.00000000    4.59999990    0.01000000
   20.02555466   -1.00000000    4.59999990    0.01000000
   20.02944374   -1.00000000    4.59999990    0.01000000
   20.03249931   -1.00000000    4.59999990    0.01000000
   20.03583336   -1.00000000    4.59999990    0.01000000
   20.03888893   -1.00000000    4.59999990    0.01000000
   20.04222107   -1.00000000    4.59999990    0.01000000
   20.06805611   -1.00000000    4.59999990    0.01000000
   20.07111168   -1.00000000    4.59999990    0.01000000
   20.07444572   -1.00000000    4.59999990    0.01000000
   20.07777786   -1.00000000    4.59999990    0.01000000
   20.08083344   -1.00000000    4.59999990    0.01000000
   20.08416748   -1.00000000    4.59999990    0.01000000
   20.08750153   -1.00000000    4.13999987    0.01000000
   20.09055710   -1.00000000    4.90999985    0.01000000
   20.09388924   -1.00000000    4.90999985    0.03000000
   20.09722328   -1.00000000    4.90999985    0.07000000
   20.10055542   -1.00000000    4.90999985    0.20999999
   20.10666656   -1.00000000    4.90999985    1.07000005
   20.11083412  144.14900208    4.90999985    1.94000006
   20.11416626  182.19200134    4.90999985    2.07999992
   20.11722183  166.03199768    4.90999985    2.09999990
   20.12055588  181.76600647    4.90999985    2.07999992
   20.12388992  143.72099304    4.90999985    1.76999998
   20.12694550   -1.00000000    4.90999985    1.50000000
   20.13055611   -1.00000000    4.90999985    1.21000004
   20.13361168   -1.00000000    4.90999985    1.16999996
   20.13694382   -1.00000000    4.90999985    0.89999998
   20.13999939   -1.00000000    4.90999985    0.75000000
   20.14333344   -1.00000000    4.90999985    0.76999998
   20.15361023   -1.00000000    4.90999985    0.13000000
   20.15694427   -1.00000000    4.90999985    0.01000000
   20.15999985   -1.00000000    4.90999985    0.01000000
   20.16361046   -1.00000000    4.90999985    0.01000000
   20.16805458   -1.00000000    4.90999985    0.01000000
   20.17138863   -1.00000000    4.90999985    0.01000000
   20.17444420   -1.00000000    4.90999985    0.01000000
   20.17777634   -1.00000000    4.90999985    0.01000000
   20.18111038   -1.00000000    4.90999985    0.01000000
   20.18416595   -1.00000000    4.90999985    0.01000000
   20.18750000   -1.00000000    4.90999985    0.01000000
   20.19638824   -1.00000000    4.90999985    0.01000000
   20.19972038   -1.00000000    4.90999985    0.01000000
   20.20305634   -1.00000000    4.90999985    0.01000000
   20.20611191   -1.00000000    4.90999985    0.01000000
   20.20944595   -1.00000000    4.90999985    0.01000000
   20.21250153   -1.00000000    4.90999985    0.01000000
   20.21583366   -1.00000000    4.90999985    0.01000000
   20.21916771   -1.00000000    4.90999985    0.01000000
   20.22222328   -1.00000000    4.90999985    0.01000000
   20.22555542   -1.00000000    4.90999985    0.01000000
   20.22888947   -1.00000000    4.90999985    0.01000000
   20.23916626   -1.00000000    4.90999985    0.01000000
   20.24250031   -1.00000000    4.90999985    0.01000000
   20.24583435   -1.00000000    4.90999985    0.01000000
   20.24888992   -1.00000000    4.90999985    0.01000000
   20.25222206   -1.00000000    4.90999985    0.01000000
   20.25555611   -1.00000000    4.90999985    0.01000000
   20.25861168   -1.00000000    4.90999985    0.01000000
   20.26222229   -1.00000000    2.89000010    0.01000000
   20.26555634   -1.00000000    4.90999985    0.03000000
   20.26861000   -1.00000000    4.90999985    0.05000000
   20.27194405   -1.00000000    4.90999985    0.13000000
   20.27805519   -1.00000000    4.90999985    0.89999998
   20.28222275   -1.00000000    4.90999985    1.16999996
   20.28555489   -1.00000000    4.90999985    1.16999996
   20.28861046   -1.00000000    4.90999985    0.94000000
   20.29194450   -1.00000000    4.90999985    0.70999998
   20.29527664   -1.00000000    4.90999985    0.80000001
   20.29861069   -1.00000000    4.90999985    1.03999996
   20.30166626   -1.00000000    4.90999985    1.09000003
   20.30499840   -1.00000000    4.90999985    1.11000001
   20.30833244   -1.00000000    4.90999985    1.09000003
   20.31138802   -1.00000000    4.90999985    1.11000001
   20.31472206   -1.00000000    4.90999985    1.13000000
   20.32083511   -1.00000000    4.90999985    1.58000004
   20.32500076  220.02699280    4.90999985    2.01999998
   20.32833481  157.24499512    4.90999985    2.13000011
   20.32888985  144.65199280    4.90999985    2.19000006
   20.33194542  158.75199890    4.90999985    2.05999994
   20.33527756  300.00900269    4.90999985    1.91999996
   20.33833313  246.48699951    4.90999985    1.89999998
   20.34166718  370.87600708    4.90999985    1.94000006
   20.34500122   -1.00000000    4.90999985    1.66999996
   20.34805679   -1.00000000    4.90999985    1.16999996
   20.35138893   -1.00000000    4.90999985    0.88000000
   20.35444450   -1.00000000    4.90999985    0.70999998
   20.35777855   -1.00000000    4.90999985    0.67000002
   20.36777878   -1.00000000    4.90999985    0.13000000
   20.37111092   -1.00000000    4.90999985    0.03000000
   20.37416649   -1.00000000    4.90999985    0.03000000
   20.37750053   -1.00000000    4.90999985    0.03000000
   20.38083267   -1.00000000    4.90999985    0.03000000
   20.38388824   -1.00000000    4.90999985    0.03000000
   20.38722229   -1.00000000    4.90999985    0.03000000
   20.39027786   -1.00000000    4.90999985    0.03000000
   20.39361191   -1.00000000    4.90999985    0.03000000
   20.39722252   -1.00000000    4.90999985    0.03000000
   20.40055466   -1.00000000    4.90999985    0.03000000
   20.41055489   -1.00000000    4.90999985    0.03000000
   20.41388893   -1.00000000    4.90999985    0.03000000
   20.41722107   -1.00000000    4.90999985    0.03000000
   20.42027664   -1.00000000    4.90999985    0.03000000
   20.42361069   -1.00000000    4.90999985    0.03000000
   20.42666626   -1.00000000    4.90999985    0.03000000
   20.43027687   -1.00000000    4.90999985    0.03000000
   20.43361092   -1.00000000    4.90999985    0.03000000
   20.43694305   -1.00000000    4.90999985    0.03000000
   20.43999863   -1.00000000    4.90999985    0.03000000
   20.44333267   -1.00000000    4.90999985    0.03000000
   20.45361137   -1.00000000    4.90999985    0.03000000
   20.45666695   -1.00000000    4.90999985    0.03000000
   20.46000099   -1.00000000    4.90999985    0.03000000
   20.46361160   -1.00000000    4.90999985    0.03000000
   20.46694565   -1.00000000    4.90999985    0.03000000
   20.47000122   -1.00000000    4.90999985    0.03000000
   20.47333336   -1.00000000    4.90999985    0.03000000
   20.47666740   -1.00000000    4.90999985    0.03000000
   20.47972298   -1.00000000    4.90999985    0.03000000
   20.48305511   -1.00000000    4.90999985    0.03000000
   20.48638916   -1.00000000    4.90999985    0.03000000
   20.49638939   -1.00000000    4.90999985    0.03000000
   20.49944496   -1.00000000    4.90999985    0.03000000
   20.50277710   -1.00000000    4.90999985    0.03000000
   20.50611115   -1.00000000    4.90999985    0.03000000
   20.50916672   -1.00000000    4.90999985    0.03000000
   20.51250076   -1.00000000    4.90999985    0.03000000
   20.51583290   -1.00000000    4.90999985    0.03000000
   20.51888847   -1.00000000    4.90999985    0.03000000
   20.52222252   -1.00000000    3.73000002    0.01000000
   20.52527809   -1.00000000    4.38999987    0.01000000
   20.52888870   -1.00000000    4.90999985    0.01000000
   20.53916550   -1.00000000    4.90999985    0.03000000
   20.54249954   -1.00000000    4.90999985    0.01000000
   20.54555511   -1.00000000    4.90999985    0.01000000
   20.54888916   -1.00000000    4.90999985    0.01000000
   20.55222130   -1.00000000    4.90999985    0.03000000
   20.55527687   -1.00000000    4.90999985    0.05000000
   20.55861092   -1.00000000    4.90999985    0.09000000
   20.56166649   -1.00000000    4.90999985    0.13000000
   20.56583214   -1.00000000    4.90999985    0.15000001
   20.56888962   -1.00000000    4.90999985    0.30000001
   20.57222366   -1.00000000    4.90999985    0.38000000
   20.58194542   -1.00000000    4.90999985    0.38000000
   20.58527756   -1.00000000    4.90999985    0.40000001
   20.58861160   -1.00000000    4.90999985    0.38000000
   20.59166718   -1.00000000    4.90999985    0.38000000
   20.59500122   -1.00000000    4.90999985    0.41999999
   20.59861183   -1.00000000    4.90999985    0.52999997
   20.60166740   -1.00000000    4.90999985    0.55000001
   20.60499954   -1.00000000    4.90999985    0.76999998
   20.60833359   -1.00000000    4.90999985    1.03999996
   20.61138916   -1.00000000    4.90999985    1.00000000
   20.61472321   -1.00000000    4.90999985    1.13000000
   20.62500000   -1.00000000    4.90999985    0.13000000
   20.62805557   -1.00000000    4.90999985    0.20999999
   20.63166618   -1.00000000    4.90999985    0.58999997
   20.63472176   -1.00000000    4.90999985    0.58999997
   20.63805580   -1.00000000    4.90999985    0.34000000
   20.64138794   -1.00000000    4.90999985    0.79000002
   20.64444351   -1.00000000    4.90999985    1.07000005
   20.64777756   -1.00000000    4.90999985    0.64999998
