    HOUR (UT)   FLARE FACTOR    SKY TESTER    SUN TESTER
   11.24222279   -1.00000000   -1.00000000   -1.00000000
   11.26166630  450.00601196    1.91999996    1.46000004
   11.26694393  419.93798828    1.89999998    1.46000004
   11.26888847  462.26998901    1.89999998    1.46000004
   11.27027798  484.22198486    1.91999996    1.46000004
   11.27166653  338.53201294    1.91999996    1.46000004
   11.27166653  419.93798828    1.89999998    1.46000004
   11.27222157  441.95300293    1.91999996    1.46000004
   11.27416611  332.44900513    1.91999996    1.48000002
   11.27583313  365.94799805    1.91999996    1.48000002
   11.27916622  390.47698975    1.91999996    1.48000002
   11.28249931  400.26699829    1.91999996    1.48000002
   11.28444481  376.22399902    1.91999996    1.50000000
   11.28555584  438.97100830    1.91999996    1.50000000
   11.28694534  321.17001343    1.91999996    1.50000000
   11.28722286  365.94799805    1.91999996    1.48000002
   11.28722286  390.47698975    1.91999996    1.48000002
   11.28722286  400.26699829    1.91999996    1.48000002
   11.28777790  424.39700317    1.91999996    1.50000000
   11.28972244  360.43899536    1.94000006    1.50000000
   11.29111195  356.03201294    1.94000006    1.50000000
   11.29250050  369.76501465    1.94000006    1.50000000
   11.29388905  357.61999512    1.94000006    1.50000000
   11.29527855  337.60501099    1.96000004    1.51999998
   11.29527855  424.39700317    1.91999996    1.50000000
   11.29583359  344.69699097    1.96000004    1.51999998
   11.29916668  323.64300537    1.96000004    1.51999998
   11.30222225  333.53201294    1.94000006    1.51999998
   11.30555534  284.74700928    1.94000006    1.51999998
   11.30888939  300.74301147    1.94000006    1.51999998
   11.31194496  356.06799316    1.94000006    1.55999994
   11.31611156  356.06799316    1.91999996    1.53999996
   11.32027817  253.80599976    1.91999996    1.55999994
   11.32333374  298.55200195    1.91999996    1.53999996
   11.32666683  304.22000122    1.91999996    1.55999994
   11.32916641  308.04901123    1.89999998    1.55999994
   11.33027744  253.59399414    1.89999998    1.55999994
   11.33361053  271.03201294    1.89999998    1.55999994
   11.33694458  319.27600098    1.89999998    1.55999994
   11.34000015  339.23199463    1.88000000    1.58000004
   11.34333324  252.60400391    1.88000000    1.58000004
   11.34638882  331.79199219    1.88000000    1.58000004
   11.34972191  311.26901245    1.88000000    1.60000002
   11.35305595  304.26800537    1.86000001    1.60000002
   11.35888958  304.26800537    1.86000001    1.60000002
   11.36305618  290.04699707    1.85000002    1.61000001
   11.36638927  329.81900024    1.85000002    1.61000001
   11.36972237  302.62399292    1.85000002    1.61000001
   11.37305546  271.41799927    1.85000002    1.61000001
   11.37611103  293.91000366    1.85000002    1.61000001
   11.37944412  279.82800293    1.85000002    1.61000001
   11.38249969  282.05801392    1.85000002    1.61000001
   11.38583279  292.37399292    1.83000004    1.61000001
   11.38916683  288.96600342    1.83000004    1.63000000
   11.39222240  289.60400391    1.80999994    1.63000000
   11.39555550  239.61700439    1.80999994    1.63000000
   11.39611053  285.21200562    1.80999994    1.63000000
   11.40166664  285.21200562    1.80999994    1.64999998
   11.40583324  226.39100647    1.78999996    1.64999998
   11.40916634  263.16198730    1.78999996    1.64999998
   11.41249943  243.32800293    1.78999996    1.64999998
   11.41555500  244.74099731    1.78999996    1.66999996
   11.41888905  296.41699219    1.76999998    1.66999996
   11.42194462  254.27400208    1.76999998    1.69000006
   11.42527771  247.80599976    1.76999998    1.66999996
   11.42861176  239.42900085    1.75000000    1.69000006
   11.42944431  233.31500244    1.75000000    1.69000006
   11.43194485  246.91000366    1.76999998    1.69000006
   11.43527794  256.46099854    1.75000000    1.69000006
   11.43861103  221.99600220    1.75000000    1.69000006
   11.44472218  221.99600220    1.73000002    1.71000004
   11.44888878  207.30900574    1.73000002    1.71000004
   11.45194435  255.76400757    1.73000002    1.71000004
   11.45527744  236.71699524    1.71000004    1.71000004
   11.45833302  251.84500122    1.71000004    1.73000002
   11.46166611  267.32901001    1.71000004    1.73000002
   11.46277714  247.91200256    1.71000004    1.73000002
   11.46527767  268.44198608    1.71000004    1.73000002
   11.46861076  261.78201294    1.69000006    1.73000002
   11.47194386  262.18600464    1.69000006    1.73000002
   11.47499943  236.91099548    1.69000006    1.73000002
   11.47833252  231.54600525    1.69000006    1.75000000
   11.48166656  237.86000061    1.66999996    1.75000000
   11.48750019  237.86000061    1.66999996    1.75000000
   11.49166679  232.31799316    1.66999996    1.75000000
   11.49472237  248.38699341    1.66999996    1.76999998
   11.49611092  223.90899658    1.66999996    1.76999998
   11.49833393  238.00500488    1.64999998    1.76999998
   11.50166702  251.47500610    1.63000000    1.76999998
   11.50500011  229.73599243    1.63000000    1.76999998
   11.50805569  222.98899841    1.63000000    1.76999998
   11.51138878  216.94900513    1.63000000    1.76999998
   11.51472187  233.31700134    1.63000000    1.76999998
   11.51777744  215.49600220    1.61000001    1.78999996
   11.52111053  230.76899719    1.61000001    1.78999996
   11.52416611  207.74600220    1.61000001    1.78999996
   11.53027725  207.74600220    1.60000002    1.78999996
   11.53444481  195.80499268    1.58000004    1.80999994
   11.53777790  233.31199646    1.58000004    1.80999994
   11.54083347  225.57899475    1.58000004    1.80999994
   11.54416752  229.43800354    1.58000004    1.80999994
   11.54750061  214.13699341    1.58000004    1.80999994
   11.55055618  215.21200562    1.55999994    1.80999994
   11.55388927  219.00999451    1.55999994    1.83000004
   11.55722237  217.32299805    1.55999994    1.83000004
   11.56027794  197.13099670    1.53999996    1.83000004
   11.56277752  216.21600342    1.53999996    1.83000004
   11.56388950  198.32400513    1.53999996    1.83000004
   11.56722260  209.20300293    1.53999996    1.85000002
   11.57305527  209.20300293    1.53999996    1.85000002
   11.57722187  201.58399963    1.53999996    1.85000002
   11.58055592  186.82899475    1.51999998    1.85000002
   11.58388901  208.05099487    1.51999998    1.85000002
   11.58694458  195.74299622    1.50000000    1.85000002
   11.59027767  217.56500244    1.50000000    1.86000001
   11.59333324  196.63000488    1.50000000    1.86000001
   11.59611034  212.89500427    1.50000000    1.86000001
   11.59694386  213.79499817    1.50000000    1.86000001
   11.60027790  206.75700378    1.48000002    1.86000001
   11.60361195  206.10899353    1.48000002    1.86000001
   11.60666752  209.42599487    1.48000002    1.86000001
   11.61000061  197.71800232    1.46000004    1.86000001
   11.61611176  197.71800232    1.46000004    1.88000000
   11.62027836  200.21800232    1.44000006    1.86000001
   11.62333393  214.23699951    1.46000004    1.88000000
   11.62666702  223.94500732    1.44000006    1.88000000
   11.62944412  230.74200439    1.44000006    1.89999998
   11.63000011  197.94700623    1.44000006    1.89999998
   11.63333321  202.65100098    1.41999996    1.88000000
   11.63666630  195.82699585    1.41999996    1.88000000
   11.63972187  192.42500305    1.41999996    1.89999998
   11.64305496  201.64999390    1.39999998    1.89999998
   11.64638901  188.33000183    1.39999998    1.89999998
   11.64944458  202.21000671    1.39999998    1.89999998
   11.65277767  205.07499695    1.38000000    1.89999998
   11.65888882  205.07499695    1.38000000    1.91999996
   11.66305542  211.14900208    1.38000000    1.91999996
   11.66611099  213.64999390    1.36000001    1.91999996
   11.66944504  201.92599487    1.36000001    1.94000006
   11.67277813  190.53700256    1.36000001    1.91999996
   11.67583370  192.37500000    1.36000001    1.91999996
   11.67916679  187.47799683    1.34000003    1.91999996
   11.68249989  187.06199646    1.34000003    1.94000006
   11.68555546  197.96099854    1.34000003    1.94000006
   11.68888855  186.15800476    1.34000003    1.94000006
   11.69194412  191.11399841    1.34000003    1.94000006
   11.69527817  185.91799927    1.34000003    1.94000006
   11.69611073  188.32899475    1.34000003    1.94000006
   11.70166683  188.32899475    1.33000004    1.96000004
   11.70583344  186.92399597    1.33000004    1.96000004
   11.70916653  193.06300354    1.30999994    1.96000004
   11.71249962  188.69000244    1.33000004    1.96000004
   11.71555519  182.69200134    1.30999994    1.96000004
   11.71888828  199.49200439    1.30999994    1.96000004
   11.72194386  189.57000732    1.30999994    1.96000004
   11.72527695  193.10400391    1.28999996    1.98000002
   11.72861099  189.77400208    1.28999996    1.96000004
   11.72944355  189.69599915    1.28999996    1.96000004
   11.73222160  191.83000183    1.28999996    1.98000002
   11.73527813  186.36399841    1.28999996    1.98000002
   11.73861122  189.39100647    1.26999998    1.98000002
   11.74444485  189.39100647    1.26999998    2.00000000
   11.74861145  188.12399292    1.26999998    2.00000000
   11.75194454  191.40800476    1.25000000    2.00000000
   11.75527763  181.60600281    1.25000000    2.00000000
   11.75833321  179.16799927    1.25000000    2.00000000
   11.76166630  184.14700317    1.25000000    2.00000000
   11.76277733  189.39500427    1.25000000    2.00000000
   11.76527786  184.13099670    1.25000000    2.00000000
   11.76833344  185.30099487    1.23000002    2.01999998
   11.77166653  188.81100464    1.23000002    2.01999998
   11.77472210  175.10400391    1.23000002    2.01999998
   11.77805519  174.68600464    1.23000002    2.00000000
   11.78138828  189.16499329    1.21000004    2.01999998
   11.78750038  189.16499329    1.21000004    2.01999998
   11.79166698  183.16900635    1.19000006    2.01999998
   11.79472256  179.01899719    1.19000006    2.01999998
   11.79611111  183.48100281    1.16999996    2.01999998
   11.79861164  185.16000366    1.16999996    2.01999998
   11.80194473  188.97000122    1.16999996    2.03999996
   11.80500031  186.55499268    1.16999996    2.01999998
   11.80833340  186.47300720    1.16999996    2.03999996
   11.81138897  192.79100037    1.14999998    2.03999996
   11.81472206  179.68899536    1.16999996    2.03999996
   11.81805515  169.77099609    1.16999996    2.05999994
   11.82111073  180.94400024    1.16999996    2.05999994
   11.82444477  201.86500549    1.16999996    2.03999996
   11.83027744  201.86500549    1.14999998    2.03999996
   11.83444405  184.52000427    1.13000000    2.05999994
   11.83777714  189.83700562    1.13000000    2.05999994
   11.84083271  185.95399475    1.13000000    2.05999994
   11.84416676  188.37100220    1.14999998    2.05999994
   11.84722233  183.56599426    1.14999998    2.05999994
   11.85055637  196.06399536    1.13000000    2.05999994
   11.85388947  179.21099854    1.14999998    2.05999994
   11.85722256  183.06300354    1.13000000    2.05999994
   11.86055565  184.97300720    1.13000000    2.05999994
   11.86277771  177.65199280    1.13000000    2.07999992
   11.86416721  190.14500427    1.13000000    2.07999992
   11.86722279  191.29400635    1.13000000    2.07999992
   11.87305546  191.29400635    1.11000001    2.07999992
   11.87722206  183.67599487    1.11000001    2.07999992
   11.88055611  184.75000000    1.11000001    2.07999992
   11.88361073  177.67999268    1.11000001    2.07999992
   11.88694477  181.13600159    1.11000001    2.07999992
   11.89027786  177.72000122    1.11000001    2.07999992
   11.89333344  183.99600220    1.11000001    2.07999992
   11.89611053  177.99699402    1.11000001    2.09999990
   11.89722252  183.20899963    1.11000001    2.09999990
   11.90055561  186.36700439    1.11000001    2.09999990
   11.90361118  178.76100159    1.11000001    2.09999990
   11.90694427  190.43299866    1.11000001    2.09999990
   11.91027737  186.98800659    1.11000001    2.09999990
   11.91611099  186.98800659    1.11000001    2.11999989
   11.92027855  185.60800171    1.11000001    2.11999989
   11.92361164  177.47799683    1.09000003    2.09999990
   11.92666721  180.97399902    1.09000003    2.11999989
   11.92944431  195.23399353    1.09000003    2.11999989
   11.93055630  183.82600403    1.09000003    2.11999989
   11.93361092  184.58799744    1.09000003    2.11999989
   11.93694496  190.33099365    1.09000003    2.11999989
   11.94000053  196.00599670    1.09000003    2.11999989
   11.94333363  193.47900391    1.09000003    2.11999989
   11.94666672  177.28100586    1.09000003    2.11999989
   11.94972229  187.57299805    1.07000005    2.11999989
   11.95305538  181.67300415    1.07000005    2.11999989
   11.95888901  181.67300415    1.07000005    2.11999989
   11.96305561  180.83299255    1.07000005    2.13000011
   11.96611118  192.60699463    1.07000005    2.13000011
   11.96944427  179.95799255    1.07000005    2.13000011
   11.97249985  186.77900696    1.05999994    2.13000011
   11.97583294  182.94599915    1.07000005    2.13000011
   11.97916603  183.71099854    1.05999994    2.13000011
   11.98222160  182.14500427    1.05999994    2.13000011
   11.98555565  176.12899780    1.05999994    2.15000010
   11.98888874  173.63299561    1.05999994    2.15000010
   11.99194431  189.50300598    1.05999994    2.13000011
   11.99527836  182.75599670    1.05999994    2.13000011
   11.99611092  180.14799500    1.05999994    2.13000011
   12.00166702  180.14799500    1.07000005    2.15000010
   12.00583363  179.04699707    1.05999994    2.15000010
   12.00916672  171.46499634    1.05999994    2.15000010
   12.01222229  172.93099976    1.05999994    2.15000010
   12.01555538  192.03700256    1.05999994    2.15000010
   12.01861095  197.51600647    1.05999994    2.15000010
   12.02222157  182.91999817    1.05999994    2.15000010
   12.02527714  182.43899536    1.05999994    2.15000010
   12.02861118  190.52299500    1.05999994    2.15000010
   12.02944374  201.80999756    1.05999994    2.15000010
   12.03222179  184.28199768    1.05999994    2.15000010
   12.03527832  183.92500305    1.05999994    2.15000010
   12.03861141  177.98800659    1.05999994    2.17000008
   12.04444504  177.98800659    1.03999996    2.17000008
   12.04861164  184.94099426    1.03999996    2.17000008
   12.05194473  197.95199585    1.03999996    2.17000008
   12.05500031  191.71200562    1.03999996    2.17000008
   12.05833340  181.30999756    1.03999996    2.17000008
   12.06166649  198.80299377    1.03999996    2.17000008
   12.06277752  187.69599915    1.03999996    2.17000008
   12.06527805  187.43899536    1.03999996    2.17000008
   12.06833363  202.60099792    1.03999996    2.17000008
   12.07166672  182.61399841    1.03999996    2.17000008
   12.07499981  205.23399353    1.03999996    2.17000008
   12.07805538  201.93299866    1.01999998    2.19000006
   12.08138847  194.43200684    1.03999996    2.19000006
   12.08722210  194.43200684    1.03999996    2.19000006
   12.09138870  191.00900269    1.03999996    2.19000006
   12.09472179  198.60699463    1.03999996    2.19000006
   12.09611034  195.75500488    1.01999998    2.19000006
   12.09833336  192.36999512    1.01999998    2.19000006
   12.10138893  198.35800171    1.01999998    2.19000006
   12.10472298  195.84199524    1.01999998    2.19000006
   12.10805607  202.18200684    1.01999998    2.21000004
   12.11111164  205.82899475    1.01999998    2.19000006
   12.11444473  201.36999512    1.01999998    2.19000006
   12.11777782  214.80200195    1.01999998    2.21000004
   12.12083340  213.04800415    1.01999998    2.19000006
   12.12416649  187.02999878    1.00000000    2.21000004
   12.13027763  187.02999878    1.00000000    2.21000004
   12.13444424  200.39599609    1.00000000    2.21000004
   12.13749981  207.95199585    1.00000000    2.21000004
   12.14083290  201.79499817    1.00000000    2.23000002
   12.14388847  199.88400269    1.00000000    2.23000002
   12.14722252  188.56599426    1.00000000    2.21000004
   12.15055561  187.23800659    0.98000002    2.21000004
   12.15361118  218.92999268    1.00000000    2.23000002
   12.15694427  205.78100586    0.98000002    2.23000002
   12.16027737  199.53999329    0.98000002    2.23000002
   12.16277695  196.92900085    0.98000002    2.23000002
   12.16388893  204.66600037    0.98000002    2.23000002
   12.16694450  182.37500000    0.98000002    2.23000002
   12.17305565  182.37500000    0.98000002    2.23000002
   12.17722225  200.42300415    0.98000002    2.23000002
   12.18027782  198.48599243    0.98000002    2.25000000
   12.18361092  207.18699646    0.98000002    2.23000002
   12.18694496  200.66700745    0.98000002    2.23000002
   12.19000053  212.41499329    0.98000002    2.23000002
   12.19333363  199.01499939    0.98000002    2.23000002
   12.19611073  203.16299438    0.98000002    2.23000002
   12.19694424  204.27299500    0.98000002    2.25000000
   12.19999981  206.76600647    0.98000002    2.25000000
   12.20333290  206.42300415    0.98000002    2.25000000
   12.20666695  192.47999573    0.95999998    2.25000000
   12.20972157  192.97099304    0.95999998    2.25000000
   12.21583271  192.97099304    0.95999998    2.25000000
   12.21999931  225.26499939    0.95999998    2.25000000
   12.22333336  193.50300598    0.95999998    2.25000000
   12.22638798  217.84800720    0.95999998    2.25000000
   12.22944355  195.84800720    0.95999998    2.26999998
   12.23027706  217.63400269    0.94000000    2.25000000
   12.23333359  195.66200256    0.94000000    2.25000000
   12.23666668  211.01499939    0.95999998    2.25000000
   12.24000072  187.99299622    0.94000000    2.25000000
   12.24305534  215.55299377    0.94000000    2.26999998
   12.24638939  213.16900635    0.94000000    2.25000000
   12.24972248  205.53799438    0.94000000    2.25000000
   12.25277805  188.35499573    0.94000000    2.26999998
   12.25861073  188.35499573    0.94000000    2.26999998
   12.27861118  188.50100708    0.94000000    2.26999998
   12.28194427  192.01400757    0.94000000    2.26999998
   12.28500080  190.59599304    0.92000002    2.26999998
   12.28833389  175.53300476    0.92000002    2.26999998
   12.29138947  194.08200073    0.92000002    2.26999998
   12.29472256  184.69299316    0.89999998    2.28999996
   12.30166721  184.69299316    0.89999998    2.28999996
   12.30583382  180.94999695    0.89999998    2.28999996
   12.30888939  182.61300659    0.89999998    2.28999996
   12.31166649  175.42199707    0.89999998    2.28999996
   12.31250000  188.53599548    0.89999998    2.28999996
   12.31583309  180.41900635    0.89999998    2.28999996
   12.31916618  209.92599487    0.88000000    2.28999996
   12.32222176  192.55099487    0.88000000    2.28999996
   12.32555580  187.35099792    0.88000000    2.28999996
   12.32888889  194.00199890    0.88000000    2.28999996
   12.33194447  196.52600098    0.88000000    2.30999994
   12.33527756  193.58200073    0.88000000    2.30999994
   12.33861065  183.59599304    0.86000001    2.28999996
   12.34444427  183.59599304    0.86000001    2.30999994
   12.34861088  210.05299377    0.86000001    2.30999994
   12.35194492  198.92399597    0.86000001    2.30999994
   12.35500050  202.07200623    0.86000001    2.30999994
   12.35833359  194.69799805    0.86000001    2.30999994
   12.36166668  184.88999939    0.86000001    2.30999994
   12.36500072  187.50999451    0.86000001    2.28999996
   12.36805534  183.51899719    0.86000001    2.28999996
   12.37138939  187.74299622    0.86000001    2.30999994
   12.37444496  179.24899292    0.86000001    2.30999994
   12.37777805  174.23500061    0.83999997    2.30999994
   12.37972260  183.22099304    0.83999997    2.32999992
   12.38138866  180.42500305    0.83999997    2.32999992
   12.38722229  180.42500305    0.83999997    2.30999994
   12.39138889  171.85600281    0.86000001    2.30999994
   12.39472198  182.38200378    0.83999997    2.30999994
   12.39777756  172.33299255    0.83999997    2.32999992
   12.40111065  176.50300598    0.83999997    2.32999992
   12.40444374  165.85299683    0.83999997    2.32999992
   12.40749931  187.26600647    0.83999997    2.30999994
   12.41083336  179.13499451    0.83999997    2.32999992
   12.41277695  191.35899353    0.83999997    2.32999992
   12.41444397  177.17199707    0.83999997    2.32999992
   12.41777802  181.68099976    0.86000001    2.32999992
   12.42083359  193.22999573    0.83999997    2.32999992
   12.42416668  187.98100281    0.83999997    2.34999990
   12.43000031  187.98100281    0.83999997    2.34999990
   12.43416691  141.21299744    0.83999997    2.32999992
   12.43750000  179.27400208    0.83999997    2.32999992
   12.44083309  181.97000122    0.81999999    2.32999992
   12.44388866  164.59199524    0.81999999    2.32999992
   12.44638920  165.33599854    0.83999997    2.34999990
   12.44750023  164.07400513    0.83999997    2.34999990
   12.45083332  181.16799927    0.81999999    2.32999992
   12.45416641  176.03500366    0.81999999    2.32999992
   12.45722198  173.50900269    0.81999999    2.32999992
   12.46055508  177.87699890    0.81999999    2.32999992
   12.46388912  168.72999573    0.83999997    2.34999990
   12.46694374  171.16299438    0.83999997    2.34999990
   12.47305489  171.16299438    0.81999999    2.34999990
   12.47722149  184.08799744    0.80000001    2.34999990
   12.47972202  182.55499268    0.80000001    2.34999990
   12.48055553  168.73100281    0.80000001    2.34999990
   12.48388958  172.27099609    0.80000001    2.34999990
   12.48722267  176.39799500    0.80000001    2.34999990
   12.49027824  170.13600159    0.80000001    2.34999990
   12.49361134  181.33700562    0.80000001    2.34999990
   12.49694443  175.57299805    0.80000001    2.34999990
   12.50000000  167.73300171    0.80000001    2.36999989
   12.50333309  166.82899475    0.80000001    2.36999989
   12.50638866  171.06700134    0.80000001    2.36999989
   12.50972176  159.00399780    0.80000001    2.34999990
   12.51583290  159.00399780    0.80000001    2.36999989
   12.51999950  168.95599365    0.80000001    2.36999989
   12.52333355  167.24299622    0.79000002    2.36999989
   12.52638817  169.12800598    0.79000002    2.36999989
   12.52972221  169.37100220    0.79000002    2.36999989
   12.53305531  176.35600281    0.79000002    2.34999990
   12.53611183  160.72799683    0.79000002    2.36999989
   12.53944492  173.16299438    0.79000002    2.36999989
   12.54250050  173.37300110    0.79000002    2.36999989
   12.54583359  170.82400513    0.79000002    2.36999989
   12.54666710  171.97799683    0.79000002    2.36999989
   12.54944515  171.85600281    0.79000002    2.36999989
   12.55277824  176.82299805    0.79000002    2.36999989
   12.55861092  176.82299805    0.79000002    2.39000010
   12.56277752  186.06700134    0.79000002    2.39000010
   12.56611156  174.08299255    0.79000002    2.36999989
   12.56916618  177.17999268    0.79000002    2.39000010
   12.57250023  165.77499390    0.79000002    2.36999989
   12.57583332  176.53900146    0.79000002    2.39000010
   12.57888889  183.44500732    0.79000002    2.39000010
   12.57999992  162.35499573    0.79000002    2.39000010
   12.58249950  173.70899963    0.79000002    2.39000010
   12.58583260  167.44999695    0.79000002    2.39000010
   12.58916664  169.57899475    0.76999998    2.39000010
   12.59222221  172.48899841    0.76999998    2.39000010
   12.59555531  166.64799500    0.76999998    2.39000010
   12.60166740  166.64799500    0.76999998    2.39000010
   12.60555553  176.15899658    0.76999998    2.39000010
   12.60888958  170.91600037    0.79000002    2.39000010
   12.61222267  187.48800659    0.76999998    2.39000010
   12.61361122  176.31399536    0.76999998    2.39000010
   12.61583328  168.19900513    0.76999998    2.39000010
   12.61888885  179.63800049    0.76999998    2.39000010
   12.62222195  163.16600037    0.76999998    2.40000010
   12.62555599  182.39999390    0.76999998    2.39000010
   12.62861156  179.66400146    0.76999998    2.39000010
   12.63194466  167.26199341    0.76999998    2.40000010
   12.63500023  172.95199585    0.76999998    2.39000010
   12.63833332  182.17300415    0.76999998    2.40000010
   12.64444447  182.17300415    0.75000000    2.39000010
   12.64861107  173.78599548    0.75000000    2.39000010
   12.65166664  175.19200134    0.75000000    2.40000010
   12.65499973  164.10200500    0.76999998    2.39000010
   12.65833282  169.52600098    0.75000000    2.40000010
   12.66138840  174.38200378    0.75000000    2.40000010
   12.66472149  169.21099854    0.75000000    2.40000010
   12.66805553  175.99400330    0.75000000    2.40000010
   12.67111111  171.36500549    0.75000000    2.40000010
   12.67444515  163.74699402    0.75000000    2.40000010
   12.67777824  172.61999512    0.75000000    2.40000010
   12.68027782  171.63600159    0.75000000    2.40000010
   12.68138885  178.64999390    0.75000000    2.40000010
   12.68722248  178.64999390    0.75000000    2.42000008
   12.69138908  171.58500671    0.75000000    2.40000010
   12.69472218  165.08399963    0.75000000    2.40000010
   12.69777775  181.73599243    0.75000000    2.40000010
   12.70111084  182.60699463    0.75000000    2.40000010
   12.70444393  173.73100281    0.75000000    2.40000010
   12.70749950  175.46800232    0.75000000    2.42000008
   12.71083355  167.32800293    0.73000002    2.42000008
   12.71361065  184.69900513    0.73000002    2.42000008
   12.71444416  185.68200684    0.73000002    2.42000008
   12.71777725  178.32200623    0.73000002    2.42000008
   12.72083282  181.62500000    0.73000002    2.42000008
   12.72416592  192.85800171    0.73000002    2.42000008
   12.72999954  192.85800171    0.73000002    2.42000008
   12.73416710  196.25000000    0.73000002    2.42000008
   12.73750019  204.61700439    0.73000002    2.42000008
   12.74083328  204.55200195    0.73000002    2.44000006
   12.74388885  211.50999451    0.73000002    2.42000008
   12.74694443  202.95100403    0.73000002    2.42000008
   12.74777794  205.88900757    0.73000002    2.42000008
   12.75083351  203.88699341    0.70999998    2.42000008
   12.75416660  193.02600098    0.70999998    2.42000008
   12.75749969  207.22799683    0.70999998    2.42000008
   12.76055527  190.27400208    0.73000002    2.42000008
   12.76388931  202.60600281    0.73000002    2.42000008
   12.76722240  181.71699524    0.70999998    2.42000008
   12.77277756  181.71699524    0.70999998    2.42000008
   12.77694416  182.70599365    0.70999998    2.42000008
   12.78027725  206.12399292    0.70999998    2.42000008
   12.78083324  201.39100647    0.70999998    2.42000008
   12.78388977  203.09100342    0.70999998    2.44000006
   12.78722286  192.28799438    0.70999998    2.44000006
   12.79027843  191.02699280    0.70999998    2.44000006
   12.79361153  208.19000244    0.70999998    2.44000006
   12.79694462  200.33399963    0.70999998    2.44000006
   12.80000019  210.75100708    0.70999998    2.44000006
   12.80333328  200.67599487    0.70999998    2.44000006
   12.80666733  212.88800049    0.70999998    2.44000006
   12.80972195  210.10899353    0.70999998    2.44000006
   12.81583309  210.10899353    0.70999998    2.46000004
   12.81999969  214.03100586    0.70999998    2.44000006
   12.82305527  219.36199951    0.70999998    2.44000006
   12.82638836  196.89399719    0.69000000    2.44000006
   12.82944393  210.76699829    0.69000000    2.44000006
   12.83277798  215.55599976    0.69000000    2.44000006
   12.83611107  189.07800293    0.69000000    2.46000004
   12.83916664  196.92900085    0.70999998    2.46000004
   12.84249973  210.92999268    0.70999998    2.46000004
   12.84583282  200.17999268    0.69000000    2.44000006
   12.84694386  177.51899719    0.69000000    2.44000006
   12.84944439  195.02099609    0.69000000    2.46000004
   12.85249996  198.10400391    0.70999998    2.44000006
   12.85861111  198.10400391    0.70999998    2.44000006
   12.86277771  196.25799561    0.69000000    2.46000004
   12.86583328  192.74200439    0.69000000    2.44000006
   12.86916637  189.04600525    0.69000000    2.46000004
   12.87250042  195.84300232    0.69000000    2.46000004
   12.87555599  187.78500366    0.70999998    2.46000004
   12.87888908  183.51699829    0.69000000    2.46000004
   12.88027763  195.27600098    0.69000000    2.46000004
   12.88249969  191.53999329    0.69000000    2.46000004
   12.88555527  197.82499695    0.69000000    2.46000004
   12.88888836  203.27499390    0.69000000    2.46000004
   12.89222240  190.55499268    0.69000000    2.46000004
   12.89527798  206.40800476    0.70999998    2.46000004
   12.90138817  206.40800476    0.69000000    2.46000004
   12.90555477  189.39399719    0.69000000    2.46000004
   12.90888882  196.29200745    0.69000000    2.46000004
   12.91194439  190.37399292    0.69000000    2.46000004
   12.91388893  184.78799438    0.69000000    2.46000004
   12.91583252  179.87899780    0.69000000    2.46000004
   12.91888905  191.05799866    0.69000000    2.46000004
   12.92222214  176.65100098    0.69000000    2.46000004
   12.92555618  179.73199463    0.67000002    2.46000004
   12.92861176  173.41400146    0.69000000    2.48000002
   12.93194485  186.72900391    0.67000002    2.48000002
   12.93500042  184.88200378    0.67000002    2.46000004
   12.93833351  181.12800598    0.67000002    2.46000004
   12.94444466  181.12800598    0.67000002    2.46000004
   12.94833374  187.08299255    0.67000002    2.46000004
   12.95166683  195.26499939    0.67000002    2.46000004
   12.95499992  189.06799316    0.67000002    2.46000004
   12.95805550  189.10200500    0.67000002    2.46000004
   12.96138859  190.53799438    0.69000000    2.48000002
   12.96472168  189.64799500    0.69000000    2.48000002
   12.96777725  180.99899292    0.67000002    2.46000004
   12.97111034  189.72500610    0.67000002    2.46000004
   12.97416592  188.17199707    0.69000000    2.46000004
   12.97749996  186.80799866    0.69000000    2.46000004
   12.98055553  177.47000122    0.67000002    2.46000004
   12.98111057  188.21200562    0.67000002    2.46000004
   12.98722267  188.21200562    0.67000002    2.46000004
   12.99138927  174.37500000    0.67000002    2.46000004
   12.99444485  182.69700623    0.67000002    2.46000004
   12.99777794  192.16499329    0.67000002    2.48000002
   13.00083351  171.08399963    0.67000002    2.48000002
   13.00416660  173.60099792    0.67000002    2.48000002
   13.00749969  177.74600220    0.67000002    2.48000002
   13.01055527  179.03999329    0.67000002    2.46000004
   13.01388931  161.79299927    0.69000000    2.48000002
   13.01444435  168.07699585    0.69000000    2.48000002
   13.01749992  174.21099854    0.67000002    2.48000002
   13.02083302  178.54499817    0.67000002    2.50000000
   13.02388859  178.07899475    0.67000002    2.48000002
   13.02999973  178.07899475    0.69000000    2.48000002
   13.03416729  166.38400269    0.69000000    2.48000002
   13.03722286  175.10899353    0.67000002    2.48000002
   13.04055595  168.46899414    0.67000002    2.48000002
   13.04388905  177.69999695    0.67000002    2.48000002
   13.04694462  165.66799927    0.67000002    2.48000002
   13.04750061  179.55200195    0.67000002    2.48000002
   13.05083370  178.00999451    0.67000002    2.48000002
   13.05388927  175.63200378    0.67000002    2.48000002
   13.05722237  165.91499329    0.67000002    2.48000002
   13.06055546  173.37699890    0.67000002    2.48000002
   13.06361103  168.03799438    0.67000002    2.48000002
   13.06694412  162.96899414    0.67000002    2.50000000
   13.07277775  162.96899414    0.64999998    2.50000000
   13.07694435  162.01800537    0.64999998    2.50000000
   13.08027744  171.93299866    0.67000002    2.48000002
   13.08083344  173.83599854    0.67000002    2.48000002
   13.08388901  161.32200623    0.64999998    2.50000000
   13.08694458  141.61199951    0.64999998    2.48000002
   13.09027767  167.55599976    0.64999998    2.50000000
   13.09361076  152.44500732    0.64999998    2.50000000
   13.09666634  161.78100586    0.64999998    2.50000000
   13.10000038  155.89199829    0.64999998    2.50000000
   13.10305595  150.72300720    0.64999998    2.48000002
   13.10638905  159.20399475    0.64999998    2.48000002
   13.10972214  158.23899841    0.64999998    2.50000000
   13.11555576  158.23899841    0.64999998    2.50000000
   13.11972237  173.30799866    0.64999998    2.50000000
   13.12305546  163.97399902    0.64999998    2.50000000
   13.12638855  163.28399658    0.64999998    2.50000000
   13.12944412  157.03500366    0.64999998    2.48000002
   13.13277817  163.30900574    0.63000000    2.50000000
   13.13583279  163.35699463    0.64999998    2.50000000
   13.13916683  160.73100281    0.64999998    2.50000000
   13.14249992  158.79800415    0.63000000    2.50000000
   13.14555550  157.83500671    0.63000000    2.50000000
   13.14750004  141.58000183    0.63000000    2.50000000
   13.14944458  143.24699402    0.63000000    2.50000000
   13.15249920  171.80400085    0.63000000    2.50000000
   13.15861034  171.80400085    0.63000000    2.50000000
   13.16277695  166.12899780    0.63000000    2.51999998
   13.16583252  161.52999878    0.63000000    2.50000000
   13.16916656  149.91099548    0.63000000    2.50000000
   13.17250061  155.88900757    0.63000000    2.51999998
   13.17555618  158.55900574    0.63000000    2.51999998
   13.17888927  153.01499939    0.63000000    2.50000000
   13.18083382  161.72599792    0.63000000    2.51999998
   13.18249989  159.70899963    0.63000000    2.51999998
   13.18555546  156.77200317    0.63000000    2.50000000
   13.18888855  149.52400208    0.63000000    2.50000000
   13.19222260  153.15299988    0.63000000    2.51999998
   13.19527817  152.25500488    0.63000000    2.51999998
   13.20138836  152.25500488    0.63000000    2.50000000
   13.20555496  157.80900574    0.61000001    2.51999998
   13.20861053  156.86900330    0.61000001    2.51999998
   13.21194458  149.27600098    0.61000001    2.51999998
   13.21416664  157.94299316    0.61000001    2.51999998
   13.21555519  152.94299316    0.61000001    2.51999998
   13.21861076  148.86999512    0.61000001    2.50000000
   13.22194386  161.34700012    0.63000000    2.51999998
   13.22527695  146.24699402    0.61000001    2.51999998
   13.22833252  151.30999756    0.63000000    2.51999998
   13.23166656  151.94999695    0.63000000    2.51999998
   13.23500061  157.25700378    0.63000000    2.51999998
   13.23805618  147.87600708    0.61000001    2.51999998
   13.24416733  147.87600708    0.61000001    2.51999998
   13.24833393  147.40199280    0.63000000    2.51999998
   13.25166702  159.80299377    0.61000001    2.51999998
   13.25500011  144.99600220    0.61000001    2.51999998
   13.25805569  146.19700623    0.61000001    2.53999996
   13.26138878  158.63699341    0.61000001    2.51999998
   13.26444435  144.86999512    0.61000001    2.53999996
   13.26777744  149.34899902    0.61000001    2.53999996
   13.27111053  139.05400085    0.61000001    2.53999996
   13.27416611  152.13900757    0.61000001    2.51999998
   13.27750015  150.47799683    0.61000001    2.53999996
   13.29500008  144.82899475    0.61000001    2.51999998
   13.29916668  144.82899475    0.61000001    2.53999996
   13.30333328  149.74000549    0.61000001    2.53999996
   13.30666733  142.46499634    0.61000001    2.53999996
   13.30972195  149.86000061    0.61000001    2.53999996
   13.31305599  158.20599365    0.61000001    2.53999996
   13.31638908  147.31900024    0.61000001    2.53999996
   13.31944466  153.42999268    0.61000001    2.53999996
   13.32277775  146.52999878    0.61000001    2.53999996
   13.32583332  139.57299805    0.58999997    2.53999996
   13.32833290  137.95599365    0.58999997    2.51999998
   13.32972240  136.95899963    0.58999997    2.51999998
   13.33277798  137.90699768    0.58999997    2.51999998
   13.33611107  144.48899841    0.58999997    2.55999994
   13.34194374  144.48899841    0.58999997    2.55999994
   13.34611034  136.51400757    0.58999997    2.53999996
   13.34944439  144.98599243    0.58999997    2.53999996
   13.35249996  142.53799438    0.58999997    2.53999996
   13.35583401  145.69999695    0.58999997    2.53999996
   13.35916710  147.23800659    0.58999997    2.51999998
   13.36166668  144.18899536    0.58999997    2.51999998
   13.36277771  139.26100159    0.58999997    2.53999996
   13.36583328  139.88800049    0.58999997    2.53999996
   13.36916637  149.38600159    0.58999997    2.55999994
   13.37250042  143.77299500    0.58999997    2.55999994
   13.37555599  142.98300171    0.58999997    2.53999996
   13.37888908  131.19099426    0.58999997    2.53999996
   13.38500023  131.19099426    0.58999997    2.53999996
   13.38916683  140.16000366    0.58999997    2.53999996
   13.39222240  136.14599609    0.56999999    2.53999996
   13.39499950  140.91099548    0.56999999    2.53999996
   13.39583302  149.96899414    0.56999999    2.53999996
   13.39888859  137.25599670    0.58999997    2.53999996
   13.40222168  139.75399780    0.58999997    2.53999996
   13.40527725  147.25900269    0.58999997    2.53999996
   13.40861034  142.09100342    0.58999997    2.53999996
   13.41194439  144.95700073    0.56999999    2.55999994
   13.41499996  146.76100159    0.58999997    2.53999996
   13.41833401  132.79699707    0.58999997    2.53999996
   13.42166710  145.07899475    0.56999999    2.53999996
   13.42777824  145.07899475    0.56999999    2.53999996
   13.43194485  142.93899536    0.56999999    2.53999996
   13.43500042  147.28500366    0.56999999    2.53999996
   13.43833351  149.04299927    0.56999999    2.53999996
   13.44166660  138.31700134    0.58999997    2.55999994
   13.44472218  141.74299622    0.58999997    2.55999994
   13.44805527  126.51100159    0.56999999    2.53999996
   13.45138836  136.57699585    0.56999999    2.53999996
   13.45444393  141.63200378    0.56999999    2.53999996
   13.45777798  131.13499451    0.56999999    2.53999996
   13.46083355  134.27900696    0.56999999    2.55999994
   13.46277714  131.81199646    0.56999999    2.53999996
   13.46444416  135.06199646    0.56999999    2.55999994
   13.47055531  135.06199646    0.56999999    2.55999994
   13.47472191  142.54899597    0.56999999    2.55999994
   13.47805500  141.03799438    0.58999997    2.53999996
   13.48111057  132.17799377    0.56999999    2.53999996
   13.48444462  145.16299438    0.56999999    2.55999994
   13.48750019  147.39300537    0.56999999    2.53999996
   13.49083328  143.73599243    0.56999999    2.55999994
   13.49416733  136.15600586    0.56999999    2.53999996
   13.49611092  149.21899414    0.56999999    2.53999996
   13.49750042  140.80000305    0.56999999    2.53999996
   13.50083351  146.97200012    0.56999999    2.55999994
   13.50416660  146.10699463    0.56999999    2.53999996
   13.50722218  139.22700500    0.56999999    2.55999994
   13.51333332  139.22700500    0.56999999    2.53999996
   13.51749992  124.80999756    0.56999999    2.55999994
   13.52083302  135.02999878    0.55000001    2.53999996
   13.52388859  128.28100586    0.56999999    2.55999994
   13.52722168  136.89399719    0.55000001    2.55999994
   13.52972221  131.98699951    0.55000001    2.55999994
   13.53083324  140.75399780    0.55000001    2.55999994
   13.53416729  153.55799866    0.56999999    2.53999996
   13.53750038  149.80799866    0.55000001    2.55999994
   13.54055595  142.43099976    0.55000001    2.55999994
   13.54388905  137.62699890    0.55000001    2.55999994
   13.54722309  152.99600220    0.55000001    2.55999994
   13.55027771  128.24000549    0.55000001    2.55999994
   13.55638885  128.24000549    0.55000001    2.55999994
   13.56055546  150.33599854    0.56999999    2.55999994
   13.56305599  143.18800354    0.56999999    2.55999994
   13.56388950  140.03199768    0.55000001    2.55999994
   13.56722260  143.38299561    0.55000001    2.55999994
   13.57055569  141.94500732    0.55000001    2.55999994
   13.57361126  140.51699829    0.56999999    2.57999992
   13.57694435  138.46600342    0.56999999    2.57999992
   13.57999992  136.42900085    0.55000001    2.55999994
   13.58333302  134.42100525    0.55000001    2.55999994
   13.58666611  142.26400757    0.55000001    2.55999994
   13.58972168  142.81900024    0.55000001    2.55999994
   13.59305477  138.55099487    0.56999999    2.57999992
   13.59916592  138.55099487    0.55000001    2.55999994
   13.60333347  123.21499634    0.55000001    2.57999992
   13.60638905  144.98100281    0.56999999    2.55999994
   13.60972214  145.83900452    0.55000001    2.55999994
   13.61305618  162.60800171    0.55000001    2.55999994
   13.61611176  148.82800293    0.55000001    2.55999994
   13.61944485  150.00199890    0.56999999    2.57999992
   13.62277794  144.36199951    0.55000001    2.55999994
   13.62583351  147.50599670    0.55000001    2.55999994
   13.62916660  138.06599426    0.55000001    2.55999994
   13.63000011  141.80299377    0.55000001    2.55999994
   13.63277817  130.18299866    0.55000001    2.55999994
   13.63583279  134.12300110    0.55000001    2.55999994
   13.64194393  134.12300110    0.55000001    2.57999992
   13.64611053  137.25000000    0.55000001    2.55999994
   13.64944458  138.55200195    0.55000001    2.55999994
   13.65249920  138.11799622    0.55000001    2.55999994
   13.65583324  132.60200500    0.55000001    2.57999992
   13.65916634  139.19700623    0.55000001    2.57999992
   13.66222191  131.06500244    0.55000001    2.57999992
   13.66333294  124.99299622    0.55000001    2.57999992
   13.66583252  147.58399963    0.55000001    2.57999992
   13.66888905  142.60000610    0.55000001    2.57999992
   13.67222214  125.95700073    0.55000001    2.57999992
   13.67555618  134.65600586    0.55000001    2.55999994
   13.67861176  144.27699280    0.55000001    2.57999992
   13.68472195  144.27699280    0.55000001    2.57999992
   13.68888855  143.87800598    0.55000001    2.57999992
   13.69222260  141.02900696    0.55000001    2.55999994
   13.69527817  138.97799683    0.55000001    2.57999992
   13.69694424  140.49899292    0.52999997    2.55999994
   13.69916630  140.46699524    0.52999997    2.55999994
   13.70222187  136.56599426    0.52999997    2.57999992
   13.70555496  136.70899963    0.52999997    2.57999992
   13.70888901  132.34700012    0.52999997    2.57999992
   13.71194458  135.52499390    0.52999997    2.57999992
   13.71527767  135.98899841    0.52999997    2.55999994
   13.71861076  131.81100464    0.52999997    2.55999994
   13.72166634  135.73699951    0.52999997    2.57999992
   13.72777748  135.73699951    0.52999997    2.57999992
   13.73194408  131.60899353    0.52999997    2.57999992
   13.73500061  136.00999451    0.52999997    2.55999994
   13.73833370  132.98199463    0.52999997    2.55999994
   13.74166679  131.18099976    0.52999997    2.57999992
   13.74472237  136.55700684    0.55000001    2.57999992
   13.74805546  136.74299622    0.52999997    2.55999994
   13.75111103  139.88999939    0.52999997    2.59999990
   13.75444412  136.62899780    0.55000001    2.57999992
   13.75777817  136.81700134    0.52999997    2.59999990
   13.76083374  144.00799561    0.52999997    2.59999990
   13.76361084  141.62199402    0.52999997    2.59999990
   13.76472187  136.96800232    0.52999997    2.59999990
   13.77055550  136.96800232    0.55000001    2.57999992
   13.77472210  140.65899658    0.52999997    2.57999992
   13.77777767  136.82400513    0.52999997    2.57999992
   13.78111076  126.89800262    0.55000001    2.57999992
   13.78444481  132.75999451    0.55000001    2.57999992
   13.78750038  132.34700012    0.52999997    2.57999992
   13.79083347  134.75300598    0.52999997    2.57999992
   13.79416752  124.50499725    0.52999997    2.57999992
   13.79694462  124.73600006    0.52999997    2.57999992
   13.79777813  127.32099915    0.52999997    2.57999992
   13.80083370  137.36999512    0.52999997    2.57999992
   13.80416679  123.93099976    0.52999997    2.57999992
   13.80722237  128.65800476    0.52999997    2.57999992
   13.81333351  128.65800476    0.52999997    2.57999992
   13.81750011  129.17199707    0.52999997    2.59999990
   13.82083321  125.86799622    0.52999997    2.55999994
   13.82388878  125.98899841    0.52999997    2.59999990
   13.82722187  128.64300537    0.52999997    2.59999990
   13.83027744  138.92700195    0.52999997    2.59999990
   13.83083344  125.97899628    0.52999997    2.59999990
   13.83388901  139.73899841    0.52999997    2.59999990
   13.83722210  132.77799988    0.52999997    2.57999992
   13.84027767  135.19999695    0.52999997    2.59999990
   13.84361076  133.46800232    0.52999997    2.59999990
   13.84694386  145.25799561    0.51999998    2.57999992
   13.85000038  152.51199341    0.51999998    2.59999990
   13.85611153  152.51199341    0.51999998    2.59999990
   13.86027813  137.87199402    0.51999998    2.59999990
   13.86361122  122.25399780    0.51999998    2.59999990
   13.86416721  121.54199982    0.52999997    2.59999990
   13.86722279  121.37300110    0.52999997    2.59999990
   13.87055588  125.57399750    0.52999997    2.61999989
   13.87388897  130.58099365    0.51999998    2.57999992
   13.87694454  135.74600220    0.52999997    2.57999992
   13.88027763  127.04199982    0.52999997    2.59999990
   13.88333321  124.00800323    0.51999998    2.61999989
   13.88666630  125.86399841    0.51999998    2.59999990
   13.89000034  131.24400330    0.51999998    2.59999990
   13.89305496  122.62999725    0.51999998    2.59999990
   13.89916611  122.62999725    0.51999998    2.59999990
   13.90305519  148.29899597    0.51999998    2.59999990
   13.90638828  134.33900452    0.51999998    2.59999990
   13.90972137  136.74299622    0.51999998    2.57999992
   13.91277695  130.03799438    0.51999998    2.59999990
   13.91611099  133.21000671    0.51999998    2.59999990
   13.91944504  124.18299866    0.51999998    2.61999989
   13.92250061  128.23399353    0.51999998    2.59999990
   13.92583370  138.19099426    0.51999998    2.59999990
   13.92888927  132.36399841    0.51999998    2.59999990
   13.93027782  131.75399780    0.51999998    2.59999990
   13.93277836  132.75199890    0.51999998    2.59999990
   13.93583298  148.47099304    0.51999998    2.59999990
   13.94194412  148.47099304    0.51999998    2.61999989
   13.94611073  133.61900330    0.51999998    2.59999990
   13.94944477  127.24199677    0.51999998    2.59999990
   13.95249939  125.17600250    0.51999998    2.59999990
   13.95583344  124.15499878    0.51999998    2.59999990
   13.95916653  132.30999756    0.51999998    2.61999989
   13.96222210  121.11599731    0.51999998    2.61999989
   13.96361065  120.71399689    0.51999998    2.61999989
   13.96611118  123.84100342    0.51999998    2.61999989
   13.96916580  121.98000336    0.51999998    2.59999990
   13.97249985  118.21700287    0.51999998    2.61999989
   13.97555542  129.53999329    0.51999998    2.61999989
   13.97888851  121.68599701    0.51999998    2.61999989
   13.98472214  121.68599701    0.51999998    2.59999990
   13.98888874  118.35099792    0.51999998    2.59999990
   13.99222279  125.82099915    0.51999998    2.59999990
   13.99527836  126.41699982    0.51999998    2.59999990
   13.99722290  125.45700073    0.51999998    2.59999990
   13.99916649  127.08100128    0.51999998    2.59999990
   14.00249958  127.18099976    0.51999998    2.59999990
   14.00555515  133.71800232    0.51999998    2.59999990
   14.00888920  130.01499939    0.51999998    2.61999989
   14.01222229  127.26100159    0.51999998    2.59999990
   14.01555538  126.35600281    0.51999998    2.59999990
   14.01861095  124.03099823    0.52999997    2.59999990
   14.02194405  124.02899933    0.52999997    2.59999990
   14.02750015  124.02899933    0.51999998    2.59999990
   14.03166676  124.89299774    0.51999998    2.61999989
   14.03500080  123.33000183    0.52999997    2.59999990
   14.03805637  124.39800262    0.52999997    2.59999990
   14.04138947  124.05999756    0.51999998    2.59999990
   14.04472256  125.01799774    0.51999998    2.59999990
   14.04777813  116.85500336    0.51999998    2.59999990
   14.05111122  122.82700348    0.51999998    2.59999990
   14.05444431  118.07800293    0.51999998    2.59999990
   14.05749989  128.30999756    0.51999998    2.61999989
   14.06083393  118.56099701    0.51999998    2.61999989
   14.06388950  126.10299683    0.51999998    2.59999990
   14.06416702  121.32700348    0.51999998    2.59999990
   14.07055569  121.32700348    0.51999998    2.59999990
   14.07444477  123.88700104    0.51999998    2.59999990
   14.07777786  125.11599731    0.51999998    2.61999989
   14.08111095  132.84700012    0.51999998    2.61999989
   14.08416653  121.48500061    0.51999998    2.59999990
   14.08749962  120.20899963    0.51999998    2.61999989
   14.09083271  116.22000122    0.51999998    2.59999990
   14.09388828  121.40200043    0.51999998    2.61999989
   14.09722233  124.37899780    0.51999998    2.61999989
   14.09749985  122.77799988    0.51999998    2.61999989
   14.10083389  122.37400055    0.51999998    2.61999989
   14.10416698  119.69899750    0.51999998    2.61999989
   14.10722256  118.11900330    0.51999998    2.61999989
   14.11333370  118.11900330    0.51999998    2.61999989
   14.11750031  132.55799866    0.50000000    2.61999989
   14.12055588  121.72100067    0.50000000    2.61999989
   14.12388897  131.65899658    0.50000000    2.61999989
   14.12722206  123.85399628    0.51999998    2.61999989
   14.13027763  131.95300293    0.50000000    2.61999989
   14.13083363  129.50799561    0.50000000    2.61999989
   14.13416672  124.12100220    0.50000000    2.61999989
   14.13722229  133.96000671    0.50000000    2.61999989
   14.14055538  129.67199707    0.50000000    2.61999989
   14.14388847  119.34400177    0.51999998    2.61999989
   14.14694405  129.45799255    0.51999998    2.59999990
   14.15027714  148.78100586    0.50000000    2.61999989
   14.15611076  148.78100586    0.50000000    2.61999989
   14.16027737  124.77899933    0.50000000    2.61999989
   14.16333294  123.36699677    0.50000000    2.64000010
   14.16416645  120.14099884    0.50000000    2.64000010
   14.16722298  124.00399780    0.50000000    2.64000010
   14.17027855  133.54100037    0.51999998    2.61999989
   14.17361164  126.77500153    0.50000000    2.61999989
   14.17666721  128.66099548    0.50000000    2.61999989
   14.18000031  131.79400635    0.51999998    2.61999989
   14.18333340  127.17400360    0.51999998    2.61999989
   14.18638897  123.53700256    0.51999998    2.61999989
   14.18972206  127.41600037    0.50000000    2.61999989
   14.19305515  126.46199799    0.50000000    2.61999989
   14.19888878  126.46199799    0.51999998    2.61999989
   14.20305538  138.09500122    0.51999998    2.61999989
   14.20638847  124.43199921    0.51999998    2.61999989
   14.20944405  138.86399841    0.51999998    2.61999989
   14.21277714  128.87899780    0.51999998    2.61999989
   14.21611118  136.72799683    0.51999998    2.61999989
   14.21916580  122.50299835    0.51999998    2.61999989
   14.22249985  138.10899353    0.51999998    2.61999989
   14.22583294  125.19000244    0.51999998    2.61999989
   14.22888851  129.56900024    0.51999998    2.61999989
   14.23083305  137.36099243    0.51999998    2.61999989
   14.23277760  126.85700226    0.52999997    2.61999989
   14.23583317  129.22200012    0.51999998    2.61999989
   14.24194431  129.22200012    0.51999998    2.61999989
   14.24583340  135.26199341    0.52999997    2.64000010
   14.24916649  138.31599426    0.52999997    2.64000010
   14.25249958  128.91999817    0.51999998    2.64000010
   14.25555515  132.60000610    0.52999997    2.64000010
   14.25888920  137.50900269    0.51999998    2.61999989
   14.26222229  134.31700134    0.51999998    2.61999989
   14.26416683  111.51599884    0.51999998    2.61999989
   14.26583290  115.51399994    0.52999997    2.61999989
   14.26888847  133.68800354    0.51999998    2.64000010
   14.27222157  136.71699524    0.51999998    2.61999989
   14.27555561  120.90799713    0.51999998    2.61999989
   14.27861118  125.44999695    0.51999998    2.61999989
   14.28472233  125.44999695    0.51999998    2.64000010
   14.28888893  126.42900085    0.51999998    2.61999989
   14.29194450  131.71000671    0.52999997    2.61999989
   14.29527855  137.28999329    0.52999997    2.61999989
   14.31250000  142.32899475    0.63000000    2.61999989
   14.31527805  132.54499817    0.64999998    2.61999989
   14.31833363  130.04400635    0.64999998    2.61999989
   14.32166672  134.33399963    0.67000002    2.61999989
   14.32777786  134.33399963    0.67000002    2.61999989
   14.33166695  121.09200287    0.69000000    2.61999989
   14.33500004  135.33000183    0.67000002    2.64000010
   14.33833313  142.32699585    0.64999998    2.61999989
   14.34138870  138.00700378    0.64999998    2.61999989
   14.34472179  134.36300659    0.64999998    2.61999989
   14.34583282  128.30599976    0.64999998    2.61999989
   14.34805489  137.61700439    0.64999998    2.61999989
   14.35138893  125.88400269    0.64999998    2.61999989
   14.35472298  126.52999878    0.64999998    2.64000010
   14.35777855  127.84799957    0.64999998    2.61999989
   14.36111164  147.06799316    0.64999998    2.64000010
   14.36444473  130.84800720    0.64999998    2.64000010
   14.37055588  130.84800720    0.63000000    2.64000010
   14.37472248  130.44299316    0.63000000    2.64000010
   14.37777805  135.38099670    0.63000000    2.64000010
   14.37916660  143.85699463    0.63000000    2.61999989
   14.38166714  136.88000488    0.63000000    2.61999989
   14.38472176  121.99400330    0.63000000    2.64000010
   14.38805580  126.59100342    0.63000000    2.64000010
   14.39111137  136.49000549    0.63000000    2.64000010
   14.39444447  133.81700134    0.63000000    2.61999989
   14.39777756  123.85199738    0.61000001    2.64000010
   14.40111065  121.32499695    0.61000001    2.64000010
   14.40416622  122.06199646    0.61000001    2.64000010
   14.40749931  129.34300232    0.61000001    2.61999989
   14.41333294  129.34300232    0.61000001    2.64000010
   14.41750050  128.83599854    0.61000001    2.61999989
   14.42055607  122.06199646    0.58999997    2.64000010
   14.42388916  125.78500366    0.56999999    2.64000010
   14.42722225  122.36599731    0.56999999    2.64000010
   14.43027782  127.37899780    0.56999999    2.64000010
   14.43361092  124.44200134    0.56999999    2.64000010
   14.43694496  121.07499695    0.56999999    2.64000010
   14.44000053  122.38200378    0.56999999    2.61999989
   14.44333363  130.69099426    0.55000001    2.66000009
   14.44583321  117.51499939    0.55000001    2.66000009
   14.44694424  120.73500061    0.55000001    2.66000009
   14.44999981  120.07199860    0.55000001    2.64000010
   14.45611095  120.07199860    0.55000001    2.66000009
   14.46027756  109.65499878    0.55000001    2.64000010
   14.46361065  105.76699829    0.55000001    2.64000010
   14.46666622  115.27500153    0.55000001    2.64000010
   14.46999931  116.40799713    0.55000001    2.64000010
   14.47333336  116.30799866    0.55000001    2.61999989
   14.47638798  118.51399994    0.55000001    2.61999989
   14.47916603  120.90399933    0.55000001    2.64000010
   14.48027706  125.21499634    0.55000001    2.64000010
   14.48333359  126.28500366    0.55000001    2.64000010
   14.48666668  121.79499817    0.55000001    2.64000010
   14.49000072  123.60700226    0.55000001    2.64000010
   14.49305534  127.27999878    0.55000001    2.64000010
   14.49916649  127.27999878    0.56999999    2.61999989
   14.50305557  120.21299744    0.58999997    2.64000010
   14.50638866  119.63099670    0.61000001    2.64000010
   14.50972176  118.94599915    0.67000002    2.64000010
   14.51249981  118.06700134    0.70999998    2.61999989
   14.51333332  120.62300110    0.70999998    2.61999989
   14.51638889  117.21700287    0.75000000    2.64000010
   14.51972198  121.00099945    0.75000000    2.64000010
   14.52277756  119.56300354    0.83999997    2.61999989
   14.52611065  119.23500061    1.16999996    2.64000010
   14.52944374  120.94200134    1.21000004    2.64000010
   14.53249931  126.69000244    1.19000006    2.61999989
   14.53583336  118.14900208    1.19000006    2.64000010
   14.54194450  118.14900208    1.13000000    2.64000010
   14.54611111  123.67800140    1.11000001    2.64000010
   14.54916668  121.34500122    1.05999994    2.61999989
   14.55249977  131.21699524    1.05999994    2.61999989
   14.55583382  139.59700012    1.03999996    2.64000010
   14.55888939  127.39399719    0.98000002    2.64000010
   14.56222248  125.40399933    0.86000001    2.64000010
   14.56555557  117.16400146    0.92000002    2.64000010
   14.56861115  114.29299927    0.92000002    2.64000010
   14.57194424  121.78399658    0.92000002    2.64000010
   14.57499981  116.57099915    0.83999997    2.64000010
   14.57833290  122.77799988    0.81999999    2.64000010
   14.57916641  121.98100281    0.81999999    2.64000010
   14.58472157  121.98100281    0.80000001    2.61999989
   14.58888817  132.30700684    0.81999999    2.64000010
   14.59222221  125.13999939    0.80000001    2.64000010
   14.59527779  121.39099884    0.80000001    2.64000010
   14.59861088  115.62899780    0.80000001    2.61999989
   14.60166740  123.51499939    0.88000000    2.64000010
   14.60500050  120.57800293    0.88000000    2.64000010
   14.60833359  112.93000031    1.03999996    2.64000010
   14.61138916  118.19400024    1.00000000    2.64000010
   14.61250019  121.26499939    1.00000000    2.64000010
   14.61527824  115.09500122    0.76999998    2.66000009
   14.61833382  123.12500000    0.76999998    2.66000009
   14.62166691  121.08599854    0.76999998    2.64000010
   14.62750053  121.08599854    0.73000002    2.64000010
   14.63166714  120.06900024    0.75000000    2.64000010
   14.63500023  121.71299744    0.75000000    2.64000010
   14.63805580  121.05100250    0.75000000    2.64000010
   14.64138889  119.37599945    0.70999998    2.64000010
   14.64472198  116.62799835    0.64999998    2.64000010
   14.64583302  118.59799957    0.64999998    2.64000010
   14.64833355  125.51200104    0.63000000    2.64000010
   14.65138817  109.49199677    0.61000001    2.64000010
   14.65472221  118.26100159    0.61000001    2.64000010
   14.65805531  122.44100189    0.63000000    2.64000010
   14.66138840  126.86399841    0.61000001    2.64000010
   14.66444397  118.16500092    0.61000001    2.64000010
   14.67027855  118.16500092    0.61000001    2.64000010
   14.67444515  122.79199982    0.61000001    2.64000010
   14.67777824  123.85299683    0.61000001    2.64000010
   14.67916679  118.23799896    0.61000001    2.64000010
   14.68138885  127.14900208    0.63000000    2.64000010
   14.68444443  119.46499634    0.61000001    2.64000010
   14.68777752  125.98600006    0.67000002    2.64000010
   14.69083309  119.55100250    0.67000002    2.64000010
   14.69416714  123.05100250    0.76999998    2.64000010
   14.69750023  117.96499634    0.70999998    2.64000010
   14.70055580  120.09899902    0.67000002    2.64000010
   14.70388889  119.35900116    0.67000002    2.64000010
   14.70722198  120.22399902    0.69000000    2.64000010
   14.71333313  120.22399902    0.70999998    2.64000010
   14.71749973  113.53299713    0.73000002    2.64000010
   14.72055531  128.36300659    0.88000000    2.61999989
   14.72388840  115.07599640    0.89999998    2.64000010
   14.72694397  120.94300079    0.86000001    2.64000010
   14.73027706  118.45300293    0.83999997    2.64000010
   14.73361111  120.36100006    0.86000001    2.64000010
   14.73694515  120.83899689    0.86000001    2.64000010
   14.74000072  118.74400330    0.81999999    2.64000010
   14.74333382  122.17900085    0.88000000    2.64000010
   14.74583340  120.27300262    0.88000000    2.64000010
   14.74694443  117.51100159    0.88000000    2.64000010
   14.75000000  122.21399689    0.88000000    2.64000010
   14.75611115  122.21399689    0.69000000    2.64000010
   14.76027775  124.69100189    0.67000002    2.66000009
   14.76333332  118.38500214    0.61000001    2.64000010
   14.76666641  116.73999786    0.63000000    2.64000010
   14.76999950  113.22699738    0.58999997    2.66000009
   14.77305508  117.75199890    0.58999997    2.66000009
   14.77638817  121.00000000    0.58999997    2.66000009
   14.77916622  118.20700073    0.58999997    2.66000009
   14.77999973  120.97200012    0.58999997    2.66000009
   14.78333378  119.48500061    0.58999997    2.66000009
   14.78638935  122.46199799    0.58999997    2.66000009
   14.78972244  120.58399963    0.58999997    2.66000009
   14.79305553  119.55999756    0.61000001    2.64000010
   14.79888916  119.55999756    0.76999998    2.64000010
   14.80305576  124.10700226    0.76999998    2.66000009
   14.80638885  121.58399963    0.79000002    2.66000009
   14.80944443  139.53799438    0.79000002    2.66000009
   14.81250000  141.69299316    0.79000002    2.64000010
   14.81333351  164.34399414    0.79000002    2.64000010
   14.81638908  169.22300720    0.80000001    2.66000009
   14.81972218  182.59399414    0.73000002    2.66000009
   14.82305527  179.90899658    0.79000002    2.66000009
   14.82611084  172.08399963    0.81999999    2.64000010
   14.82944393  192.96200562    0.80000001    2.64000010
   14.83249950  177.91099548    0.76999998    2.64000010
   14.83583260  165.88400269    0.76999998    2.64000010
   14.84166622  165.88400269    0.75000000    2.66000009
   14.84583282  162.87300110    0.73000002    2.64000010
   14.84916592  169.40899658    0.67000002    2.66000009
   14.85249996  164.29899597    0.64999998    2.66000009
   14.85555553  170.92799377    0.63000000    2.66000009
   14.85888958  148.51699829    0.61000001    2.64000010
   14.86194515  162.99899292    0.61000001    2.64000010
   14.86527824  170.01600647    0.61000001    2.66000009
   14.86861134  184.13499451    0.61000001    2.66000009
   14.87166691  169.19700623    0.58999997    2.66000009
   14.87500000  187.84700012    0.56999999    2.64000010
   14.87833309  157.17799377    0.58999997    2.66000009
   14.87916660  168.04400635    0.58999997    2.66000009
   14.88472176  168.04400635    0.58999997    2.66000009
   14.88888836  155.44299316    0.58999997    2.66000009
   14.89194393  163.93899536    0.63000000    2.66000009
   14.89527798  150.76100159    0.64999998    2.66000009
   14.89833355  133.17300415    0.69000000    2.66000009
   14.90166664  178.10899353    0.67000002    2.66000009
   14.90499973  155.99899292    0.70999998    2.66000009
   14.90833282  149.49400330    0.70999998    2.66000009
   14.91138840  148.81500244    0.79000002    2.66000009
   14.91249943  150.98199463    0.76999998    2.66000009
   14.91499996  165.41799927    0.76999998    2.66000009
   14.91805553  167.72399902    0.70999998    2.66000009
   14.92138958  160.71200562    0.69000000    2.66000009
   14.92750072  160.71200562    0.63000000    2.66000009
   14.93166733  166.46499634    0.58999997    2.66000009
   14.93472195  144.46600342    0.58999997    2.66000009
   14.93805599  166.11000061    0.58999997    2.66000009
   14.94138908  144.14199829    0.58999997    2.66000009
   14.94444466  175.66000366    0.58999997    2.66000009
   14.94583321  145.33599854    0.58999997    2.66000009
   14.94805527  148.77900696    0.70999998    2.66000009
   14.95111084  148.31500244    0.70999998    2.66000009
   14.95444393  139.55000305    0.70999998    2.66000009
   14.95777798  146.90499878    0.64999998    2.66000009
   14.96083355  148.11700439    0.61000001    2.66000009
   14.96416664  150.36000061    0.61000001    2.66000009
   14.97027779  150.36000061    0.58999997    2.66000009
   14.97444439  165.56100464    0.58999997    2.66000009
   14.97777748  155.05599976    0.58999997    2.66000009
   14.97916603  150.18899536    0.58999997    2.66000009
   14.98138809  150.79100037    0.58999997    2.66000009
   14.98472214  145.99499512    0.58999997    2.66000009
   14.98777771  153.88299561    0.58999997    2.66000009
   14.99111176  145.20899963    0.58999997    2.67000008
   14.99444485  148.37500000    0.56999999    2.66000009
   14.99750042  141.60099792    0.58999997    2.66000009
   15.00083351  134.85099792    0.56999999    2.66000009
   15.00388908  149.03700256    0.56999999    2.66000009
   15.00722218  117.87999725    0.58999997    2.67000008
   15.01305580  117.87999725    0.58999997    2.66000009
   15.01722240  135.38699341    0.58999997    2.66000009
   15.02055550  127.45500183    0.58999997    2.67000008
   15.02388859  140.00599670    0.55000001    2.67000008
   15.02694416  142.22000122    0.55000001    2.67000008
   15.03027725  133.94000244    0.56999999    2.67000008
   15.03333378  146.91499329    0.56999999    2.67000008
   15.03666687  141.11399841    0.55000001    2.67000008
   15.04000092  134.14399719    0.55000001    2.66000009
   15.04305553  142.83700562    0.55000001    2.67000008
   15.04583359  143.17700195    0.55000001    2.67000008
   15.04666710  154.92700195    0.55000001    2.67000008
   15.04972267  130.11700439    0.55000001    2.67000008
   15.05611134  130.11700439    0.55000001    2.67000008
   15.06027794  123.07399750    0.55000001    2.67000008
   15.06333351  121.49400330    0.55000001    2.67000008
   15.06666660  132.68699646    0.52999997    2.67000008
   15.06999969  146.09700012    0.55000001    2.67000008
   15.07333374  130.65600586    0.55000001    2.67000008
   15.07666683  141.77200317    0.58999997    2.69000006
   15.07916641  142.46499634    0.58999997    2.69000006
   15.08027744  143.82099915    0.64999998    2.67000008
   15.08333302  131.97300720    0.64999998    2.67000008
   15.08666611  129.07099915    0.63000000    2.67000008
   15.09000015  126.51899719    0.63000000    2.67000008
   15.09305477  126.16000366    0.63000000    2.67000008
   15.09888840  126.16000366    0.70999998    2.66000009
   15.10305595  134.49899292    1.30999994    2.67000008
   15.10611153  140.71800232    1.01999998    2.66000009
   15.10944462  124.39900208    1.05999994    2.66000009
   15.11250019  127.42600250    1.03999996    2.66000009
   15.11305618  133.93899536    1.03999996    2.66000009
   15.11611176  128.44299316    1.03999996    2.66000009
   15.11944485  129.44400024    1.01999998    2.67000008
   15.12277794  126.12500000    1.00000000    2.66000009
   15.12583351  123.23600006    0.86000001    2.67000008
   15.12916660  124.43499756    0.86000001    2.67000008
   15.13249969  122.19499969    0.75000000    2.66000009
   15.13555527  128.31799316    0.75000000    2.67000008
   15.14166641  128.31799316    0.76999998    2.67000008
   15.14583302  129.67599487    0.70999998    2.67000008
   15.14638901  127.83399963    0.70999998    2.67000008
   15.14944458  133.09800720    0.63000000    2.66000009
   15.15277767  127.77999878    0.63000000    2.66000009
   15.15611076  123.57700348    0.63000000    2.66000009
   15.15916634  125.06800079    0.61000001    2.67000008
   15.16249943  123.29399872    0.55000001    2.67000008
   15.16583252  130.97700500    0.51999998    2.67000008
   15.16888905  122.59799957    0.50000000    2.67000008
   15.17222214  123.59999847    0.50000000    2.67000008
   15.17527771  122.49199677    0.51999998    2.66000009
   15.17861176  123.79000092    0.51999998    2.66000009
   15.17916679  133.71000671    0.51999998    2.66000009
   15.18444443  133.71000671    0.52999997    2.67000008
   15.18861103  128.43200684    0.51999998    2.67000008
   15.19194412  120.98500061    0.52999997    2.67000008
   15.19527817  122.11199951    0.58999997    2.67000008
   15.19833374  119.16600037    0.58999997    2.67000008
   15.20166683  128.88000488    0.58999997    2.67000008
   15.20499992  117.91600037    0.58999997    2.67000008
   15.20805550  115.46600342    0.58999997    2.67000008
   15.21138859  116.91699982    0.58999997    2.67000008
   15.21249962  123.36000061    0.58999997    2.67000008
   15.21500015  127.62500000    0.58999997    2.67000008
   15.21833324  114.86599731    0.58999997    2.67000008
   15.22138882  123.45700073    0.58999997    2.67000008
   15.22749996  123.45700073    0.75000000    2.67000008
   15.23166656  115.47499847    0.75000000    2.67000008
   15.23472214  121.80799866    0.70999998    2.67000008
   15.23805618  124.17099762    0.63000000    2.67000008
   15.24138927  108.54199982    0.58999997    2.69000006
   15.24444485  103.02200317    0.56999999    2.67000008
   15.24583340  116.29100037    0.56999999    2.67000008
   15.24805546  112.52100372    0.56999999    2.67000008
   15.25138855  113.72499847    0.56999999    2.67000008
   15.25444412  114.86499786    0.55000001    2.67000008
   15.25777817  120.04499817    0.55000001    2.67000008
   15.26083374  125.40599823    0.55000001    2.67000008
   15.26416683  109.13899994    0.55000001    2.67000008
   15.27027798  109.13899994    0.55000001    2.67000008
   15.27444458  118.43199921    0.55000001    2.67000008
   15.27750015  123.83200073    0.55000001    2.67000008
   15.27916622  118.77500153    0.52999997    2.67000008
   15.28111076  122.11499786    0.52999997    2.67000008
   15.28444481  127.36699677    0.55000001    2.67000008
   15.28750038  130.78999329    0.55000001    2.67000008
   15.29083347  124.33699799    0.52999997    2.67000008
   15.29388905  127.10600281    0.51999998    2.67000008
   15.29722309  122.58300018    0.51999998    2.67000008
   15.30055618  117.20800018    0.51999998    2.67000008
   15.30361176  125.05300140    0.51999998    2.67000008
   15.30694485  124.00499725    0.51999998    2.67000008
   15.32972240  118.00700378    0.50000000    2.67000008
   15.32999992  120.66999817    0.50000000    2.67000008
   15.33333302  119.76799774    0.50000000    2.67000008
   15.33666611  123.13200378    0.50000000    2.69000006
   15.33972168  119.83100128    0.50000000    2.67000008
   15.34305477  114.97699738    0.50000000    2.69000006
   15.34583282  119.51200104    0.50000000    2.69000006
   15.34666634  119.38500214    0.47999999    2.67000008
   15.35000038  112.97599792    0.47999999    2.69000006
   15.35611153  112.97599792    0.47999999    2.67000008
   15.36000061  118.76300049    0.47999999    2.67000008
   15.36333370  117.18900299    0.47999999    2.67000008
   15.36666679  117.59200287    0.47999999    2.67000008
   15.36972237  115.29499817    0.67000002    2.67000008
   15.37305546  119.55100250    0.67000002    2.67000008
   15.37638855  112.32499695    0.63000000    2.67000008
   15.37916660  114.17299652    0.56999999    2.67000008
   15.38000011  122.33699799    0.56999999    2.67000008
   15.38333321  105.58300018    0.52999997    2.69000006
   15.38638878  114.63600159    0.51999998    2.69000006
   15.38972187  126.61399841    0.51999998    2.67000008
   15.39277744  128.90199280    0.51999998    2.67000008
   15.39888859  128.90199280    0.50000000    2.67000008
   15.40305519  122.25199890    0.50000000    2.67000008
   15.40611076  126.36900330    0.50000000    2.69000006
   15.40944386  120.95500183    0.50000000    2.67000008
   15.41249943  111.23500061    0.51999998    2.69000006
   15.41305542  116.29299927    0.51999998    2.69000006
   15.41638851  122.40399933    0.50000000    2.69000006
   15.41972256  115.02899933    0.50000000    2.69000006
   15.42277813  112.82900238    0.50000000    2.67000008
   15.42611122  116.38200378    0.50000000    2.69000006
   15.42916679  111.23600006    0.50000000    2.69000006
   15.43249989  109.62200165    0.56999999    2.69000006
   15.43583298  105.61499786    0.76999998    2.67000008
   15.44166660  105.61499786    0.75000000    2.67000008
   15.44583321  101.41300201    0.70999998    2.67000008
   15.44638920  102.47499847    0.70999998    2.67000008
   15.44944477  111.87799835    0.61000001    2.67000008
   15.45277786  118.20600128    0.55000001    2.69000006
   15.45611095  109.81999969    0.55000001    2.67000008
   15.45916653  112.40899658    0.58999997    2.69000006
   15.46249962  118.82800293    0.56999999    2.69000006
   15.46555519  119.36599731    0.55000001    2.67000008
   15.46888828  119.27300262    0.52999997    2.67000008
   15.47222137  117.84200287    0.52999997    2.67000008
   15.47527695  108.44100189    0.52999997    2.69000006
   15.47861099  119.39900208    0.52999997    2.69000006
   15.47972202  119.19899750    0.52999997    2.69000006
   15.48444462  119.19899750    0.52999997    2.67000008
   15.48861122  113.70700073    0.52999997    2.67000008
   15.49194431  110.03800201    0.52999997    2.67000008
   15.49527836  115.21600342    0.56999999    2.69000006
   15.49833393  115.60500336    0.58999997    2.69000006
   15.50166702  110.15100098    0.58999997    2.69000006
   15.50500011  116.33899689    0.58999997    2.67000008
   15.50805569  109.29799652    0.58999997    2.67000008
   15.51138878  113.18900299    0.61000001    2.67000008
   15.51305580  108.38500214    0.58999997    2.69000006
   15.51472187  109.64700317    0.58999997    2.69000006
   15.51805496  116.27600098    0.64999998    2.69000006
   15.52138901  106.29399872    0.69000000    2.67000008
   15.52750015  106.29399872    0.75000000    2.67000008
   15.53138828  113.27799988    0.79000002    2.67000008
   15.53472233  120.75099945    0.79000002    2.69000006
   15.53805637  105.65899658    0.79000002    2.69000006
   15.54111195  110.85600281    0.73000002    2.67000008
   15.54444504  113.03900146    0.67000002    2.67000008
   15.54638958  110.12999725    0.64999998    2.67000008
   15.54833412  110.16200256    0.64999998    2.67000008
   15.55166721  113.22899628    0.61000001    2.67000008
   15.55472279  115.95500183    0.56999999    2.67000008
   15.55805588  112.59999847    0.55000001    2.69000006
   15.56111145  111.77700043    0.55000001    2.69000006
   15.56444454  111.09200287    0.52999997    2.69000006
   15.57027817  111.09200287    0.55000001    2.67000008
   15.57444477  109.17099762    0.55000001    2.69000006
   15.57750034  109.26699829    0.55000001    2.69000006
   15.57972240  114.16300201    0.55000001    2.67000008
   15.58138847  111.68699646    0.55000001    2.67000008
   15.58444405  111.76999664    0.55000001    2.69000006
   15.58777714  113.31500244    0.55000001    2.69000006
   15.59083271  112.36900330    0.55000001    2.69000006
   15.59416676  113.37899780    0.52999997    2.69000006
   15.59749985  105.79900360    0.52999997    2.69000006
   15.60055637  117.48400116    0.52999997    2.69000006
   15.60388947  111.61799622    0.52999997    2.69000006
   15.60722256  109.98000336    0.52999997    2.69000006
   15.61305618  109.98000336    0.52999997    2.69000006
   15.61722279  124.09600067    0.52999997    2.67000008
   15.62055588  117.75199890    0.52999997    2.69000006
   15.62361145  113.43000031    0.52999997    2.69000006
   15.62694454  110.60500336    0.51999998    2.69000006
   15.63000011  121.90599823    0.51999998    2.69000006
   15.63333321  119.30000305    0.51999998    2.69000006
   15.63666630  117.02700043    0.51999998    2.69000006
   15.63972187  117.17299652    0.51999998    2.69000006
   15.64305496  120.29599762    0.51999998    2.69000006
   15.64638901  106.01499939    0.51999998    2.69000006
   15.64666653  108.96299744    0.51999998    2.69000006
   15.64999962  115.02500153    0.51999998    2.69000006
   15.65583324  115.02500153    0.51999998    2.69000006
   15.65999985  101.92500305    0.51999998    2.69000006
   15.66333294  107.06400299    0.51999998    2.69000006
   15.66638851  106.56199646    0.51999998    2.69000006
   15.66972256  110.09899902    0.51999998    2.67000008
   15.67305565  110.47499847    0.51999998    2.67000008
   15.67611122  106.71700287    0.50000000    2.69000006
   15.67944431  104.55300140    0.50000000    2.69000006
   15.68000031  105.43599701    0.50000000    2.69000006
   15.68305588  103.01100159    0.51999998    2.69000006
   15.68638897  115.65299988    0.51999998    2.71000004
   15.68944454  110.36599731    0.51999998    2.69000006
   15.69277763  115.75499725    0.51999998    2.69000006
   15.69861126  115.75499725    0.50000000    2.69000006
   15.70277786  111.83000183    0.51999998    2.67000008
   15.70611095  107.35800171    0.51999998    2.69000006
   15.70944405  111.18699646    0.50000000    2.71000004
   15.71249962  118.37100220    0.50000000    2.69000006
   15.71333313  113.54599762    0.50000000    2.69000006
   15.71611118  115.78800201    0.51999998    2.69000006
   15.71944427  118.72699738    0.51999998    2.69000006
   15.72249985  118.10900116    0.51999998    2.69000006
   15.72583294  103.92700195    0.51999998    2.69000006
   15.72888851  112.78299713    0.51999998    2.67000008
   15.73222160  118.27600098    0.51999998    2.69000006
   15.73555565  108.14600372    0.52999997    2.69000006
   15.74166679  108.14600372    0.51999998    2.69000006
   15.74583340  117.69799805    0.52999997    2.69000006
   15.74666691  120.16500092    0.52999997    2.69000006
   15.74944496  109.41799927    0.51999998    2.71000004
   15.75277805  120.23500061    0.52999997    2.71000004
   15.75583363  123.01200104    0.52999997    2.71000004
   15.75916672  109.02799988    0.51999998    2.69000006
   15.76222229  115.28800201    0.51999998    2.69000006
   15.76555538  114.96900177    0.51999998    2.69000006
   15.76888847  111.18599701    0.51999998    2.69000006
   15.77194405  106.77100372    0.51999998    2.69000006
   15.77527714  112.63200378    0.51999998    2.69000006
   15.77861118  113.28099823    0.51999998    2.69000006
   15.77999973  110.41699982    0.51999998    2.69000006
   15.78444481  110.41699982    0.50000000    2.71000004
   15.78861141  119.79699707    0.50000000    2.69000006
   15.79194450  116.32099915    0.50000000    2.71000004
   15.79500008  119.88899994    0.50000000    2.69000006
   15.79833412  115.05300140    0.51999998    2.69000006
   15.80166721  114.45600128    0.51999998    2.69000006
   15.80472279  106.31600189    0.51999998    2.69000006
   15.80805588  107.98799896    0.51999998    2.69000006
   15.81111145  111.42400360    0.51999998    2.69000006
   15.81333351  108.68900299    0.51999998    2.69000006
   15.81472206  101.86299896    0.51999998    2.69000006
   15.81805515  105.55200195    0.51999998    2.71000004
   15.82111073  112.09500122    0.51999998    2.71000004
   15.82722187  112.09500122    0.51999998    2.69000006
   15.83138847  112.45899963    0.51999998    2.69000006
   15.83472157  106.85700226    0.51999998    2.69000006
   15.83777714  111.54499817    0.50000000    2.69000006
   15.84111118  109.80100250    0.50000000    2.69000006
   15.84444427  118.34200287    0.50000000    2.69000006
   15.84666634  112.72699738    0.47999999    2.69000006
   15.84805489  120.72699738    0.47999999    2.69000006
   15.85138893  110.90799713    0.47999999    2.69000006
   15.85444450  108.60299683    0.47999999    2.69000006
   15.85777855  120.00900269    0.47999999    2.69000006
   15.86111164  117.99099731    0.47999999    2.69000006
   15.86416721  127.73500061    0.47999999    2.69000006
   15.87027836  127.73500061    0.51999998    2.69000006
   15.87416649  131.01100159    0.50000000    2.69000006
   15.87750053  131.73199463    0.50000000    2.71000004
   15.88000011  131.66799927    0.47999999    2.69000006
   15.88111115  127.95300293    0.47999999    2.69000006
   15.88444424  131.61500549    0.47999999    2.69000006
   15.88749981  119.94599915    0.50000000    2.69000006
   15.89083290  123.54000092    0.55000001    2.71000004
   15.89416695  127.10500336    0.51999998    2.71000004
   15.89722252  110.69799805    0.51999998    2.69000006
   15.90055561  135.59599304    0.51999998    2.69000006
   15.90361118  116.88500214    0.50000000    2.71000004
   15.90694427  132.82499695    0.50000000    2.71000004
   15.91305542  132.82499695    0.47999999    2.69000006
   15.91722298  114.76100159    0.50000000    2.69000006
   15.92027855  112.36000061    0.50000000    2.71000004
   15.92361164  121.27500153    0.47999999    2.69000006
   15.92694473  119.77500153    0.47999999    2.69000006
   15.93000031  121.67900085    0.50000000    2.69000006
   15.93333340  116.38899994    0.50000000    2.71000004
   15.93666649  107.41799927    0.50000000    2.69000006
   15.93972206  115.99099731    0.47999999    2.69000006
   15.94305515  126.25900269    0.46000001    2.69000006
   15.94611073  104.60700226    0.46000001    2.69000006
   15.94805527  108.26000214    0.46000001    2.69000006
   15.94999981  119.18099976    0.46000001    2.69000006
   15.95583344  119.18099976    0.44000000    2.69000006
   15.96000004  124.35500336    0.46000001    2.69000006
   15.96333313  112.07700348    0.44000000    2.71000004
   15.96638870  121.79900360    0.44000000    2.69000006
   15.96972179  115.72599792    0.44000000    2.69000006
   15.97277737  122.76300049    0.41999999    2.69000006
   15.97611046  125.86399841    0.44000000    2.69000006
   15.97944355  127.08899689    0.44000000    2.69000006
   15.98138809  128.78999329    0.44000000    2.69000006
   15.98305511  127.93199921    0.44000000    2.69000006
   15.98611164  125.93499756    0.44000000    2.69000006
   15.98944473  115.85500336    0.46000001    2.69000006
   15.99250031  120.20400238    0.44000000    2.71000004
   15.99861145  120.20400238    0.46000001    2.69000006
   16.00277710  115.88600159    0.50000000    2.71000004
   16.00611115  128.13699341    0.47999999    2.69000006
   16.00944519  117.06800079    0.50000000    2.69000006
   16.01250076  128.26199341    0.50000000    2.69000006
   16.01499939  117.69300079    0.51999998    2.71000004
   16.01611137  116.30000305    0.51999998    2.71000004
   16.01944351  121.80699921    0.52999997    2.71000004
   16.02277756  122.92400360    0.51999998    2.69000006
   16.02583313  115.45099640    0.50000000    2.71000004
   16.02916718  125.63800049    0.50000000    2.71000004
   16.03222275  130.80799866    0.50000000    2.71000004
   16.03555489  114.36000061    0.56999999    2.69000006
   16.04166603  114.36000061    0.56999999    2.69000006
   16.04583359  127.95500183    0.55000001    2.69000006
   16.04833221  123.16899872    0.52999997    2.69000006
   16.04944420  122.36299896    0.52999997    2.69000006
   16.05277634  126.56900024    0.52999997    2.71000004
   16.05611038  128.02499390    0.52999997    2.71000004
   16.05916595  114.84200287    0.51999998    2.71000004
   16.06250000  119.03199768    0.56999999    2.71000004
   16.06555557  119.80500031    0.52999997    2.69000006
   16.06888962  113.54100037    0.52999997    2.69000006
   16.07222366  119.55699921    0.52999997    2.69000006
   16.07527924  104.87200165    0.51999998    2.69000006
   16.07861137  116.72299957    0.50000000    2.71000004
   16.08444595  116.72299957    0.44000000    2.69000006
   16.08861160  105.52300262    0.44000000    2.69000006
   16.09194565  112.45200348    0.44000000    2.69000006
   16.09500122  114.63400269    0.44000000    2.69000006
   16.09833336  109.70600128    0.44000000    2.69000006
   16.10166740  112.20600128    0.41999999    2.71000004
   16.10472298  116.20600128    0.41999999    2.69000006
   16.10805511  120.26100159    0.41999999    2.69000006
   16.11138916  113.23400116    0.41999999    2.71000004
   16.11444473  114.10099792    0.44000000    2.71000004
   16.11527824  117.50800323    0.44000000    2.71000004
   16.11805534  114.49099731    0.44000000    2.69000006
   16.12111092  111.65000153    0.44000000    2.69000006
   16.12722206  111.65000153    0.44000000    2.71000004
   16.13138962  119.37699890    0.46000001    2.71000004
   16.13444519  123.75700378    0.46000001    2.71000004
   16.13777733  125.26599884    0.44000000    2.69000006
   16.14111137  120.91000366    0.46000001    2.69000006
   16.14416695  120.41999817    0.46000001    2.69000006
   16.14749908  113.41600037    0.47999999    2.71000004
   16.14861107  124.55100250    0.47999999    2.71000004
   16.15111160  133.80299377    0.47999999    2.69000006
   16.15416718  130.66200256    0.50000000    2.71000004
   16.15749931  113.02600098    0.50000000    2.71000004
   16.16083336  125.69799805    0.52999997    2.69000006
   16.16388893  121.74500275    0.52999997    2.69000006
   16.17000008  121.74500275    0.50000000    2.71000004
   16.17416573  123.28299713    0.50000000    2.69000006
   16.17749977  122.78299713    0.47999999    2.69000006
   16.18055534  127.20400238    0.47999999    2.71000004
   16.18222237  123.82099915    0.47999999    2.71000004
   16.18444443  118.22399902    0.47999999    2.71000004
   16.18750000  126.65100098    0.46000001    2.69000006
   16.19083214  138.69000244    0.47999999    2.69000006
   16.19388771  125.58899689    0.46000001    2.71000004
   16.19722176  145.56599426    0.46000001    2.71000004
   16.20055580  126.66300201    0.46000001    2.69000006
   16.20361137  145.43800354    0.46000001    2.71000004
   16.20694542  120.50299835    0.46000001    2.71000004
   16.21305656  120.50299835    0.51999998    2.71000004
   16.21694565  120.47299957    0.51999998    2.69000006
   16.22027779  129.91000366    0.51999998    2.69000006
   16.22361183  126.96099854    0.51999998    2.71000004
   16.22666740  152.75799561    0.51999998    2.71000004
   16.23000145  148.57600403    0.50000000    2.71000004
   16.23333359  136.01800537    0.51999998    2.71000004
   16.23638916  149.03500366    0.51999998    2.69000006
   16.23972321  136.52299500    0.55000001    2.69000006
   16.24277878  132.04400635    0.52999997    2.71000004
   16.24611092  147.53599548    0.52999997    2.71000004
   16.24888992  116.89399719    0.52999997    2.71000004
   16.24972153  148.33500671    0.52999997    2.71000004
   16.25583267  148.33500671    0.55000001    2.71000004
   16.26000023  136.37199402    0.52999997    2.69000006
   16.26305580  143.30599976    0.50000000    2.69000006
   16.26638794  152.02600098    0.50000000    2.69000006
   16.26944351  158.13200378    0.51999998    2.71000004
   16.27277756  132.89799500    0.51999998    2.71000004
   16.27611160  144.12300110    0.52999997    2.69000006
   16.27916718  146.75100708    0.51999998    2.69000006
   16.28222275  143.03799438    0.51999998    2.69000006
   16.28277779  134.49299622    0.51999998    2.69000006
   16.28610992  140.90899658    0.50000000    2.69000006
   16.28944397  142.32299805    0.50000000    2.69000006
   16.29249954  128.15499878    0.50000000    2.69000006
   16.29861069  128.15499878    0.47999999    2.69000006
   16.30277634  135.32299805    0.50000000    2.69000006
   16.30611038  144.93299866    0.50000000    2.69000006
   16.30916595  147.17599487    0.50000000    2.69000006
   16.31250000  151.79600525    0.50000000    2.69000006
   16.31555557  142.58700562    0.50000000    2.71000004
   16.31583214  146.23399353    0.50000000    2.71000004
   16.31916809  144.84899902    0.47999999    2.69000006
   16.32250023  155.22799683    0.46000001    2.71000004
   16.32555580  151.23899841    0.46000001    2.71000004
   16.32888985  158.25999451    0.47999999    2.69000006
   16.35055542  158.25999451    0.47999999    2.69000006
   16.35472298  126.74900055    0.47999999    2.69000006
   16.35805511  138.47599792    0.47999999    2.69000006
   16.36138916  132.74699402    0.50000000    2.69000006
   16.36444473  140.20799255    0.50000000    2.71000004
   16.36777878  142.10000610    0.50000000    2.71000004
   16.37111092  132.20500183    0.50000000    2.71000004
   16.37416649  126.84300232    0.50000000    2.69000006
   16.37750053  117.10399628    0.50000000    2.69000006
   16.38083267  118.23600006    0.50000000    2.69000006
   16.38249969  133.13200378    0.50000000    2.69000006
   16.38416672  129.47700500    0.50000000    2.69000006
   16.38750076  123.76799774    0.47999999    2.71000004
   16.39333344  123.76799774    0.47999999    2.69000006
   16.39749908  125.73699951    0.47999999    2.69000006
   16.40055466  126.89299774    0.47999999    2.69000006
   16.40388870  123.36100006    0.47999999    2.69000006
   16.40722275  123.66999817    0.46000001    2.71000004
   16.41027832  120.88999939    0.47999999    2.71000004
   16.41361046  124.14499664    0.46000001    2.71000004
   16.41583252  120.11599731    0.46000001    2.71000004
   16.41749954  118.24299622    0.46000001    2.69000006
   16.42055511  122.64199829    0.46000001    2.71000004
   16.42388916  125.11499786    0.44000000    2.69000006
   16.42722130  118.55899811    0.44000000    2.71000004
   16.43027687  121.03299713    0.44000000    2.71000004
   16.43610954  121.03299713    0.46000001    2.71000004
   16.44027710  114.74400330    0.46000001    2.71000004
   16.44361115  115.79599762    0.46000001    2.71000004
   16.44666672  115.33000183    0.46000001    2.71000004
   16.44916534  122.94000244    0.46000001    2.71000004
   16.45027924  116.43800354    0.46000001    2.69000006
   16.45361137  104.48899841    0.44000000    2.69000006
   16.45666695  110.54799652    0.44000000    2.71000004
   16.46000099  134.75000000    0.44000000    2.69000006
   16.46333504  120.74700165    0.44000000    2.71000004
   16.46638870  135.59300232    0.44000000    2.71000004
   16.46972275  123.82099915    0.44000000    2.71000004
   16.47305679  111.12100220    0.44000000    2.69000006
   16.47888947  111.12100220    0.44000000    2.71000004
   16.48305511  110.94200134    0.44000000    2.71000004
   16.48638916  110.73200226    0.44000000    2.71000004
   16.48944473  127.90100098    0.44000000    2.69000006
   16.49277878  109.15899658    0.44000000    2.69000006
   16.49611092  107.69400024    0.44000000    2.71000004
   16.49916649  119.75499725    0.44000000    2.71000004
   16.50250053  112.55999756    0.44000000    2.71000004
   16.50583267  113.48999786    0.44000000    2.69000006
   16.50888824  109.30799866    0.44000000    2.69000006
   16.51222229  108.81099701    0.44000000    2.69000006
   16.51555634  114.59100342    0.44000000    2.69000006
   16.51583290  121.37100220    0.44000000    2.69000006
   16.52194405  121.37100220    0.44000000    2.69000006
   16.52611160  114.83899689    0.44000000    2.69000006
   16.52916718  122.16699982    0.44000000    2.69000006
   16.53249931  116.67700195    0.44000000    2.71000004
   16.53555489  117.15200043    0.44000000    2.71000004
   16.53888893   99.30010223    0.41999999    2.69000006
   16.54222107  120.05599976    0.41999999    2.71000004
   16.54527664  119.69400024    0.41999999    2.71000004
   16.54861069  106.97100067    0.44000000    2.71000004
   16.54916573  111.64900208    0.44000000    2.71000004
   16.55222130  109.64600372    0.41999999    2.69000006
   16.55555534  115.27100372    0.41999999    2.71000004
   16.55861092  115.25900269    0.41999999    2.71000004
   16.56472206  115.25900269    0.41999999    2.71000004
   16.56888962  113.17199707    0.41999999    2.69000006
   16.57194519  109.48100281    0.41999999    2.71000004
   16.57527924  117.33699799    0.41999999    2.71000004
   16.57861137  121.99800110    0.41999999    2.71000004
   16.58166695  117.64399719    0.41999999    2.71000004
   16.58250046  122.47599792    0.41999999    2.71000004
   16.58527756  122.59799957    0.47999999    2.71000004
   16.58861160  111.09700012    0.47999999    2.71000004
   16.59166718  120.97799683    0.47999999    2.71000004
   16.59500122  115.05400085    0.46000001    2.69000006
   16.59805679  117.36000061    0.46000001    2.69000006
   16.60138893  112.08399963    0.50000000    2.71000004
   16.60750008  112.08399963    0.47999999    2.69000006
   16.61166763  103.54000092    0.46000001    2.69000006
   16.61499977  112.79699707    0.46000001    2.71000004
   16.61583328  110.79699707    0.46000001    2.71000004
   16.61861038  116.10500336    0.46000001    2.71000004
   16.62194443  114.75599670    0.46000001    2.71000004
   16.62500000  111.52600098    0.46000001    2.71000004
   16.62833405  117.60199738    0.46000001    2.71000004
   16.63166618  120.08799744    0.46000001    2.69000006
   16.63472176  124.68599701    0.46000001    2.71000004
   16.63805580  116.58100128    0.46000001    2.71000004
   16.64111137  121.33899689    0.47999999    2.69000006
   16.64444351  115.75800323    0.50000000    2.69000006
   16.65027809  115.75800323    0.51999998    2.69000006
   16.65444374  114.64600372    0.52999997    2.69000006
   16.65777779  114.13200378    0.52999997    2.69000006
   16.66110992  107.74800110    0.51999998    2.69000006
   16.66416550  116.58300018    0.50000000    2.71000004
   16.66749954  112.09100342    0.51999998    2.69000006
   16.67083359  109.29699707    0.47999999    2.69000006
   16.67388916  110.91100311    0.50000000    2.71000004
   16.67722130  107.46199799    0.50000000    2.71000004
   16.68027687  117.01999664    0.47999999    2.69000006
   16.68249893  114.63999939    0.47999999    2.71000004
   16.68388748  112.36699677    0.47999999    2.71000004
   16.68722153  111.27500153    0.50000000    2.71000004
   16.69333267  111.27500153    0.51999998    2.69000006
   16.69749832  110.16100311    0.55000001    2.71000004
   16.70055580  113.61199951    0.52999997    2.69000006
   16.70388985  113.97899628    0.51999998    2.71000004
   16.70722389  110.71299744    0.51999998    2.71000004
   16.71055603  106.97000122    0.50000000    2.69000006
   16.71361160  116.67900085    0.50000000    2.69000006
   16.71583366  104.84600067    0.46000001    2.69000006
   16.71722221  107.08799744    0.46000001    2.69000006
   16.72055626  111.97499847    0.44000000    2.69000006
   16.72361183  112.87500000    0.44000000    2.71000004
   16.72694588  114.41600037    0.44000000    2.69000006
   16.73027802  110.96800232    0.44000000    2.71000004
   16.73611069  110.96800232    0.44000000    2.71000004
   16.74027824  110.84700012    0.44000000    2.69000006
   16.74333382  119.18800354    0.44000000    2.69000006
   16.74666786  113.48100281    0.44000000    2.71000004
   16.74916649  122.81199646    0.44000000    2.71000004
   16.75027847  107.74900055    0.44000000    2.71000004
   16.75361061  108.92600250    0.44000000    2.71000004
   16.75666618  120.70899963    0.44000000    2.71000004
   16.76000023  107.08999634    0.44000000    2.69000006
   16.76333427  117.49900055    0.44000000    2.69000006
   16.76638794  122.48699951    0.44000000    2.69000006
   16.76972198  117.93699646    0.46000001    2.69000006
   16.77277756  109.97299957    0.46000001    2.69000006
   16.77888870  109.97299957    0.46000001    2.69000006
   16.78305435  110.74299622    0.46000001    2.69000006
   16.78638840  112.18000031    0.46000001    2.69000006
   16.78944397  116.64199829    0.46000001    2.69000006
   16.79277802  110.56800079    0.46000001    2.69000006
   16.79611015  118.98699951    0.46000001    2.69000006
   16.79916573  109.53500366    0.46000001    2.69000006
   16.80249977  118.87899780    0.44000000    2.69000006
   16.80583191  108.23899841    0.44000000    2.69000006
   16.80888748  112.73799896    0.44000000    2.69000006
   16.81222153  110.82499695    0.44000000    2.71000004
   16.81527710  114.87899780    0.44000000    2.69000006
   16.81611061  112.92400360    0.44000000    2.69000006
   16.82194519  112.92400360    0.41999999    2.69000006
   16.82583427  112.73300171    0.44000000    2.71000004
   16.82916832  115.22399902    0.41999999    2.69000006
   16.83250046  107.00599670    0.41999999    2.71000004
   16.83555603  117.83899689    0.41999999    2.69000006
   16.83889008  110.87000275    0.41999999    2.69000006
   16.84194565  116.21099854    0.40000001    2.69000006
   16.84527779  106.38200378    0.40000001    2.71000004
   16.84861183  112.63600159    0.40000001    2.71000004
   16.84944534  114.50800323    0.40000001    2.71000004
   16.85194397  110.82499695    0.40000001    2.71000004
   16.85527802  116.78800201    0.40000001    2.71000004
   16.85833359  103.69400024    0.40000001    2.69000006
   16.86472321  103.69400024    0.40000001    2.69000006
   16.86888885  104.96900177    0.40000001    2.71000004
   16.87194443  119.52999878    0.41999999    2.69000006
   16.87527847  137.09800720    0.41999999    2.69000006
   16.87833405  135.78999329    0.41999999    2.69000006
   16.88166618  135.49000549    0.41999999    2.71000004
   16.88277817  135.99299622    0.41999999    2.71000004
   16.88527679  127.36100006    0.41999999    2.69000006
   16.88861084  139.16400146    0.41999999    2.71000004
   16.89166641  143.81900024    0.41999999    2.71000004
   16.89500046  130.64500427    0.41999999    2.71000004
   16.89833260  131.32099915    0.41999999    2.71000004
   16.90138817  138.37500000    0.41999999    2.69000006
   16.90749931  138.37500000    0.41999999    2.69000006
   16.91166687  140.98199463    0.41999999    2.69000006
   16.91472244  132.61999512    0.41999999    2.71000004
   16.91611099  125.30500031    0.41999999    2.71000004
   16.91833305  134.05299377    0.41999999    2.71000004
   16.92166519  133.75500488    0.41999999    2.71000004
   16.92472076  129.32000732    0.40000001    2.69000006
   16.92805481  124.97200012    0.41999999    2.71000004
   16.93138885  127.48300171    0.41999999    2.69000006
   16.93444443  128.89700317    0.41999999    2.69000006
   16.93777657  124.77100372    0.41999999    2.71000004
   16.94111061  122.03299713    0.41999999    2.69000006
   16.94416618  112.63500214    0.40000001    2.71000004
   16.95027924  112.63500214    0.40000001    2.69000006
   16.95444489  108.10299683    0.40000001    2.69000006
   16.95777893  109.49600220    0.40000001    2.71000004
   16.96083450  114.66999817    0.40000001    2.71000004
   16.96416664  119.35800171    0.40000001    2.69000006
   16.96750069  112.56600189    0.40000001    2.69000006
   16.97055626  108.08599854    0.40000001    2.71000004
   16.97389030  118.02300262    0.40000001    2.69000006
   16.97694588  112.80100250    0.40000001    2.69000006
   16.98027802  121.25399780    0.40000001    2.69000006
   16.98277855  112.02700043    0.40000001    2.71000004
   16.98388863  110.76799774    0.40000001    2.71000004
   16.98722267  108.22899628    0.40000001    2.69000006
   16.99333382  108.22899628    0.40000001    2.71000004
   16.99722290  105.10800171    0.40000001    2.71000004
   17.00055504  117.40499878    0.40000001    2.71000004
   17.00388908  106.00599670    0.40000001    2.69000006
   17.00694466  110.48000336    0.41999999    2.71000004
   17.01027870  106.42199707    0.40000001    2.69000006
   17.01361084  113.35700226    0.40000001    2.69000006
   17.01611137  111.80400085    0.40000001    2.69000006
   17.01694489  113.00099945    0.40000001    2.69000006
   17.02027702  114.74299622    0.40000001    2.69000006
   17.02333260  112.73899841    0.41999999    2.71000004
   17.02666664  117.66000366    0.41999999    2.69000006
   17.03000069  109.68199921    0.41999999    2.71000004
   17.03610992  109.68199921    0.41999999    2.69000006
   17.04027748  116.97100067    0.41999999    2.69000006
   17.04333305  112.41699982    0.41999999    2.69000006
   17.04666710  110.95999908    0.41999999    2.69000006
   17.04944420  110.85099792    0.40000001    2.69000006
   17.05027771  115.57399750    0.40000001    2.69000006
   17.05360985  107.53099823    0.40000001    2.69000006
   17.05694389  110.67400360    0.41999999    2.71000004
   17.05999947  114.68800354    0.41999999    2.69000006
   17.06333351  118.00499725    0.41999999    2.69000006
   17.06638718  110.79199982    0.40000001    2.71000004
   17.06972313  116.84999847    0.41999999    2.71000004
   17.07305717  117.14199829    0.41999999    2.69000006
   17.07888985  117.14199829    0.41999999    2.69000006
   17.08305550  112.26399994    0.40000001    2.71000004
   17.08611107  121.86599731    0.40000001    2.71000004
   17.08944511  112.31900024    0.41999999    2.71000004
   17.09277916  109.63200378    0.41999999    2.71000004
   17.09611130  117.94200134    0.41999999    2.69000006
   17.09916687  115.12400055    0.41999999    2.71000004
   17.10250092  117.13200378    0.41999999    2.69000006
   17.10583305  113.93499756    0.41999999    2.69000006
   17.10888863  115.67400360    0.41999999    2.71000004
   17.11222267  121.35700226    0.41999999    2.71000004
   17.11555672  111.74700165    0.41999999    2.69000006
   17.11611176  109.12000275    0.41999999    2.69000006
   17.12166595  109.12000275    0.47999999    2.69000006
   17.12583351  117.92700195    0.52999997    2.69000006
   17.12916756  115.90399933    0.61000001    2.69000006
   17.13222313  109.70600128    0.61000001    2.69000006
   17.13555527  113.44000244    0.55000001    2.69000006
   17.13888931  104.92800140    0.58999997    2.71000004
   17.14194489  108.82099915    0.56999999    2.71000004
   17.14527702  112.83699799    0.56999999    2.69000006
   17.14861107  113.28900146    0.58999997    2.69000006
   17.14944458  103.35600281    0.58999997    2.69000006
   17.15194321  107.57700348    0.58999997    2.69000006
   17.15527725  108.37899780    0.55000001    2.69000006
   17.15861130  109.69100189    0.55000001    2.69000006
   17.16444397  109.69100189    0.50000000    2.71000004
   17.16860962  105.03099823    0.47999999    2.69000006
   17.17194366  105.85099792    0.47999999    2.69000006
   17.17527771  116.29000092    0.46000001    2.71000004
   17.17833328  107.14800262    0.46000001    2.69000006
   17.18166542  110.22699738    0.44000000    2.69000006
   17.18277740  107.90499878    0.44000000    2.69000006
   17.18499947  109.08200073    0.46000001    2.69000006
   17.18833160  111.28600311    0.46000001    2.69000006
   17.19166565  108.30100250    0.64999998    2.69000006
   17.19472122  109.68199921    0.69000000    2.69000006
   17.19805527  106.87500000    0.73000002    2.69000006
   17.20138931  105.26899719    0.69000000    2.69000006
   17.20750046  105.26899719    0.58999997    2.69000006
   17.21166801  119.82099915    0.52999997    2.69000006
   17.21472359  113.12000275    0.52999997    2.69000006
   17.21611214  102.54799652    0.44000000    2.69000006
   17.21833420  107.10600281    0.40000001    2.69000006
   17.22166634  107.68299866    0.40000001    2.69000006
   17.22500038  101.88899994    0.38000000    2.71000004
   17.22805595  109.88700104    0.38000000    2.69000006
   17.23139000  110.81500244    0.36000001    2.69000006
   17.23444557  105.80699921    0.36000001    2.71000004
   17.23777771  116.54599762    0.38000000    2.69000006
   17.24111176  107.81199646    0.38000000    2.69000006
   17.24416733  113.84300232    0.38000000    2.69000006
   17.25027847  113.84300232    0.40000001    2.69000006
   17.25444412  101.42800140    0.40000001    2.69000006
   17.25749969  104.59899902    0.40000001    2.69000006
   17.26083374  110.65000153    0.40000001    2.69000006
   17.26416588  117.37699890    0.40000001    2.69000006
   17.26722145  120.09300232    0.40000001    2.71000004
   17.27055550  121.41300201    0.40000001    2.71000004
   17.27388954  117.21399689    0.40000001    2.71000004
   17.27694511  118.53199768    0.40000001    2.69000006
   17.28027725  110.84300232    0.40000001    2.69000006
   17.28277779  108.27799988    0.40000001    2.69000006
   17.28361130  123.75099945    0.41999999    2.69000006
   17.28694344  104.88899994    0.41999999    2.69000006
   17.29305458  104.88899994    0.41999999    2.69000006
   17.29722214  117.22799683    0.41999999    2.69000006
   17.30055428  111.80799866    0.41999999    2.69000006
   17.30360985  118.35299683    0.41999999    2.69000006
   17.30694389  111.48100281    0.41999999    2.69000006
   17.30999947  114.40200043    0.44000000    2.69000006
   17.31333351  113.43000031    0.41999999    2.69000006
   17.31611061  109.03399658    0.41999999    2.69000006
   17.31694603  102.05000305    0.41999999    2.69000006
   17.32027817  106.40699768    0.41999999    2.69000006
   17.32361221  106.70500183    0.44000000    2.69000006
   17.32666779  106.09200287    0.41999999    2.69000006
   17.33000183  117.33399963    0.41999999    2.69000006
   17.33583450  117.33399963    0.41999999    2.69000006
   17.34000015  110.97799683    0.41999999    2.69000006
   17.34333420  109.98200226    0.40000001    2.69000006
   17.34638977  114.51300049    0.41999999    2.69000006
   17.36388969  111.84999847    0.44000000    2.69000006
   17.36638832  105.71499634    0.44000000    2.69000006
   17.36972237  112.42400360    0.41999999    2.69000006
   17.37277794  108.81099701    0.41999999    2.71000004
   17.37888908  108.81099701    0.44000000    2.69000006
   17.38305473  100.98600006    0.44000000    2.69000006
   17.38638878  109.92900085    0.44000000    2.69000006
   17.38944435  105.36799622    0.44000000    2.69000006
   17.39277840  108.94599915    0.46000001    2.69000006
   17.39583397  105.50499725    0.44000000    2.69000006
   17.39722252  106.51399994    0.44000000    2.69000006
   17.39944458  106.67500305    0.44000000    2.69000006
   17.40277672  112.86199951    0.44000000    2.67000008
   17.40611076  107.62500000    0.44000000    2.69000006
   17.40916634  113.18900299    0.44000000    2.69000006
   17.41250038  106.08799744    0.44000000    2.69000006
   17.41583252  112.96900177    0.46000001    2.69000006
   17.42194366  112.96900177    0.44000000    2.69000006
   17.42583275  109.41600037    0.44000000    2.69000006
   17.42916679  113.17900085    0.44000000    2.69000006
   17.43083191  102.77999878    0.44000000    2.69000006
   17.43277740  106.56400299    0.44000000    2.69000006
   17.43610954  102.10900116    0.44000000    2.69000006
   17.43916512  103.35800171    0.44000000    2.69000006
   17.44249916  107.72799683    0.44000000    2.69000006
   17.44583321  108.58799744    0.44000000    2.69000006
   17.44888878   95.04750061    0.41999999    2.69000006
   17.45222282  107.21199799    0.44000000    2.69000006
   17.45555687  106.65799713    0.41999999    2.69000006
   17.45861244  110.29199982    0.41999999    2.69000006
   17.46472359  110.29199982    0.44000000    2.69000006
   17.46861076  102.59100342    0.44000000    2.69000006
   17.47194481  108.61499786    0.44000000    2.69000006
   17.47527885  108.74900055    0.44000000    2.69000006
   17.47833443  104.08100128    0.41999999    2.69000006
   17.48166656  107.24299622    0.41999999    2.69000006
   17.48500061  106.49700165    0.41999999    2.69000006
   17.48805618  107.69499969    0.41999999    2.69000006
   17.49138832  108.19799805    0.41999999    2.69000006
   17.49444389  107.56199646    0.41999999    2.69000006
   17.49749947  107.71900177    0.41999999    2.69000006
   17.49805641  108.06700134    0.41999999    2.69000006
   17.50138855  109.89900208    0.41999999    2.69000006
   17.50749969  109.89900208    0.41999999    2.69000006
   17.51166725  110.61699677    0.41999999    2.69000006
   17.51472282  111.32700348    0.40000001    2.71000004
   17.51805496  110.05899811    0.40000001    2.69000006
   17.52138901  110.32199860    0.40000001    2.69000006
   17.52444458  111.67400360    0.40000001    2.69000006
   17.52777672  121.41200256    0.40000001    2.69000006
   17.53083229  114.52100372    0.40000001    2.69000006
   17.53138924  114.53500366    0.40000001    2.69000006
   17.53472137  117.02300262    0.40000001    2.69000006
   17.53777695  120.18599701    0.40000001    2.69000006
   17.54111099  122.21499634    0.40000001    2.71000004
   17.54444313  119.02799988    0.38000000    2.69000006
   17.55027771  119.02799988    0.40000001    2.69000006
   17.55444336  127.58799744    0.41999999    2.69000006
   17.55777740  123.54199982    0.41999999    2.69000006
   17.56083298  127.86900330    0.41999999    2.69000006
   17.56416512  117.54100037    0.41999999    2.69000006
   17.56444359  124.13899994    0.41999999    2.69000006
   17.56777954  134.10800171    0.44000000    2.69000006
   17.57111168  122.33799744    0.41999999    2.67000008
   17.57444572  114.47000122    0.44000000    2.67000008
   17.57750130  108.48500061    0.44000000    2.67000008
   17.58083344  116.83499908    0.44000000    2.67000008
   17.58416748  122.39099884    0.44000000    2.69000006
   17.58722305  117.45300293    0.44000000    2.69000006
   17.59305573  117.45300293    0.44000000    2.69000006
   17.59722328  114.74400330    0.41999999    2.69000006
   17.59777832  115.58100128    0.41999999    2.69000006
   17.60111237  115.90000153    0.44000000    2.69000006
   17.60416794  120.07900238    0.41999999    2.67000008
   17.60750008  112.61799622    0.44000000    2.69000006
   17.61055565  117.29399872    0.44000000    2.69000006
   17.61388969  115.08000183    0.44000000    2.69000006
   17.61722183  113.52700043    0.46000001    2.67000008
   17.62027740  114.74700165    0.46000001    2.67000008
   17.62361145  125.82599640    0.47999999    2.67000008
   17.62694550  132.69500732    0.47999999    2.69000006
   17.63000107  132.60400391    0.47999999    2.67000008
   17.63111115  154.79299927    0.47999999    2.67000008
   17.63611031  154.79299927    0.50000000    2.67000008
   17.63999939  197.46400452    0.50000000    2.67000008
   17.64333344  204.37899780    0.50000000    2.67000008
   17.64666748  177.60899353    0.50000000    2.67000008
   17.64972115  201.92300415    0.50000000    2.67000008
   17.65305519  216.30299377    0.50000000    2.69000006
   17.65638924  247.87100220    0.50000000    2.67000008
   17.65944481  239.73500061    0.50000000    2.67000008
   17.66277695  249.67199707    0.50000000    2.67000008
   17.66444397  292.22299194    0.50000000    2.67000008
   17.66638756  307.43798828    0.50000000    2.67000008
   17.66944313  299.89401245    0.50000000    2.67000008
   17.67277718  325.47100830    0.50000000    2.67000008
   17.67888832  325.47100830    0.50000000    2.67000008
   17.68305397  259.40301514    0.50000000    2.67000008
   17.68610954  295.54400635    0.50000000    2.67000008
   17.68944359  346.43099976    0.47999999    2.67000008
   17.69277763  379.74499512    0.47999999    2.67000008
   17.69583321  328.84500122    0.47999999    2.67000008
   17.69777679  370.64898682    0.47999999    2.67000008
   17.69972038  359.22500610    0.47999999    2.67000008
   17.70277786  316.12399292    0.47999999    2.67000008
   17.70611191  346.20700073    0.47999999    2.67000008
   17.70944595  363.59600830    0.47999999    2.67000008
   17.71250153  350.30300903    0.46000001    2.67000008
   17.71583366  382.49899292    0.46000001    2.69000006
   17.72166634  382.49899292    0.46000001    2.67000008
   17.72583389  342.64401245    0.46000001    2.69000006
   17.72916794  344.65399170    0.46000001    2.67000008
   17.73111153  308.13101196    0.46000001    2.67000008
   17.73277855  327.14099121    0.46000001    2.67000008
   17.73583412  327.41799927    0.46000001    2.69000006
   17.73944473  343.97799683    0.46000001    2.69000006
   17.74250031  369.54299927    0.46000001    2.67000008
   17.74583435  357.27999878    0.44000000    2.67000008
   17.74916649  347.85198975    0.44000000    2.67000008
   17.75222206  330.83999634    0.46000001    2.67000008
   17.75555611  309.60699463    0.46000001    2.67000008
   17.75888824  351.03201294    0.47999999    2.67000008
   17.76444435  351.03201294    0.46000001    2.67000008
   17.76861000  312.79400635    0.46000001    2.67000008
   17.77194405  332.48400879    0.46000001    2.67000008
   17.77499962  275.40399170    0.46000001    2.67000008
   17.77833366  307.30499268    0.46000001    2.67000008
   17.78166580  303.35000610    0.46000001    2.67000008
   17.78472137  287.91598511    0.46000001    2.69000006
   17.78805542  282.97698975    0.46000001    2.67000008
   17.79138756  304.59399414    0.46000001    2.67000008
   17.79444313  312.47198486    0.46000001    2.67000008
   17.79777718  267.26699829    0.47999999    2.67000008
   17.79833221  304.83401489    0.47999999    2.67000008
   17.80138779  307.41000366    0.47999999    2.67000008
   17.80749893  307.41000366    0.47999999    2.69000006
   17.81138802  285.18099976    0.47999999    2.69000006
   17.81472206  271.55499268    0.47999999    2.67000008
   17.81805611  264.54598999    0.47999999    2.67000008
   17.82111168  289.13900757    0.47999999    2.67000008
   17.82444572  278.46398926    0.47999999    2.67000008
   17.82777786  287.57299805    0.47999999    2.67000008
   17.83083344  283.17300415    0.50000000    2.66000009
   17.83166695  264.72900391    0.50000000    2.66000009
   17.83444595  268.85400391    0.50000000    2.66000009
   17.83777809  273.84399414    0.50000000    2.67000008
   17.84111214  278.72799683    0.47999999    2.67000008
   17.84416771  230.54800415    0.50000000    2.67000008
   17.85027885  230.54800415    0.47999999    2.67000008
   17.85444450  227.37800598    0.50000000    2.67000008
   17.85750008  236.61199951    0.50000000    2.67000008
   17.86083412  256.56201172    0.50000000    2.67000008
   17.86416626  246.40699768    0.50000000    2.67000008
   17.86499977  307.92898560    0.50000000    2.67000008
   17.86750031  267.67001343    0.50000000    2.66000009
   17.87083435  216.06199646    0.50000000    2.67000008
   17.87416649  272.26199341    0.50000000    2.67000008
   17.87722206  277.37899780    0.50000000    2.67000008
   17.88055611  272.07998657    0.50000000    2.67000008
   17.88361168  222.26100159    0.50000000    2.67000008
   17.88694382  235.47500610    0.50000000    2.67000008
   17.89305496  235.47500610    0.50000000    2.67000008
   17.89722252  235.72599792    0.50000000    2.67000008
   17.89833260  232.90199280    0.50000000    2.67000008
   17.90083313  244.16700745    0.50000000    2.67000008
   17.90416718  236.94099426    0.50000000    2.67000008
   17.90749931  236.12100220    0.50000000    2.67000008
   17.91055489  263.09100342    0.50000000    2.67000008
   17.91388893  243.41600037    0.47999999    2.67000008
   17.91722107  254.16299438    0.47999999    2.67000008
   17.92027664  235.83999634    0.47999999    2.67000008
   17.92361069  253.05099487    0.47999999    2.67000008
   17.92666626  241.55499268    0.47999999    2.67000008
   17.93000031  263.81201172    0.46000001    2.67000008
   17.93166542  242.52499390    0.47999999    2.67000008
   17.93583298  242.52499390    0.46000001    2.67000008
   17.93999863  260.81298828    0.47999999    2.67000008
   17.94333267  262.74398804    0.47999999    2.67000008
   17.94666672  274.42498779    0.47999999    2.67000008
   17.94972038  265.51599121    0.50000000    2.67000008
   17.95305634  242.01899719    0.50000000    2.67000008
   17.95639038  246.36700439    0.50000000    2.67000008
   17.95944595  235.10000610    0.50000000    2.67000008
   17.96277809  246.54800415    0.47999999    2.67000008
   17.96500015  258.23699951    0.47999999    2.67000008
   17.96611214  253.03999329    0.47999999    2.67000008
   17.96944427  249.57800293    0.47999999    2.66000009
   17.97277832  234.52900696    0.47999999    2.67000008
   17.97888947  234.52900696    0.47999999    2.67000008
   17.98305511  303.95300293    0.47999999    2.67000008
   17.98611069  284.76800537    0.47999999    2.66000009
   17.98944473  261.89001465    0.50000000    2.67000008
   17.99250031  294.50601196    0.50000000    2.67000008
   17.99583435  258.56100464    0.50000000    2.67000008
   17.99833298  283.50399780    0.50000000    2.67000008
   17.99944496  306.92098999    0.50000000    2.67000008
   18.00277710  297.15798950    0.50000000    2.67000008
   18.00611115  284.63699341    0.50000000    2.67000008
   18.00916672  279.80599976    0.50000000    2.67000008
   18.01250076  260.78500366    0.50000000    2.67000008
   18.01583290  253.69900513    0.50000000    2.66000009
   18.02166557  253.69900513    0.51999998    2.67000008
   18.02583313  282.53799438    0.51999998    2.66000009
   18.02888870  300.44799805    0.51999998    2.66000009
   18.03166580  277.13400269    0.51999998    2.66000009
   18.03249931  286.63101196    0.51999998    2.66000009
   18.03583336  275.62600708    0.52999997    2.67000008
   18.03916550  289.07199097    0.55000001    2.66000009
   18.04222107  291.23400879    0.55000001    2.66000009
   18.04555511  287.81201172    0.55000001    2.66000009
   18.04861069  289.21600342    0.55000001    2.66000009
   18.05194283  286.37899780    0.55000001    2.66000009
   18.05527687  264.35900879    0.55000001    2.66000009
   18.05833244  250.33900452    0.56999999    2.66000009
   18.06444359  250.33900452    0.56999999    2.66000009
   18.06861115  247.29899597    0.56999999    2.66000009
   18.07194519  286.10400391    0.56999999    2.66000009
   18.07500076  269.62399292    0.58999997    2.66000009
   18.07833481  281.40200806    0.61000001    2.66000009
   18.08139038  271.04699707    0.67000002    2.66000009
   18.08472252  265.75799561    0.67000002    2.66000009
   18.08805656  288.48901367    0.70999998    2.66000009
   18.09111214  285.02700806    0.67000002    2.66000009
   18.09444427  263.49301147    0.67000002    2.66000009
   18.09777832  272.64801025    0.64999998    2.66000009
   18.09944534  268.08300781    0.64999998    2.66000009
   18.10138893  271.15301514    0.64999998    2.66000009
   18.10750008  271.15301514    0.69000000    2.66000009
   18.11166763  282.70098877    0.67000002    2.66000009
   18.11472321  266.06298828    0.67000002    2.66000009
   18.11805534  271.76699829    0.81999999    2.66000009
   18.12138939  236.14799500    0.83999997    2.66000009
   18.12444496  258.82299805    0.83999997    2.66000009
   18.12777710  264.58099365    0.76999998    2.66000009
   18.13111115  249.98300171    0.63000000    2.67000008
   18.13277817  249.91999817    0.63000000    2.67000008
   18.13472176  266.96099854    0.64999998    2.66000009
   18.13777733  255.60899353    0.64999998    2.66000009
   18.14111137  263.44000244    0.61000001    2.66000009
   18.14444351  250.44099426    0.58999997    2.66000009
   18.15027809  250.44099426    0.56999999    2.66000009
   18.15416718  264.45800781    0.56999999    2.66000009
   18.15749931  270.02999878    0.56999999    2.66000009
   18.16083336  264.70700073    0.56999999    2.66000009
   18.16388893  254.08999634    0.55000001    2.66000009
   18.16638756  254.33999634    0.55000001    2.66000009
   18.16749954  264.55801392    0.55000001    2.66000009
   18.17083359  266.59799194    0.56999999    2.64000010
   18.17416573  267.09399414    0.56999999    2.66000009
   18.17722130  252.75900269    0.55000001    2.64000010
   18.18055534  264.20999146    0.55000001    2.66000009
   18.18388748  249.08900452    0.55000001    2.66000009
   18.18694305  266.74301147    0.55000001    2.66000009
   18.19305420  266.74301147    0.55000001    2.66000009
   18.19722176  272.69100952    0.55000001    2.66000009
   18.19972038  278.14898682    0.52999997    2.66000009
   18.20055580  274.12701416    0.52999997    2.66000009
   18.20388985  276.01199341    0.52999997    2.66000009
   18.20722389  271.36999512    0.55000001    2.66000009
   18.21027946  278.35101318    0.55000001    2.66000009
   18.21361160  268.09399414    0.52999997    2.66000009
   18.21694565  279.79299927    0.52999997    2.66000009
   18.22000122  258.14199829    0.52999997    2.67000008
   18.22333336  262.48699951    0.52999997    2.66000009
   18.22666740  271.54501343    0.55000001    2.66000009
   18.22972298  262.97799683    0.55000001    2.66000009
   18.23583412  262.97799683    0.55000001    2.66000009
   18.23999977  248.70700073    0.55000001    2.64000010
   18.24333382  263.83599854    0.52999997    2.66000009
   18.24638939  268.75900269    0.55000001    2.64000010
   18.24972153  238.58799744    0.61000001    2.66000009
   18.25305557  255.08500671    0.63000000    2.64000010
   18.25638962  253.07899475    0.56999999    2.64000010
   18.25972176  247.11399841    0.56999999    2.64000010
   18.26277733  258.44699097    0.55000001    2.66000009
   18.26611137  265.41400146    0.52999997    2.66000009
   18.26666641  248.74299622    0.52999997    2.66000009
   18.26972198  256.82998657    0.52999997    2.66000009
   18.27305603  263.32598877    0.52999997    2.66000009
   18.27861023  263.32598877    0.52999997    2.66000009
   18.28277779  259.24700928    0.52999997    2.67000008
   18.28610992  253.91900635    0.51999998    2.64000010
   18.28916550  264.20098877    0.52999997    2.64000010
   18.29249954  258.56799316    0.51999998    2.66000009
   18.29583359  262.05700684    0.51999998    2.66000009
   18.29888916  259.46301270    0.52999997    2.66000009
   18.29999924  259.96099854    0.52999997    2.66000009
   18.30249977  244.11000061    0.52999997    2.66000009
   18.30583191  230.44500732    0.52999997    2.66000009
   18.30888748  235.34300232    0.51999998    2.66000009
   18.31222153  232.38999939    0.51999998    2.66000009
   18.31527710  256.39401245    0.52999997    2.64000010
   18.32166672  256.39401245    0.51999998    2.64000010
   18.32555580  246.63299561    0.51999998    2.64000010
   18.32888985  251.00599670    0.51999998    2.66000009
   18.33222389  243.79600525    0.51999998    2.66000009
   18.33361244  246.81900024    0.51999998    2.66000009
   18.33583450  249.13900757    0.51999998    2.66000009
   18.33916664  236.70399475    0.51999998    2.66000009
   18.34222221  221.13200378    0.52999997    2.66000009
   18.34555626  230.75500488    0.51999998    2.64000010
   18.34861183  232.33700562    0.52999997    2.66000009
   18.35194397  232.44999695    0.52999997    2.66000009
   18.35527802  229.60899353    0.52999997    2.66000009
   18.35833359  240.46600342    0.52999997    2.64000010
   18.36444473  240.46600342    0.52999997    2.64000010
   18.38277817  241.45100403    0.52999997    2.64000010
   18.38611031  214.96800232    0.52999997    2.64000010
   18.38916588  231.06799316    0.52999997    2.66000009
   18.39249992  224.45399475    0.52999997    2.64000010
   18.39555550  238.21699524    0.52999997    2.64000010
   18.39888954  225.94999695    0.51999998    2.66000009
   18.40222168  231.68499756    0.51999998    2.64000010
   18.40749931  231.68499756    0.51999998    2.64000010
   18.41166687  225.40699768    0.51999998    2.64000010
   18.41472244  233.83700562    0.52999997    2.64000010
   18.41583252  234.85299683    0.52999997    2.64000010
   18.41860962  225.39799500    0.51999998    2.66000009
   18.42166519  229.74800110    0.52999997    2.66000009
   18.42499924  232.92999268    0.51999998    2.64000010
   18.42833328  221.12100220    0.51999998    2.66000009
   18.43138885  234.95500183    0.51999998    2.64000010
   18.43472099  219.04299927    0.51999998    2.66000009
   18.43805504  222.69500732    0.51999998    2.66000009
   18.44111061  229.83000183    0.51999998    2.64000010
   18.44444275  230.81300354    0.51999998    2.64000010
   18.45027924  230.81300354    0.51999998    2.64000010
   18.45444489  206.92300415    0.51999998    2.64000010
   18.45777893  199.48399353    0.50000000    2.64000010
   18.46083450  213.83099365    0.50000000    2.64000010
   18.46416664  188.79200745    0.51999998    2.64000010
   18.46722221  200.71899414    0.51999998    2.66000009
   18.47055626  208.42199707    0.50000000    2.66000009
   18.47389030  200.60899353    0.50000000    2.64000010
   18.47694588  208.75000000    0.50000000    2.64000010
   18.48027802  196.91400146    0.51999998    2.66000009
   18.48250008  209.63400269    0.51999998    2.66000009
   18.48361206  213.32499695    0.50000000    2.64000010
   18.48694420  220.69799805    0.50000000    2.64000010
   18.49305534  220.69799805    0.50000000    2.66000009
   18.49722290  201.42300415    0.51999998    2.64000010
   18.50055504  194.60400391    0.50000000    2.64000010
   18.50361061  195.94099426    0.51999998    2.64000010
   18.50694466  196.42500305    0.50000000    2.64000010
   18.51027870  192.87399292    0.50000000    2.64000010
   18.51333427  200.27499390    0.51999998    2.64000010
   18.51583290  193.52600098    0.51999998    2.64000010
   18.51722145  210.15800476    0.51999998    2.64000010
   18.52027702  203.07099915    0.51999998    2.64000010
   18.52361107  206.08399963    0.52999997    2.66000009
   18.52666664  193.66000366    0.52999997    2.66000009
   18.53000069  202.99699402    0.51999998    2.64000010
   18.53610992  202.99699402    0.52999997    2.64000010
   18.53999901  197.09899902    0.56999999    2.64000010
   18.54333305  186.31399536    0.56999999    2.64000010
   18.54666710  194.72300720    0.69000000    2.64000010
   18.54916573  199.04499817    0.70999998    2.64000010
   18.54999924  181.90299988    0.70999998    2.64000010
   18.55333328  194.22300720    0.64999998    2.61999989
   18.55666542  178.09199524    0.61000001    2.64000010
   18.55972099  195.64300537    0.61000001    2.64000010
   18.56305504  193.36199951    0.56999999    2.64000010
   18.56638718  194.28500366    0.56999999    2.64000010
   18.56944466  191.44900513    0.56999999    2.64000010
   18.57277870  201.73399353    0.55000001    2.64000010
   18.57888985  201.73399353    0.55000001    2.64000010
   18.58305550  188.67700195    0.55000001    2.64000010
   18.58611107  179.90800476    0.56999999    2.64000010
   18.58944511  188.89100647    0.56999999    2.61999989
   18.59277916  188.20500183    0.55000001    2.64000010
   18.59583473  180.00199890    0.55000001    2.64000010
   18.59916687  174.75199890    0.55000001    2.64000010
   18.60222244  186.45500183    0.52999997    2.64000010
   18.60555649  185.49200439    0.55000001    2.61999989
   18.60888863  195.07299805    0.52999997    2.64000010
   18.61194420  184.60899353    0.52999997    2.64000010
   18.61527824  173.43499756    0.52999997    2.61999989
   18.61583328  174.97900391    0.52999997    2.61999989
   18.62166595  174.97900391    0.52999997    2.64000010
   18.62583351  176.66200256    0.55000001    2.64000010
   18.62916756  170.47399902    0.55000001    2.64000010
   18.63222313  172.94599915    0.55000001    2.64000010
   18.63555527  183.68899536    0.55000001    2.61999989
   18.63861084  188.44999695    0.56999999    2.64000010
   18.64194489  173.94700623    0.56999999    2.64000010
   18.64527702  179.85499573    0.56999999    2.64000010
   18.64833260  166.45799255    0.56999999    2.64000010
   18.64916611  181.96699524    0.56999999    2.64000010
   18.65194321  178.59700012    0.58999997    2.61999989
   18.65527725  171.88800049    0.64999998    2.64000010
   18.65833282  172.91200256    0.69000000    2.64000010
   18.66444397  172.91200256    0.69000000    2.64000010
   18.66860962  177.45799255    0.64999998    2.61999989
   18.67194366  170.82200623    0.63000000    2.64000010
   18.67499924  172.77900696    0.61000001    2.61999989
   18.67833328  167.92999268    0.58999997    2.61999989
   18.68166542  172.97399902    0.58999997    2.61999989
   18.68249893  168.90199280    0.56999999    2.61999989
   18.68527603  178.41999817    0.56999999    2.61999989
   18.68833160  183.08599854    0.58999997    2.64000010
   18.69166565  161.12399292    0.58999997    2.64000010
   18.69499969  171.78100586    0.61000001    2.64000010
   18.69805527  164.46099854    0.56999999    2.61999989
   18.70138931  168.58099365    0.56999999    2.61999989
   18.70750046  168.58099365    0.58999997    2.61999989
   18.71138954  157.99600220    0.58999997    2.61999989
   18.71472359  168.91099548    0.58999997    2.61999989
   18.71583366  168.91400146    0.58999997    2.61999989
   18.71833420  168.74000549    0.58999997    2.64000010
   18.72138977  166.91299438    0.58999997    2.61999989
   18.72472191  154.68600464    0.58999997    2.61999989
   18.72805595  161.91700745    0.58999997    2.61999989
   18.73111153  156.92999268    0.58999997    2.64000010
   18.73444557  166.97000122    0.58999997    2.61999989
   18.73777771  170.24699402    0.61000001    2.61999989
   18.74083328  154.06300354    0.61000001    2.61999989
   18.74416733  169.85400391    0.58999997    2.61999989
   18.75027847  169.85400391    0.56999999    2.61999989
   18.75444412  157.34399414    0.56999999    2.61999989
   18.75749969  166.02600098    0.56999999    2.61999989
   18.76083374  165.09599304    0.56999999    2.61999989
   18.76416588  166.09899902    0.58999997    2.61999989
   18.76722145  145.89999390    0.58999997    2.64000010
   18.77055550  150.92599487    0.61000001    2.61999989
   18.77388954  145.86099243    0.61000001    2.61999989
   18.77694511  162.08599854    0.63000000    2.61999989
   18.78027725  165.24600220    0.64999998    2.61999989
   18.78249931  154.79200745    0.64999998    2.61999989
   18.78388786  153.48899841    0.64999998    2.61999989
   18.78694344  152.15899658    0.64999998    2.61999989
   18.79305458  152.15899658    0.58999997    2.61999989
   18.79722214  152.69999695    0.58999997    2.64000010
   18.80055428  154.10000610    0.58999997    2.61999989
   18.80360985  146.28300476    0.61000001    2.61999989
   18.80694389  141.10299683    0.67000002    2.61999989
   18.80999947  148.75599670    0.81999999    2.61999989
   18.81333351  158.42700195    0.81999999    2.59999990
   18.81583214  145.08200073    0.81999999    2.59999990
   18.81694603  154.48199463    0.81999999    2.59999990
   18.82000160  155.79200745    0.83999997    2.61999989
   18.82333374  152.54600525    0.88000000    2.61999989
   18.82666779  149.49200439    0.79000002    2.61999989
   18.82972336  153.40400696    0.69000000    2.61999989
   18.83583450  153.40400696    0.64999998    2.61999989
   18.84000015  145.36500549    0.61000001    2.59999990
   18.84333420  137.87800598    0.61000001    2.59999990
   18.84638977  136.20599365    0.63000000    2.61999989
   18.84916687  141.22700500    0.73000002    2.64000010
   18.85027885  151.12300110    0.73000002    2.64000010
   18.85333443  151.39199829    0.79000002    2.59999990
   18.85666656  142.53100586    0.67000002    2.59999990
   18.86000061  145.13600159    0.67000002    2.61999989
   18.86305618  145.41900635    0.63000000    2.61999989
   18.86638832  153.35200500    0.61000001    2.61999989
   18.86972237  152.98800659    0.58999997    2.59999990
   18.87277794  146.37300110    0.58999997    2.59999990
   18.87888908  146.37300110    0.58999997    2.61999989
   18.88277817  108.89099884    0.58999997    2.61999989
   18.88611031  155.26199341    0.58999997    2.61999989
   18.88944435  147.57499695    0.58999997    2.59999990
   18.89249992  154.64900208    0.58999997    2.61999989
   18.89583397  136.14599609    0.58999997    2.61999989
   18.89916611  153.50300598    0.58999997    2.61999989
   18.90222168  140.93699646    0.58999997    2.61999989
   18.90555573  151.52799988    0.58999997    2.61999989
   18.90861130  145.74499512    0.58999997    2.59999990
   18.91194344  142.00700378    0.58999997    2.59999990
   18.91527748  145.60200500    0.61000001    2.61999989
   18.91583252  141.40800476    0.61000001    2.61999989
   18.92166519  141.40800476    0.63000000    2.61999989
   18.92583275  136.74000549    0.63000000    2.61999989
   18.92888832  132.78900146    0.61000001    2.64000010
   18.93222237  140.97099304    0.61000001    2.59999990
   18.93555450  137.06500244    0.63000000    2.61999989
   18.93888855  145.20100403    0.64999998    2.59999990
   18.94194412  137.69599915    0.63000000    2.59999990
   18.94527626  146.39900208    0.64999998    2.59999990
   18.94833183  149.94000244    0.64999998    2.59999990
   18.94916534  143.82099915    0.64999998    2.59999990
   18.95194435  140.59599304    0.64999998    2.59999990
   18.95527840  135.21099854    0.64999998    2.59999990
   18.95833397  141.72099304    0.64999998    2.59999990
   18.96444511  141.72099304    0.64999998    2.59999990
   18.96861076  142.82600403    0.64999998    2.61999989
   18.97194481  128.94900513    0.64999998    2.61999989
   18.97500038  125.00000000    0.64999998    2.59999990
   18.97833443  124.65100098    0.64999998    2.59999990
   18.98166656  133.52499390    0.64999998    2.59999990
   18.98250008  147.49000549    0.64999998    2.59999990
   18.98527718  138.00300598    0.64999998    2.59999990
   18.98861122  135.01400757    0.63000000    2.59999990
   18.99166679  143.78599548    0.63000000    2.59999990
   18.99500084  141.22099304    0.63000000    2.59999990
   18.99805641  129.41200256    0.63000000    2.59999990
   19.00138855  145.17599487    0.61000001    2.59999990
   19.00722313  145.17599487    0.63000000    2.59999990
   19.01138878  134.94500732    0.63000000    2.59999990
   19.01472282  134.35499573    0.70999998    2.59999990
   19.01583290  143.68899536    0.70999998    2.59999990
   19.01833344  150.33999634    0.70999998    2.59999990
   19.02166557  143.08900452    0.73000002    2.59999990
   19.02472115  139.21800232    0.76999998    2.59999990
   19.02805519  143.13600159    0.88000000    2.59999990
   19.03138924  145.56199646    0.83999997    2.59999990
   19.03444481  136.18800354    0.80000001    2.59999990
   19.03777695  117.26100159    0.80000001    2.59999990
   19.04111099  127.48400116    0.75000000    2.59999990
   19.04416656  139.03199768    0.70999998    2.57999992
   19.05027771  139.03199768    0.70999998    2.57999992
   19.05444336  131.34700012    0.70999998    2.59999990
   19.05749893  137.21699524    0.70999998    2.59999990
   19.06083298  143.06100464    0.69000000    2.59999990
   19.06388855  134.56900024    0.70999998    2.59999990
   19.06722260  131.29499817    0.69000000    2.59999990
   19.07055664  141.65600586    0.69000000    2.59999990
   19.07361221  132.69400024    0.70999998    2.59999990
   19.07694626  141.50100708    0.70999998    2.57999992
   19.08027840  140.39999390    0.70999998    2.57999992
   19.08250046  128.84100342    0.70999998    2.57999992
   19.08388901  132.99800110    0.70999998    2.57999992
   19.08722305  128.44099426    0.70999998    2.59999990
   19.09305573  128.44099426    0.75000000    2.59999990
   19.09722328  133.31399536    0.75000000    2.59999990
   19.10027885  133.22000122    0.75000000    2.59999990
   19.10361099  132.49200439    0.70999998    2.57999992
   19.10694504  130.19999695    0.67000002    2.59999990
   19.11000061  132.92500305    0.70999998    2.59999990
   19.11333466  120.18699646    0.73000002    2.59999990
   19.11583328  126.79299927    0.73000002    2.59999990
   19.11694527  131.31500244    0.75000000    2.57999992
   19.12027740  133.66099548    0.73000002    2.57999992
   19.12361145  124.98100281    0.73000002    2.57999992
   19.12666702  126.34600067    0.80000001    2.57999992
   19.13000107  124.55200195    0.73000002    2.57999992
   19.13583374  124.55200195    0.69000000    2.57999992
   19.13999939  136.60800171    0.69000000    2.57999992
   19.14333344  131.79200745    0.70999998    2.59999990
   19.14638901  132.17399597    0.70999998    2.59999990
   19.14916611  131.41600037    0.70999998    2.57999992
   19.14999962  128.69900513    0.70999998    2.57999992
   19.15333366  124.50499725    0.70999998    2.57999992
   19.15638924  134.36900330    0.70999998    2.57999992
   19.15972137  136.78300476    0.70999998    2.57999992
   19.16277695  134.83900452    0.70999998    2.57999992
   19.16611099  136.37199402    0.70999998    2.57999992
   19.16944313  135.81900024    0.70999998    2.57999992
   19.17249870  125.35900116    0.70999998    2.55999994
   19.17888832  125.35900116    0.70999998    2.57999992
   19.18305397  130.10499573    0.70999998    2.57999992
   19.18610954  134.65600586    0.70999998    2.57999992
   19.18944359  134.32200623    0.70999998    2.57999992
   19.19277763  122.59999847    0.70999998    2.55999994
   19.19583321  114.02300262    0.73000002    2.57999992
   19.19916534  129.81100464    0.73000002    2.57999992
   19.20250130  128.30099487    0.73000002    2.57999992
   19.20555687  128.73699951    0.73000002    2.57999992
   19.20888901  125.10299683    0.70999998    2.57999992
   19.21194458  123.12599945    0.73000002    2.57999992
   19.21527863  130.33900452    0.73000002    2.57999992
   19.21583366  129.74800110    0.73000002    2.57999992
   19.22166634  129.74800110    0.73000002    2.57999992
   19.22555542  133.04499817    0.70999998    2.57999992
   19.22888947  138.58700562    0.70999998    2.57999992
   19.23222351  121.02899933    0.70999998    2.57999992
   19.23527718  131.39300537    0.70999998    2.57999992
   19.23861122  124.49600220    0.70999998    2.57999992
   19.24194527  124.77500153    0.70999998    2.55999994
   19.24500084  128.24099731    0.70999998    2.57999992
   19.24833298  124.36599731    0.73000002    2.57999992
   19.24916649  120.91200256    0.73000002    2.57999992
   19.25194359  123.08699799    0.73000002    2.57999992
   19.25527763  109.52200317    0.70999998    2.57999992
   19.25833321  117.61799622    0.70999998    2.57999992
   19.26444435  117.61799622    0.73000002    2.55999994
   19.26861000  116.14399719    0.76999998    2.57999992
   19.27166557  117.17900085    0.80000001    2.57999992
   19.27499962  116.39800262    0.79000002    2.57999992
   19.27833366  121.28199768    0.75000000    2.57999992
   19.28138924  109.47000122    0.75000000    2.57999992
   19.28249931  118.37000275    0.70999998    2.59999990
   19.28499985  122.08799744    0.70999998    2.59999990
   19.28833199  122.88099670    0.70999998    2.57999992
   19.29138756  117.29699707    0.69000000    2.57999992
   19.29472160  120.50099945    0.70999998    2.57999992
   19.29805565  122.34200287    0.69000000    2.57999992
   19.30111122  120.48300171    0.69000000    2.57999992
   19.30722237  120.48300171    0.67000002    2.57999992
   19.31138802  118.72899628    0.67000002    2.57999992
   19.31472206  116.58000183    0.69000000    2.57999992
   19.31583214  125.19999695    0.69000000    2.55999994
   19.31833458  124.04900360    0.69000000    2.55999994
   19.32166672  124.38500214    0.69000000    2.57999992
   19.32472229  120.87100220    0.69000000    2.57999992
   19.32805634  121.19100189    0.69000000    2.57999992
   19.33139038  129.72599792    0.69000000    2.57999992
   19.33444595  124.75599670    0.67000002    2.55999994
   19.33777809  121.31400299    0.69000000    2.57999992
   19.34083366  107.61699677    0.69000000    2.57999992
   19.34416771  122.01100159    0.69000000    2.57999992
   19.35000038  122.01100159    0.69000000    2.57999992
   19.35416794  125.77600098    0.69000000    2.57999992
   19.35750008  123.61399841    0.69000000    2.57999992
   19.36083412  113.34500122    0.69000000    2.57999992
   19.36388969  118.81199646    0.69000000    2.57999992
   19.36722183  125.41000366    0.67000002    2.55999994
   19.37027740  110.36799622    0.69000000    2.55999994
   19.37361145  104.42299652    0.69000000    2.55999994
   19.37694550  111.62699890    0.69000000    2.55999994
   19.38000107  118.73500061    0.67000002    2.57999992
   19.38249969  121.83200073    0.69000000    2.57999992
   19.40333366  121.83200073    0.69000000    2.57999992
   19.40722275  117.59200287    0.69000000    2.55999994
   19.41055489  109.86399841    0.69000000    2.55999994
   19.41388893  115.78800201    0.69000000    2.55999994
   19.41611099  117.16799927    0.69000000    2.55999994
   19.41722107  116.92400360    0.69000000    2.55999994
   19.42055511  120.53900146    0.69000000    2.57999992
   19.42361069  106.27100372    0.69000000    2.55999994
   19.42694473  115.90000153    0.69000000    2.55999994
   19.43027687  110.50499725    0.67000002    2.55999994
   19.43333244  109.58399963    0.67000002    2.55999994
   19.43666649  111.12000275    0.69000000    2.55999994
   19.43972206  118.09300232    0.67000002    2.55999994
   19.44610977  118.09300232    0.69000000    2.55999994
   19.45027924  114.94799805    0.67000002    2.55999994
   19.45333481  118.78199768    0.67000002    2.55999994
   19.45666695  118.64499664    0.69000000    2.55999994
   19.46000099  118.99299622    0.69000000    2.55999994
   19.46305656  114.76999664    0.67000002    2.57999992
   19.46638870  114.84100342    0.67000002    2.55999994
   19.46944427  123.72499847    0.67000002    2.55999994
   19.47277832  112.92299652    0.69000000    2.55999994
   19.47611237  107.91200256    0.69000000    2.55999994
   19.47944450  116.13500214    0.69000000    2.55999994
   19.48277855  117.90200043    0.67000002    2.55999994
   19.48305511  110.47100067    0.67000002    2.55999994
   19.48888969  110.47100067    0.69000000    2.55999994
   19.49305534  111.96700287    0.69000000    2.55999994
   19.49611092  113.74400330    0.70999998    2.53999996
   19.49944496  111.09999847    0.73000002    2.55999994
   19.50250053  109.80699921    0.70999998    2.55999994
   19.50583267  110.34100342    0.70999998    2.55999994
   19.50916672  114.90200043    0.69000000    2.53999996
   19.51222229  111.65599823    0.70999998    2.55999994
   19.51555634  112.67500305    0.73000002    2.55999994
   19.51611137  122.83100128    0.73000002    2.55999994
   19.51888847  111.76699829    0.75000000    2.55999994
   19.52222252  111.78700256    0.73000002    2.55999994
   19.52527809  113.69400024    0.75000000    2.55999994
   19.53166580  113.69400024    0.75000000    2.53999996
   19.53583336  114.39800262    0.76999998    2.55999994
   19.53888893  111.71299744    0.73000002    2.53999996
   19.54222107  109.58399963    0.73000002    2.53999996
   19.54527664  113.83999634    0.73000002    2.55999994
   19.54861069  113.84799957    0.75000000    2.55999994
   19.54916573  112.67800140    0.75000000    2.55999994
   19.55222130  111.67400360    0.76999998    2.55999994
   19.55555534  112.28700256    0.76999998    2.55999994
   19.55861092  110.90799713    0.75000000    2.55999994
   19.56194305  113.05899811    0.75000000    2.55999994
   19.56499863  108.85199738    0.75000000    2.53999996
   19.56833458  105.49800110    0.73000002    2.53999996
   19.57472229  105.49800110    0.73000002    2.53999996
   19.57888985  117.47000122    0.73000002    2.53999996
   19.58194542  121.15399933    0.70999998    2.53999996
   19.58277893  122.15200043    0.70999998    2.53999996
   19.58555603  117.29000092    0.70999998    2.53999996
   19.58889008  118.67199707    0.70999998    2.53999996
   19.59194565  117.37899780    0.70999998    2.53999996
   19.59527779  118.74500275    0.73000002    2.53999996
   19.59861183  116.97699738    0.73000002    2.53999996
   19.60166740  116.70200348    0.73000002    2.53999996
   19.60499954  113.33699799    0.73000002    2.53999996
   19.60805511  115.50499725    0.70999998    2.53999996
   19.61138916  115.59600067    0.70999998    2.53999996
   19.61722183  115.59600067    0.70999998    2.53999996
   19.62138939  112.48500061    0.70999998    2.53999996
   19.62472153  114.23699951    0.70999998    2.53999996
