    HOUR (UT)   FLARE FACTOR    SKY TESTER    SUN TESTER
   11.18833351   -1.00000000   -1.00000000   -1.00000000
   11.20805550  126.06999969    4.90999985    2.23000002
   11.21500015  132.75900269    4.90999985    2.23000002
   11.21833324  124.84999847    4.90999985    2.25000000
   11.22138882  130.05099487    4.90999985    2.23000002
   11.22472191  133.62199402    4.90999985    2.23000002
   11.22805500  138.53599548    4.90999985    2.23000002
   11.23111057  122.82900238    4.90999985    2.23000002
   11.23444462  125.85099792    4.90999985    2.23000002
   11.23777771  125.11599731    4.90999985    2.23000002
   11.24083328  124.23200226    4.90999985    2.25000000
   11.24138927  125.39399719    4.90999985    2.25000000
   11.24472237  130.71699524    4.90999985    2.23000002
   11.24777794  119.98100281    4.90999985    2.25000000
   11.25111103  130.43099976    4.90999985    2.25000000
   11.25444412  125.32599640    4.90999985    2.25000000
   11.25749969  133.71000671    4.90999985    2.25000000
   11.26083374  130.92100525    4.90999985    2.25000000
   11.26388931  128.94599915    4.90999985    2.25000000
   11.26722240  128.31900024    4.90999985    2.25000000
   11.27055550  137.58299255    4.90999985    2.25000000
   11.27361107  131.31199646    4.90999985    2.25000000
   11.27472210  130.82400513    4.90999985    2.25000000
   11.27750015  129.07299805    4.90999985    2.25000000
   11.28055573  131.62500000    4.90999985    2.25000000
   11.28388977  134.25599670    4.90999985    2.26999998
   11.28722286  133.06599426    4.90999985    2.26999998
   11.29055595  130.38000488    4.90999985    2.26999998
   11.29361153  127.82900238    4.90999985    2.26999998
   11.29694462  127.87799835    4.90999985    2.26999998
   11.30000019  126.52799988    4.90999985    2.26999998
   11.30333328  128.63499451    4.90999985    2.26999998
   11.30666733  130.91299438    4.90999985    2.26999998
   11.30805588  121.07499695    4.90999985    2.26999998
   11.31027794  127.54699707    4.90999985    2.26999998
   11.31333351  132.88000488    4.90999985    2.26999998
   11.31666660  126.84700012    4.90999985    2.26999998
   11.31999969  123.10900116    4.90999985    2.26999998
   11.32305527  131.25300598    4.90999985    2.28999996
   11.32638836  124.18399811    4.90999985    2.26999998
   11.32944393  126.98600006    4.90999985    2.26999998
   11.33277798  126.76699829    4.90999985    2.28999996
   11.33611107  127.93000031    4.90999985    2.28999996
   11.33916664  134.97099304    4.90999985    2.28999996
   11.34138870  124.90799713    4.90999985    2.26999998
   11.34305477  124.64399719    4.90999985    2.28999996
   11.34611034  139.63900757    4.90999985    2.28999996
   11.34944439  132.04600525    4.90999985    2.28999996
   11.35277843  132.20100403    4.90999985    2.26999998
   11.35583401  126.02200317    4.90999985    2.28999996
   11.35916710  129.61799622    4.90999985    2.28999996
   11.36222267  129.05400085    4.90999985    2.28999996
   11.36555576  133.69900513    4.90999985    2.28999996
   11.36888885  130.96400452    4.90999985    2.28999996
   11.37194443  130.06300354    4.90999985    2.28999996
   11.37472248  124.86799622    4.90999985    2.28999996
   11.37583351  125.88999939    4.90999985    2.28999996
   11.37888908  124.99800110    4.90999985    2.28999996
   11.38222218  129.06500244    4.90999985    2.28999996
   11.38555527  132.40400696    4.90999985    2.28999996
   11.38861084  131.36399841    4.90999985    2.28999996
   11.39194393  123.52500153    4.90999985    2.28999996
   11.39527798  125.59999847    4.90999985    2.28999996
   11.39833355  131.63099670    4.90999985    2.30999994
   11.40166664  134.59500122    4.90999985    2.28999996
   11.40472221  134.70500183    4.90999985    2.30999994
   11.40805531  127.99099731    4.90999985    2.30999994
   11.40861034  134.34100342    4.90999985    2.30999994
   11.41166592  142.54299927    4.90999985    2.30999994
   11.41499996  135.80700684    4.90999985    2.30999994
   11.41833401  140.76699829    4.90999985    2.30999994
   11.42138958  126.56999969    4.90999985    2.30999994
   11.42472267  132.97500610    4.90999985    2.32999992
   11.42777824  122.01599884    4.90999985    2.32999992
   11.43111134  126.87999725    4.90999985    2.32999992
   11.43444443  119.88999939    4.90999985    2.32999992
   11.43750000  124.75800323    4.90999985    2.32999992
   11.44083309  129.08000183    4.90999985    2.32999992
   11.44138908  126.41699982    4.90999985    2.32999992
   11.44444466  119.12100220    4.90999985    2.34999990
   11.44750023  117.55400085    4.90999985    2.34999990
   11.45083332  121.47799683    4.90999985    2.34999990
   11.45416641  120.17500305    4.90999985    2.34999990
   11.45749950  121.15399933    4.90999985    2.34999990
   11.46055508  122.80999756    4.90999985    2.36999989
   11.46388912  122.09300232    4.90999985    2.34999990
   11.46694374  127.97899628    4.90999985    2.34999990
   11.47027779  124.23000336    4.90999985    2.36999989
   11.47361088  126.96299744    4.90999985    2.36999989
   11.47472191  123.16899872    4.90999985    2.34999990
   11.47722149  125.23899841    4.90999985    2.34999990
   11.48027706  124.10800171    4.90999985    2.34999990
   11.48361111  126.16000366    4.90999985    2.36999989
   11.48694515  127.42299652    4.90999985    2.36999989
   11.49000072  124.76100159    4.90999985    2.34999990
   11.49333382  121.27899933    4.90999985    2.34999990
   11.49666691  122.87599945    4.90999985    2.34999990
   11.49972248  117.33300018    4.90999985    2.34999990
   11.50305557  117.48600006    4.90999985    2.36999989
   11.50611115  123.79100037    4.90999985    2.36999989
   11.50805569  121.53600311    4.90999985    2.36999989
   11.51000023  121.19200134    4.90999985    2.36999989
   11.51305580  122.05100250    4.90999985    2.36999989
   11.51638889  122.24299622    4.90999985    2.39000010
   11.51972198  129.58000183    4.90999985    2.39000010
   11.52277756  124.53399658    4.90999985    2.39000010
   11.52611065  120.06199646    4.90999985    2.39000010
   11.52944374  120.53700256    4.90999985    2.39000010
   11.53249931  119.40399933    4.90999985    2.39000010
   11.53583336  120.60299683    4.90999985    2.40000010
   11.53888893  119.07499695    4.90999985    2.40000010
   11.54138947  123.33599854    4.90999985    2.39000010
   11.54277802  117.69300079    4.90999985    2.40000010
   11.54583359  115.40100098    4.90999985    2.40000010
   11.54916668  116.87899780    4.90999985    2.40000010
   11.55249977  126.18599701    4.90999985    2.40000010
   11.55555534  121.70099640    4.90999985    2.40000010
   11.55888939  118.98300171    4.90999985    2.40000010
   11.56222248  122.34899902    4.90999985    2.40000010
   11.56527805  113.80400085    4.90999985    2.40000010
   11.56861115  115.16699982    4.90999985    2.40000010
   11.57166672  117.48200226    4.90999985    2.40000010
   11.57472229  119.10099792    4.90999985    2.40000010
   11.57555580  116.74400330    4.90999985    2.40000010
   11.57888889  113.93199921    4.90999985    2.40000010
   11.58194447  118.89499664    4.90999985    2.40000010
   11.58527756  123.55000305    4.90999985    2.40000010
   11.58833313  120.71099854    4.90999985    2.40000010
   11.59166622  119.59899902    4.90999985    2.40000010
   11.59499931  112.27700043    4.90999985    2.40000010
   11.59805489  118.72399902    4.90999985    2.40000010
   11.60138893  115.76799774    4.90999985    2.40000010
   11.60472298  119.30899811    4.90999985    2.40000010
   11.60777855  118.02700043    4.90999985    2.40000010
   11.60833359  114.14099884    4.90999985    2.40000010
   11.61166668  124.62100220    4.90999985    2.40000010
   11.61472225  112.53700256    4.90999985    2.42000008
   11.61805534  111.42900085    4.90999985    2.42000008
   11.62138939  110.93599701    4.90999985    2.42000008
   11.62444496  122.66999817    4.90999985    2.42000008
   11.62777805  113.85099792    4.90999985    2.42000008
   11.63083363  122.30599976    4.90999985    2.42000008
   11.63416672  119.90200043    4.90999985    2.42000008
   11.63749981  114.41100311    4.90999985    2.44000006
   11.64055538  124.21299744    4.90999985    2.42000008
   11.64166641  118.78500366    4.90999985    2.40000010
   11.64444447  118.61900330    4.90999985    2.42000008
   11.64750004  111.94100189    4.90999985    2.42000008
   11.65083313  115.19599915    4.90999985    2.42000008
   11.65416622  115.16400146    4.90999985    2.42000008
   11.65722179  124.66999817    4.90999985    2.42000008
   11.66055489  116.44999695    4.90999985    2.44000006
   11.66361046  111.12400055    4.90999985    2.42000008
   11.66694450  119.74800110    4.90999985    2.42000008
   11.67027855  109.22499847    4.90999985    2.44000006
   11.67333412  112.48699951    4.90999985    2.42000008
   11.67500019  110.14700317    4.90999985    2.44000006
   11.67722225  118.91899872    4.90999985    2.42000008
   11.68027782  112.94100189    4.90999985    2.44000006
   11.68361092  121.73999786    4.90999985    2.42000008
   11.68694496  114.43099976    4.90999985    2.44000006
   11.69000053  114.49800110    4.90999985    2.44000006
   11.69333363  112.97799683    4.90999985    2.44000006
   11.69638920  118.28500366    4.90999985    2.44000006
   11.69972229  114.17500305    4.90999985    2.44000006
   11.70305538  120.23400116    4.90999985    2.44000006
   11.70611095  118.67400360    4.90999985    2.46000004
   11.70833302  116.30400085    4.90999985    2.44000006
   11.71000004  111.83100128    4.90999985    2.44000006
   11.71305561  119.68599701    4.90999985    2.46000004
   11.71638870  113.71099854    4.90999985    2.46000004
   11.71972179  114.82499695    4.90999985    2.46000004
   11.72277737  111.68000031    4.90999985    2.46000004
   11.72611046  113.44100189    4.90999985    2.46000004
   11.72916603  111.67199707    4.90999985    2.46000004
   11.73249912  117.25399780    4.90999985    2.46000004
   11.73583317  114.09899902    4.90999985    2.46000004
   11.73888874  110.57800293    4.90999985    2.46000004
   11.74166679  112.92900085    4.90999985    2.46000004
   11.74277782  112.05799866    4.90999985    2.46000004
   11.74583340  108.04299927    4.90999985    2.46000004
   11.74916649  107.52799988    4.90999985    2.46000004
   11.75249958  108.96900177    4.90999985    2.46000004
   11.75555515  113.76399994    4.90999985    2.46000004
   11.75888920  112.92500305    4.90999985    2.46000004
   11.76194477  115.43599701    4.90999985    2.46000004
   11.76527786  114.51300049    4.90999985    2.46000004
   11.76861095  116.20999908    4.90999985    2.46000004
   11.77166653  125.33100128    4.90999985    2.46000004
   11.77499962  122.01699829    4.90999985    2.46000004
   11.77555561  115.16799927    4.90999985    2.48000002
   11.77861118  112.84999847    4.90999985    2.46000004
   11.78194427  116.71399689    4.90999985    2.46000004
   11.78527832  118.30300140    4.90999985    2.46000004
   11.78833389  127.01799774    4.90999985    2.48000002
   11.79166698  120.34400177    4.90999985    2.48000002
   11.79472256  120.25099945    4.90999985    2.46000004
   11.79805565  122.44499969    4.90999985    2.48000002
   11.80138874  118.10700226    4.90999985    2.48000002
   11.80444431  113.86000061    4.90999985    2.48000002
   11.80777836  118.92600250    4.90999985    2.48000002
   11.80833340  110.86799622    4.90999985    2.48000002
   11.81138897  110.42700195    4.90999985    2.48000002
   11.81444454  110.55300140    4.90999985    2.48000002
   11.81777763  105.62599945    4.90999985    2.48000002
   11.82111073  118.65799713    4.90999985    2.48000002
   11.82416630  109.14399719    4.90999985    2.48000002
   11.82750034  114.70500183    4.90999985    2.48000002
   11.83083344  111.81900024    4.90999985    2.48000002
   11.83388901  115.72399902    4.90999985    2.48000002
   11.83722210  117.79100037    4.90999985    2.48000002
   11.84027767  115.85399628    4.90999985    2.48000002
   11.84166622  113.65499878    4.90999985    2.48000002
   11.84416676  111.67299652    4.90999985    2.48000002
   11.84722233  121.54100037    4.90999985    2.48000002
   11.85055637  118.19599915    4.90999985    2.48000002
   11.85388947  113.44899750    4.90999985    2.48000002
   11.85694504  108.86000061    4.90999985    2.48000002
   11.86027813  111.66000366    4.90999985    2.48000002
   11.86361122  120.09999847    4.90999985    2.48000002
   11.86666679  112.48300171    4.90999985    2.46000004
   11.86999989  117.06199646    4.90999985    2.48000002
   11.87305546  115.63400269    4.90999985    2.48000002
   11.87500000  111.55899811    4.90999985    2.48000002
   11.87694454  112.69799805    4.90999985    2.50000000
   11.88000011  110.42099762    4.90999985    2.50000000
   11.88333321  114.57800293    4.90999985    2.50000000
   11.88666630  118.16999817    4.90999985    2.48000002
   11.88972187  117.36799622    4.90999985    2.50000000
   11.89305496  114.21099854    4.90999985    2.48000002
   11.89638901  112.96199799    4.90999985    2.48000002
   11.89944458  118.29100037    4.90999985    2.48000002
   11.90277767  115.04399872    4.90999985    2.50000000
   11.90583324  118.25900269    4.90999985    2.48000002
   11.90833282  112.44300079    4.90999985    2.50000000
   11.90972137  113.76499939    4.90999985    2.50000000
   11.91277695  109.72399902    4.90999985    2.50000000
   11.91611099  109.88099670    4.90999985    2.50000000
   11.91944504  107.50299835    4.90999985    2.48000002
   11.92250061  112.75499725    4.90999985    2.48000002
   11.92583370  117.76000214    4.90999985    2.50000000
   11.92916679  121.41799927    4.90999985    2.50000000
   11.93222237  116.32199860    4.90999985    2.50000000
   11.93555546  115.93499756    4.90999985    2.50000000
   11.93861103  117.05899811    4.90999985    2.50000000
   11.94166660  113.78800201    4.90999985    2.50000000
   11.94250011  115.09200287    4.90999985    2.50000000
   11.94555569  117.24099731    4.90999985    2.48000002
   11.94888878  116.62899780    4.90999985    2.50000000
   11.95222187  114.20899963    4.90999985    2.51999998
   11.95527744  115.64299774    4.90999985    2.51999998
   11.95861053  115.31099701    4.90999985    2.50000000
   11.96194458  114.17600250    4.90999985    2.51999998
   11.96500015  114.40399933    4.90999985    2.50000000
   11.96833324  111.70999908    4.90999985    2.51999998
   11.97138882  116.64499664    4.90999985    2.50000000
   11.97472191  117.58999634    4.90999985    2.50000000
   11.97527695  114.70300293    4.90999985    2.50000000
   11.97861099  108.09300232    4.90999985    2.50000000
   11.98166656  118.98200226    4.90999985    2.50000000
   11.98500061  113.86799622    4.90999985    2.50000000
   11.98805618  108.00800323    4.90999985    2.50000000
   11.99138927  109.75700378    4.90999985    2.51999998
   11.99472237  113.13600159    4.90999985    2.51999998
   11.99777794  107.64399719    4.80000019    2.51999998
   12.00111103  104.80000305    4.67999983    2.53999996
   12.00444412  113.69699860    4.55999994    2.53999996
   12.00749969  112.55100250    4.48999977    2.53999996
   12.00861073  118.29000092    4.48999977    2.53999996
   12.01138878  110.95300293    4.46999979    2.53999996
   12.01444435  111.13899994    4.48999977    2.53999996
   12.01777744  114.05100250    4.48999977    2.53999996
   12.02083302  108.30100250    4.44999981    2.53999996
   12.02416611  113.33999634    4.44999981    2.55999994
   12.02750015  111.37300110    4.44999981    2.53999996
   12.03055573  109.37300110    4.48999977    2.53999996
   12.03388977  112.12400055    4.53000021    2.53999996
   12.03722286  116.88300323    4.57999992    2.53999996
   12.04027843  120.81400299    4.61999989    2.53999996
   12.04194450  114.68099976    4.67999983    2.53999996
   12.04416752  115.21900177    4.71999979    2.53999996
   12.04722309  113.21900177    4.76000023    2.53999996
   12.05055618  108.69599915    4.78000021    2.53999996
   12.05361176  107.50700378    4.80000019    2.51999998
   12.05694485  109.36000061    4.80999994    2.53999996
   12.06027794  105.12899780    4.80999994    2.53999996
   12.06333351  107.86000061    4.80000019    2.53999996
   12.06666660  108.32599640    4.80000019    2.53999996
   12.06999969  104.85099792    4.78000021    2.53999996
   12.07305527  104.31900024    4.80000019    2.53999996
   12.07527733  106.87300110    4.80000019    2.53999996
   12.07694435  108.74500275    4.80000019    2.53999996
   12.07999992  108.56500244    4.80999994    2.53999996
   12.08333302  109.25599670    4.84999990    2.53999996
   12.08638859  109.83899689    4.88999987    2.53999996
   12.08972168  110.61000061    4.84999990    2.53999996
   12.09305477  113.03800201    4.82999992    2.55999994
   12.09611034  112.28299713    4.82999992    2.53999996
   12.09944439  105.41200256    4.82999992    2.53999996
   12.10277843  112.00299835    4.86999989    2.53999996
   12.10583401  108.12100220    4.86999989    2.53999996
   12.10861111  111.05999756    4.82999992    2.53999996
   12.10972214  100.36100006    4.82999992    2.53999996
   12.11277771  111.58399963    4.76000023    2.53999996
   12.11611176  112.93399811    4.69999981    2.53999996
   12.11944485  112.79499817    4.57999992    2.55999994
   12.12250042  108.25599670    4.28999996    2.55999994
   12.12583351  106.52600098    4.11999989    2.55999994
   12.12888908  113.85099792    3.97000003    2.57999992
   12.13222218  108.16300201    3.91000009    2.55999994
   12.13555527  101.20500183    3.93000007    2.55999994
   12.13861084  108.76499939    3.91000009    2.57999992
   12.14194393  107.82399750    3.93000007    2.55999994
   12.14249992  108.66200256    3.93000007    2.55999994
   12.14555550  106.51000214    3.82999992    2.57999992
   12.14888859  105.71099854    3.80999994    2.57999992
   12.15222168  108.47100067    3.70000005    2.57999992
   12.15527725  105.62300110    3.66000009    2.57999992
   12.15861034  105.04499817    3.57999992    2.59999990
   12.16166592   99.76049805    3.46000004    2.59999990
   12.16499996  108.60099792    3.45000005    2.59999990
   12.16833401  113.84200287    3.46000004    2.59999990
   12.17138958  100.50599670    3.46000004    2.59999990
   12.17472267  110.32700348    3.51999998    2.59999990
   12.17527771  112.01100159    3.51999998    2.59999990
   12.17833328  113.73300171    3.59999990    2.59999990
   12.18138885  114.00099945    3.66000009    2.59999990
   12.18472195  106.88899994    3.73000002    2.57999992
   12.18805599  118.69699860    3.76999998    2.59999990
   12.19111156  112.58699799    3.80999994    2.59999990
   12.19444466  109.84700012    3.80999994    2.59999990
   12.19750023  110.38999939    3.78999996    2.59999990
   12.20083332  102.04699707    3.75000000    2.57999992
   12.20416641  106.97599792    3.80999994    2.59999990
   12.20722198  111.00499725    3.82999992    2.59999990
   12.22472191  104.01200104    3.75000000    2.59999990
   12.22722149  116.26399994    3.70000005    2.59999990
   12.23055553  103.37899780    3.66000009    2.59999990
   12.23388958  107.95899963    3.73000002    2.59999990
   12.23694515  105.14499664    3.80999994    2.59999990
   12.24027824  116.53299713    3.93000007    2.57999992
   12.24333382  108.32199860    4.05999994    2.57999992
   12.24666691  108.57099915    4.17999983    2.57999992
   12.25000000  116.75700378    4.28999996    2.59999990
   12.25305557  108.49099731    4.38999987    2.57999992
   12.25638866  109.16400146    4.34999990    2.59999990
   12.25777817  113.68900299    4.32999992    2.59999990
   12.26000023  111.50199890    4.36999989    2.57999992
   12.26333332  113.37400055    4.48999977    2.57999992
   12.26638889  109.65599823    4.55999994    2.59999990
   12.26972198  104.32599640    4.53000021    2.57999992
   12.27305508  101.68399811    4.55999994    2.57999992
   12.27611065  103.41999817    4.53999996    2.59999990
   12.27944374  110.24299622    4.42999983    2.57999992
   12.28249931  104.99700165    4.28999996    2.57999992
   12.28583336  107.53399658    4.21999979    2.57999992
   12.28916740  103.81999969    4.13999987    2.57999992
   12.29111195   99.97440338    4.03999996    2.59999990
   12.29277802  107.25399780    3.99000001    2.59999990
   12.29611111  101.18699646    3.84999990    2.59999990
   12.29916668  103.25700378    3.78999996    2.61999989
   12.30249977  103.77500153    3.75000000    2.61999989
   12.30583382  107.51200104    3.59999990    2.61999989
   12.30888939  104.30100250    3.48000002    2.61999989
   12.31222248  113.23400116    3.43000007    2.61999989
   12.31527805  101.81400299    3.45000005    2.61999989
   12.31861115  107.48400116    3.53999996    2.61999989
   12.32194424  103.58300018    3.66000009    2.59999990
   12.32444477  111.49800110    3.75000000    2.59999990
   12.32555580  111.26000214    3.73000002    2.59999990
   12.43138885   -1.00000000   -1.00000000   -1.00000000
   12.52916622   -1.00000000   -1.00000000   -1.00000000
   12.62972260   -1.00000000   -1.00000000   -1.00000000
   12.65638828   72.55740356    3.72000003    2.66000009
   12.65944386  113.44400024    3.73000002    2.66000009
   12.66277695  112.81199646    3.72000003    2.66000009
   12.66611099  112.69499969    3.59999990    2.66000009
   12.66916656  110.77300262    3.45000005    2.67000008
   12.67250061  116.96399689    3.21000004    2.66000009
   12.67666721  116.96399689    2.78999996    2.67000008
   12.68083382  109.97000122    2.59999990    2.67000008
   12.68388939  105.21600342    2.55999994    2.71000004
   12.68722248  112.33599854    2.53999996    2.67000008
   12.68972206  108.67700195    2.46000004    2.69000006
   12.69083309  111.39499664    2.50000000    2.69000006
   12.69416714  111.88200378    2.51999998    2.69000006
   12.69750023  105.89600372    2.44000006    2.69000006
   12.70055580  110.96099854    2.39000010    2.69000006
   12.70388889  102.89099884    2.30999994    2.69000006
   12.70694447  106.74199677    2.34999990    2.69000006
   12.71027756  102.00199890    2.46000004    2.67000008
   12.71361065  103.18399811    2.48000002    2.67000008
   12.71944427  103.18399811    2.48000002    2.69000006
   12.72361088  110.23500061    2.57999992    2.69000006
   12.72666645  103.89499664    2.64000010    2.69000006
   12.72999954  101.88700104    2.61999989    2.69000006
   12.73333359  107.83799744    2.53999996    2.69000006
   12.73638916  108.47799683    2.40000010    2.69000006
   12.73972225  112.11799622    2.42000008    2.69000006
   12.74277782  105.91400146    2.32999992    2.69000006
   12.74611092  107.50800323    2.21000004    2.69000006
   12.74944496  103.03399658    2.09999990    2.71000004
   12.75249958  108.66600037    1.94000006    2.71000004
   12.75583363  107.98699951    1.89999998    2.71000004
   12.75638866  107.14600372    1.89999998    2.71000004
   12.76222229  107.14600372    2.00000000    2.71000004
   12.76638889  104.10399628    2.01999998    2.69000006
   12.76972198  111.42900085    2.01999998    2.71000004
   12.77277756  106.76100159    1.96000004    2.71000004
   12.77611065  103.60700226    1.88000000    2.69000006
   12.77944374  113.37899780    1.88000000    2.71000004
   12.78249931  103.67500305    1.88000000    2.69000006
   12.78583336  106.18599701    1.89999998    2.71000004
   12.78916740  106.32099915    1.89999998    2.71000004
   12.78972244  107.11000061    1.91999996    2.71000004
   12.79277802  106.94400024    1.96000004    2.71000004
   12.79583359  100.19999695    2.11999989    2.69000006
   12.79916668  106.00399780    2.19000006    2.71000004
   12.80500031  106.00399780    2.34999990    2.69000006
   12.80916691  110.02100372    2.40000010    2.69000006
   12.81250000  110.01999664    2.48000002    2.69000006
   12.81583309  106.33200073    2.53999996    2.69000006
   12.81888866  114.24700165    2.57999992    2.69000006
   12.82222176  109.13200378    2.59999990    2.71000004
   12.82305527  113.78900146    2.59999990    2.71000004
   12.82583332  109.63099670    2.53999996    2.71000004
   12.82888889  107.25399780    2.50000000    2.69000006
   12.83222198  103.21299744    2.53999996    2.69000006
   12.83555508  103.82099915    2.61999989    2.69000006
   12.83861065  105.94200134    2.69000006    2.69000006
   12.84194374  101.83599854    2.75000000    2.69000006
   12.84805489  101.83599854    2.89000010    2.69000006
   12.85222244  108.26499939    2.94000006    2.69000006
   12.85527802  109.44799805    3.00000000    2.67000008
   12.85638905  103.31700134    3.00000000    2.71000004
   12.85888958  105.34600067    3.03999996    2.69000006
   12.86194515  104.62400055    3.01999998    2.69000006
   12.86527824  102.18399811    2.96000004    2.69000006
   12.86833382   98.89510345    2.86999989    2.71000004
   12.87166691  104.33999634    2.80999994    2.71000004
   12.87500000  103.32599640    2.80999994    2.69000006
   12.87805557  109.41400146    2.82999992    2.67000008
   12.88138866  106.81099701    2.86999989    2.71000004
   12.88472176  108.10500336    2.91000009    2.69000006
   12.89083290  108.10500336    2.98000002    2.69000006
   12.89499950  108.97799683    3.03999996    2.69000006
   12.89805508  106.12799835    3.03999996    2.69000006
   12.90138817  108.06500244    3.03999996    2.69000006
   12.90472221  109.44599915    3.00000000    2.69000006
   12.90777779  107.73600006    2.96000004    2.69000006
   12.91111088  108.33100128    2.93000007    2.69000006
   12.91416645  108.04299927    2.89000010    2.69000006
   12.91750050  107.82800293    2.86999989    2.69000006
   12.92083359  111.12300110    2.80999994    2.69000006
   12.92305565  105.35399628    2.78999996    2.69000006
   12.92444515  107.94699860    2.76999998    2.71000004
   12.92750072  101.48500061    2.59999990    2.71000004
   12.93361092  101.48500061    2.44000006    2.71000004
   12.93777752  106.12300110    2.39000010    2.71000004
   12.94111156  103.51699829    2.30999994    2.71000004
   12.94416714  105.81900024    2.26999998    2.71000004
   12.94750023  106.44100189    2.21000004    2.73000002
   12.95083332  102.99099731    2.15000010    2.71000004
   12.95388889  105.07199860    2.09999990    2.73000002
   12.95638847  107.42099762    2.09999990    2.71000004
   12.95749950  109.84500122    2.07999992    2.71000004
   12.96055508  105.48500061    2.13000011    2.69000006
   12.96388912  107.12400055    2.11999989    2.73000002
   12.96694374  107.54900360    2.05999994    2.71000004
   12.97027779  115.40100098    1.91999996    2.73000002
   12.97638798  115.40100098    1.46000004    2.73000002
   12.98055553  105.95899963    1.39999998    2.73000002
   12.98388958  101.92099762    1.41999996    2.73000002
   12.98694515  102.88099670    1.39999998    2.73000002
   12.98972225  106.77700043    1.39999998    2.73000002
   12.99083328   98.01760101    1.39999998    2.73000002
   12.99388885  105.41000366    1.34000003    2.73000002
   12.99722290  101.46399689    1.34000003    2.73000002
   13.00055599  103.56900024    1.34000003    2.75000000
   13.00361156   95.95050049    1.36000001    2.75000000
   13.00694466   99.95960236    1.36000001    2.75000000
   13.01027775  100.20300293    1.46000004    2.75000000
   13.01333332  105.22599792    1.85000002    2.73000002
   13.01944447  105.22599792    1.88000000    2.73000002
   13.02361107  104.44200134    1.94000006    2.71000004
   13.02666664  105.60900116    1.86000001    2.73000002
   13.02999973  105.07499695    1.85000002    2.73000002
   13.03333378  105.14900208    2.05999994    2.71000004
   13.03638935  104.03299713    2.19000006    2.73000002
   13.03972244  104.65699768    2.28999996    2.71000004
   13.04277802  109.67900085    2.26999998    2.73000002
   13.04611111  107.00199890    2.15000010    2.71000004
   13.04944515  107.72699738    2.03999996    2.73000002
   13.05277824  113.74299622    1.98000002    2.73000002
   13.05583382  114.65299988    1.98000002    2.73000002
   13.05638885  110.00000000    1.98000002    2.73000002
   13.06222248  110.00000000    1.89999998    2.73000002
   13.06638908  102.56700134    1.75000000    2.73000002
   13.06944466  100.27400208    1.73000002    2.75000000
   13.07277775  101.75900269    1.69000006    2.73000002
   13.07611084  106.06500244    1.66999996    2.75000000
   13.07916641  100.16699982    1.63000000    2.75000000
   13.08249950  102.01399994    1.63000000    2.75000000
   13.08555508  103.23100281    1.64999998    2.75000000
   13.08972168  102.62599945    1.66999996    2.75000000
   13.09027767  102.67199707    1.66999996    2.75000000
   13.09361076  106.15100098    1.71000004    2.73000002
   13.09666634  100.89499664    1.83000004    2.73000002
   13.10000038  101.14800262    1.94000006    2.73000002
   13.10500050  101.14800262    1.96000004    2.73000002
   13.10916710  107.07599640    1.91999996    2.75000000
   13.11250019  102.54799652    1.91999996    2.75000000
   13.11555576  104.49900055    1.91999996    2.71000004
   13.11888885  105.97899628    1.91999996    2.71000004
   13.12222195  106.04499817    1.89999998    2.73000002
   13.12305546  104.98699951    1.89999998    2.73000002
   13.12583351   96.26429749    1.91999996    2.73000002
   13.12916660  100.43199921    1.86000001    2.73000002
   13.13222218  105.42299652    1.89999998    2.73000002
   13.13555527  101.56300354    1.86000001    2.73000002
   13.13861084  112.96099854    1.85000002    2.73000002
   13.14194393  101.12599945    1.85000002    2.73000002
   13.14777756  101.12599945    1.88000000    2.73000002
   13.15194416  104.65899658    1.96000004    2.73000002
   13.15527725  108.06900024    1.98000002    2.73000002
   13.15638828  107.65000153    1.98000002    2.73000002
   13.15888882   98.37390137    2.00000000    2.73000002
   13.16222191  100.44200134    2.00000000    2.75000000
   13.16527748  108.35600281    1.96000004    2.75000000
   13.16861153  100.06199646    1.94000006    2.73000002
   13.17166710  104.55699921    1.98000002    2.73000002
   13.17500019  104.00000000    2.05999994    2.75000000
   13.17833328  108.09300232    2.07999992    2.73000002
   13.18166733  113.30400085    2.07999992    2.73000002
   13.18472195  102.45200348    2.17000008    2.73000002
   13.19083309  102.45200348    2.19000006    2.73000002
   13.19472218  107.47399902    2.23000002    2.73000002
   13.19805527  101.53500366    2.25000000    2.73000002
   13.20138836  103.97299957    2.25000000    2.73000002
   13.20444393  108.22499847    2.28999996    2.73000002
   13.20777798  110.03099823    2.39000010    2.73000002
   13.21111107  102.97599792    2.42000008    2.75000000
   13.21416664   96.90950012    2.34999990    2.73000002
   13.21749973  103.91200256    2.19000006    2.75000000
   13.22055531  101.09999847    2.21000004    2.73000002
   13.22305489  101.96399689    2.23000002    2.75000000
   13.22416592  107.62000275    2.23000002    2.73000002
   13.22749996  102.65399933    2.25000000    2.73000002
   13.23361111  102.65399933    2.23000002    2.75000000
   13.23777771  100.39600372    2.07999992    2.73000002
   13.24083328  104.71700287    2.01999998    2.75000000
   13.24416733  103.80699921    2.07999992    2.75000000
   13.24750042  102.07199860    2.09999990    2.73000002
   13.25055599  102.79599762    2.15000010    2.75000000
   13.25388908  100.52400208    2.19000006    2.75000000
   13.25638866  102.50000000    2.21000004    2.75000000
   13.25749969  102.37000275    2.21000004    2.75000000
   13.26083374  106.70600128    2.21000004    2.75000000
   13.26388931  106.01999664    2.25000000    2.75000000
   13.26722240  103.56600189    2.26999998    2.73000002
   13.27055550  100.92700195    2.28999996    2.75000000
   13.27638817  100.92700195    2.17000008    2.73000002
   13.28055573  101.38700104    1.94000006    2.75000000
   13.28388977  107.98200226    1.83000004    2.75000000
   13.28694534   99.88790131    1.78999996    2.75000000
   13.29000092   98.86509705    1.75000000    2.75000000
   13.29055595  103.29900360    1.75000000    2.75000000
   13.29388905  107.99600220    1.66999996    2.75000000
   13.29694462  103.21399689    1.69000006    2.75000000
   13.30027771  103.40699768    1.66999996    2.75000000
   13.30361176   98.76930237    1.64999998    2.75000000
   13.30666733  103.92400360    1.64999998    2.75000000
   13.31000042  100.11199951    1.64999998    2.75000000
   13.31333351   96.24790192    1.64999998    2.75000000
   13.31916618   96.24790192    1.64999998    2.75000000
   13.32333374  100.27700043    1.63000000    2.75000000
   13.32666683  104.02999878    1.61000001    2.75000000
   13.32999992   99.99189758    1.61000001    2.75000000
   13.33305550  103.52899933    1.66999996    2.76999998
   13.33638859  102.79199982    1.66999996    2.76999998
   13.33972168  105.83100128    1.71000004    2.76999998
   13.34305477  100.47499847    1.75000000    2.75000000
   13.34611034  105.92299652    1.86000001    2.75000000
   13.34944439   93.50959778    1.86000001    2.75000000
   13.35249996  100.05000305    1.98000002    2.75000000
   13.35583401  102.81900024    2.07999992    2.75000000
   13.35638905  100.97499847    2.09999990    2.75000000
   13.36222267  100.97499847    2.09999990    2.75000000
   13.36638927  104.02999878    2.07999992    2.75000000
   13.36944485  102.23400116    2.01999998    2.75000000
   13.37277794  103.06400299    2.01999998    2.75000000
   13.37583351  104.63700104    2.00000000    2.75000000
   13.37916660  103.66500092    1.98000002    2.75000000
   13.38249969  109.00199890    1.98000002    2.75000000
   13.38555527  101.49500275    1.85000002    2.76999998
   13.38888836  107.14199829    1.85000002    2.76999998
   13.38972187  110.23999786    1.80999994    2.76999998
   13.39249992  105.62000275    1.80999994    2.76999998
   13.39583302  101.09400177    1.80999994    2.75000000
   13.39888859  104.50399780    1.75000000    2.76999998
   13.40499973  104.50399780    1.71000004    2.76999998
   13.40916634  101.29000092    1.71000004    2.75000000
   13.41222191  102.54799652    1.71000004    2.75000000
   13.41555500  101.45600128    1.78999996    2.76999998
   13.41861153  103.98100281    1.76999998    2.75000000
   13.42194462   97.49189758    1.64999998    2.76999998
   13.42333412  103.98699951    1.64999998    2.76999998
   13.42555618   99.03690338    1.55999994    2.76999998
   13.42888927  102.59500122    1.39999998    2.76999998
   13.43222237  100.48000336    1.38000000    2.76999998
   13.43527794  103.11900330    1.38000000    2.76999998
   13.43861103   99.88369751    1.38000000    2.76999998
   13.44166660   98.61109924    1.38000000    2.76999998
   13.44777775   98.61109924    1.51999998    2.76999998
   13.45194435   99.13870239    1.53999996    2.76999998
   13.45499992   99.75060272    1.50000000    2.78999996
   13.45666695  100.19599915    1.50000000    2.78999996
   13.45861053  101.71099854    1.55999994    2.76999998
   13.46194458   97.59880066    1.41999996    2.76999998
   13.46500015  100.46700287    1.53999996    2.76999998
   13.46833324  102.08499908    1.53999996    2.76999998
   13.47166634  102.22899628    1.64999998    2.76999998
   13.47472191  104.23100281    1.58000004    2.76999998
   13.47805500  102.34100342    1.60000002    2.76999998
   13.48138809  103.27899933    1.39999998    2.78999996
   13.48472214   99.46119690    1.38000000    2.78999996
   13.49055576   99.46119690    1.41999996    2.76999998
   13.49472237  105.08000183    1.39999998    2.76999998
   13.49805546   99.24279785    1.44000006    2.78999996
   13.50111103   92.94360352    1.39999998    2.76999998
   13.50444412   95.02680206    1.33000004    2.76999998
   13.50777817   98.82550049    1.36000001    2.76999998
   13.51083374   96.44029999    1.36000001    2.76999998
   13.51416683  100.73000336    1.39999998    2.76999998
   13.51749992   98.03790283    1.36000001    2.76999998
   13.52055550  105.34600067    1.28999996    2.78999996
   13.52333355  104.47000122    1.28999996    2.78999996
   13.52416611  100.01399994    1.28999996    2.78999996
   13.52750015  100.30200195    1.28999996    2.76999998
   13.53361130  100.30200195    1.38000000    2.78999996
   13.53750038   98.85109711    1.39999998    2.76999998
   13.54083347  102.66500092    1.46000004    2.78999996
   13.54416752  102.51399994    1.46000004    2.78999996
   13.54722309  102.79799652    1.58000004    2.76999998
   13.55055618   98.14949799    1.66999996    2.76999998
   13.55388927  103.16300201    1.66999996    2.76999998
   13.55666733  104.41799927    1.64999998    2.78999996
   13.55722237  100.06500244    1.64999998    2.78999996
   13.56055546   99.12220001    1.61000001    2.76999998
   13.56361103   98.19550323    1.60000002    2.76999998
   13.56694412   98.48619843    1.51999998    2.78999996
   13.57027817   98.56259918    1.44000006    2.78999996
   13.57638836   98.56259918    1.48000002    2.78999996
   13.58055592   97.17759705    1.44000006    2.76999998
   13.58361053   97.88059998    1.44000006    2.78999996
   13.58694458   97.61699677    1.48000002    2.76999998
   13.59000015   95.26950073    1.55999994    2.76999998
   13.59055519   96.66850281    1.55999994    2.76999998
   13.59388828   95.71269989    1.69000006    2.76999998
   13.59694386   97.61509705    1.69000006    2.76999998
   13.60027790  104.34899902    1.69000006    2.76999998
   13.60361195  103.09999847    1.55999994    2.78999996
   13.60666752  105.87799835    1.36000001    2.78999996
   13.61000061  109.44300079    1.39999998    2.78999996
   13.61333370  103.13700104    1.39999998    2.78999996
   13.61916637  103.13700104    1.34000003    2.78999996
   13.62333393   98.83540344    1.53999996    2.76999998
   13.62666702   96.33110046    1.75000000    2.78999996
   13.62972260   96.16120148    1.83000004    2.78999996
   13.63305569   99.93489838    1.80999994    2.78999996
   13.63611126   98.90789795    1.80999994    2.76999998
   13.63944435   99.36730194    1.44000006    2.80999994
   13.64277744   98.34329987    1.50000000    2.78999996
   13.64583302  102.18599701    1.55999994    2.78999996
   13.64916611   99.50640106    1.55999994    2.78999996
   13.65249920   96.84040070    1.55999994    2.78999996
   13.65555477   98.00540161    1.53999996    2.78999996
   13.65666676   97.82599640    1.53999996    2.78999996
   13.67722225   97.82599640    1.33000004    2.78999996
   13.68138885  102.79199982    1.33000004    2.78999996
   13.68444443  100.44300079    1.36000001    2.80999994
   13.68777752   99.92340088    1.21000004    2.80999994
   13.69000053  102.63800049    1.21000004    2.80999994
   13.69166660  101.93699646    1.19000006    2.78999996
   13.69472218  108.32099915    1.23000002    2.80999994
   13.69805527   97.35919952    1.25000000    2.78999996
   13.70111084   98.08159637    1.25000000    2.78999996
   13.70444393   96.82879639    1.28999996    2.78999996
   13.70777798   98.92929840    1.28999996    2.82999992
   13.71083355   97.09249878    1.39999998    2.78999996
   13.71416664   97.23760223    1.34000003    2.78999996
   13.71999931   97.23760223    1.26999998    2.78999996
   13.72388840   96.89620209    1.25000000    2.78999996
   13.72722149  101.25800323    1.21000004    2.80999994
   13.73055553  106.89900208    1.13000000    2.80999994
   13.73361111   96.70310211    1.16999996    2.78999996
   13.73694515  104.53500366    1.16999996    2.78999996
   13.74027824  106.48600006    1.13000000    2.78999996
   13.74333382  104.19899750    1.14999998    2.78999996
   13.74666691  106.63099670    1.19000006    2.80999994
   13.75000000  104.84200287    1.19000006    2.80999994
   13.75305557  103.52200317    1.25000000    2.78999996
   13.75638866  101.85700226    1.30999994    2.78999996
   13.75694466  101.16100311    1.30999994    2.78999996
   13.76277733  101.16100311    1.30999994    2.80999994
   13.76694393   97.34120178    1.28999996    2.78999996
   13.76999950   94.33589935    1.28999996    2.78999996
   13.77333355   99.48819733    1.36000001    2.78999996
   13.77666664   96.68389893    1.39999998    2.78999996
   13.77972221   97.54579926    1.41999996    2.78999996
   13.78305531   93.96640015    1.41999996    2.78999996
   13.78638935  101.51799774    1.41999996    2.78999996
   13.78944492   97.91690063    1.50000000    2.78999996
   13.79027843  100.12100220    1.50000000    2.78999996
   13.79305553  102.51100159    1.51999998    2.78999996
   13.79638958   99.52989960    1.55999994    2.78999996
   13.79972267   97.70549774    1.58000004    2.80999994
   13.80555534   97.70549774    1.60000002    2.78999996
   13.80972195   98.76950073    1.61000001    2.78999996
   13.81305599   97.71099854    1.61000001    2.78999996
   13.81611156  101.04900360    1.53999996    2.78999996
   13.81944466  105.09300232    1.48000002    2.78999996
   13.82250023  104.72200012    1.48000002    2.78999996
   13.82361126  106.14299774    1.48000002    2.78999996
   13.82611084  100.98899841    1.48000002    2.78999996
   13.82944393   96.84970093    1.48000002    2.78999996
   13.83249950  100.76399994    1.50000000    2.78999996
   13.83583260  101.91300201    1.55999994    2.78999996
   13.83916664  103.29799652    1.58000004    2.78999996
   13.84222221   96.64579773    1.58000004    2.78999996
   13.84833336   96.64579773    1.61000001    2.78999996
   13.85249996   97.12809753    1.55999994    2.78999996
   13.85583401   96.91030121    1.55999994    2.78999996
   13.85694504   95.41590118    1.55999994    2.78999996
   13.85944462   96.00879669    1.58000004    2.78999996
   13.86277771   97.69429779    1.66999996    2.78999996
   13.86611176   96.44419861    1.76999998    2.78999996
   13.86916637   96.55449677    1.75000000    2.78999996
   13.87250042   99.38169861    1.75000000    2.78999996
   13.87555599   98.89260101    1.76999998    2.78999996
   13.87888908   99.38110352    1.69000006    2.78999996
   13.88222218   95.05359650    1.71000004    2.80999994
   13.88527775   97.34470367    1.69000006    2.80999994
   13.89138889   97.34470367    1.51999998    2.80999994
   13.89555550   99.39710236    1.50000000    2.80999994
   13.89861107   98.94229889    1.53999996    2.80999994
   13.90194416   96.44539642    1.53999996    2.80999994
   13.90499973   97.20570374    1.55999994    2.78999996
   13.90833282   98.32489777    1.60000002    2.78999996
   13.91166592   92.36000061    1.60000002    2.78999996
   13.91472149   90.09799957    1.53999996    2.78999996
   13.91805553   96.33100128    1.51999998    2.78999996
   13.92138958   89.20369720    1.51999998    2.78999996
   13.92361164   93.38200378    1.50000000    2.80999994
   13.92472267   93.68479919    1.50000000    2.80999994
   13.92805576   98.26390076    1.46000004    2.78999996
   13.93416691   98.26390076    1.61000001    2.78999996
   13.93833351   96.19760132    1.69000006    2.78999996
   13.94138908   95.66609955    1.73000002    2.78999996
   13.94472218   96.02680206    1.73000002    2.78999996
   13.94805527   93.50469971    1.78999996    2.78999996
   13.95111084   95.17089844    1.85000002    2.78999996
   13.95444393   94.29049683    1.83000004    2.78999996
   13.95694447  100.57099915    1.64999998    2.78999996
   13.95805550  102.53900146    1.64999998    2.78999996
   13.96138859   99.25170135    1.34000003    2.80999994
   13.96472168  101.85299683    1.33000004    2.80999994
   13.96777725  103.33899689    1.33000004    2.80999994
   13.97111034   95.12180328    1.34000003    2.80999994
   13.97694397   95.12180328    1.34000003    2.80999994
   13.98111057   98.76999664    1.30999994    2.80999994
   13.98444462   99.84529877    1.28999996    2.80999994
   13.98750019   98.36399841    1.28999996    2.80999994
   13.99027824   93.60089874    1.33000004    2.80999994
   13.99111176   95.11239624    1.33000004    2.80999994
   13.99444485   95.35820007    1.44000006    2.80999994
   13.99750042   94.40570068    1.55999994    2.80999994
   14.00083351  101.57199860    1.50000000    2.78999996
   14.00416660   93.22779846    1.50000000    2.76999998
   14.00722218   95.45950317    1.41999996    2.80999994
   14.01055527   97.22160339    1.41999996    2.80999994
   14.01388931   95.56140137    1.41999996    2.78999996
   14.01972198   95.56140137    1.36000001    2.82999992
   14.02388859   97.91069794    1.39999998    2.80999994
   14.02722168   94.89040375    1.44000006    2.80999994
   14.03055573   98.16500092    1.41999996    2.80999994
   14.03361130   96.80400085    1.41999996    2.80999994
   14.03694534  103.60500336    1.46000004    2.80999994
   14.04000092   98.66210175    1.46000004    2.78999996
   14.04333401  103.52700043    1.50000000    2.80999994
   14.04666710   98.36160278    1.51999998    2.78999996
   14.04972267  102.50000000    1.51999998    2.78999996
   14.05305576   99.60379791    1.51999998    2.78999996
   14.05638885   99.09279633    1.39999998    2.80999994
   14.05694485  103.71800232    1.39999998    2.80999994
   14.06277752  103.71800232    1.39999998    2.80999994
   14.06694412   95.60250092    1.39999998    2.80999994
   14.06999969   96.30940247    1.53999996    2.80999994
   14.07333374   99.92810059    1.55999994    2.80999994
   14.07666683  101.42500305    1.55999994    2.78999996
   14.07972240  102.90599823    1.53999996    2.80999994
   14.08305550   97.41929626    1.58000004    2.80999994
   14.08611107   97.93820190    1.64999998    2.80999994
   14.08944416   98.27999878    1.61000001    2.80999994
   14.09027767   98.89219666    1.61000001    2.80999994
   14.09305477   97.77410126    1.61000001    2.80999994
   14.09638882   96.81549835    1.63000000    2.80999994
   14.09972191   97.23179626    1.60000002    2.80999994
   14.10555553   97.23179626    1.60000002    2.80999994
   14.10972214   96.57839966    1.61000001    2.78999996
   14.11277771   97.83039856    1.63000000    2.80999994
   14.11611176  100.05500031    1.69000006    2.80999994
   14.11944485   94.80940247    1.69000006    2.80999994
   14.12250042  102.86299896    1.63000000    2.78999996
   14.12361145  102.74400330    1.44000006    2.82999992
   14.12611103  100.52799988    1.44000006    2.82999992
   14.12944412  103.26699829    1.55999994    2.80999994
   14.13277817  101.35199738    1.58000004    2.80999994
   14.13583279   98.54109955    1.48000002    2.80999994
   14.13916683   97.93309784    1.48000002    2.80999994
   14.14222240  102.07199860    1.44000006    2.80999994
   14.14833355  102.07199860    1.48000002    2.80999994
   14.15249920   99.62030029    1.58000004    2.80999994
   14.15583324   95.97619629    1.61000001    2.80999994
   14.15694427   94.22630310    1.61000001    2.80999994
   14.15944386   95.68820190    1.61000001    2.78999996
   14.16277695   99.48419952    1.61000001    2.78999996
   14.16583252   99.42790222    1.60000002    2.80999994
   14.16916656   98.93299866    1.60000002    2.80999994
   14.17222214   93.54229736    1.63000000    2.80999994
   14.17555618   99.42199707    1.60000002    2.80999994
   14.17888927   96.50319672    1.71000004    2.80999994
   14.18194485   96.39890289    1.71000004    2.80999994
   14.18527794   99.04630280    1.66999996    2.80999994
   14.19111156   99.04630280    1.63000000    2.80999994
   14.19527817   98.03959656    1.61000001    2.80999994
   14.19861126  101.56199646    1.63000000    2.80999994
   14.20166683  103.35800171    1.64999998    2.80999994
   14.20499992  103.86299896    1.64999998    2.80999994
   14.20833302   98.07499695    1.64999998    2.80999994
   14.21138859  103.03600311    1.69000006    2.80999994
   14.21472168   95.63569641    1.60000002    2.80999994
   14.21805477  101.68299866    1.63000000    2.80999994
   14.22111034   94.40329742    1.63000000    2.80999994
   14.22361088   91.87290192    1.69000006    2.80999994
   14.22472191   97.88899994    1.69000006    2.80999994
   14.22805500   95.47049713    1.73000002    2.80999994
   14.23416710   95.47049713    1.58000004    2.82999992
   14.23833370   94.30190277    1.48000002    2.82999992
   14.24166679   94.08260345    1.48000002    2.80999994
   14.24472237  102.43499756    1.48000002    2.80999994
   14.24805546   98.82379913    1.38000000    2.82999992
   14.25138855  103.83399963    1.41999996    2.80999994
   14.25444412   98.38379669    1.41999996    2.80999994
   14.25694466  100.26699829    1.48000002    2.80999994
   14.25833321   98.60710144    1.48000002    2.80999994
   14.26138878   95.29799652    1.58000004    2.80999994
   14.26472187   99.09529877    1.63000000    2.80999994
   14.26805496  101.72499847    1.61000001    2.80999994
   14.27111053  100.09799957    1.73000002    2.80999994
   14.27694416  100.09799957    1.75000000    2.80999994
   14.28111076  103.76799774    1.78999996    2.78999996
   14.28416729  102.06199646    1.75000000    2.80999994
   14.28750038  102.99099731    1.76999998    2.80999994
   14.29027843   98.33489990    1.76999998    2.80999994
   14.29111195   97.51930237    1.71000004    2.80999994
   14.29444504   99.20680237    1.69000006    2.82999992
   14.29777813   94.76059723    1.69000006    2.82999992
   14.30083370   97.11550140    1.66999996    2.80999994
   14.30416679   95.42680359    1.64999998    2.80999994
   14.30749989   95.85880280    1.66999996    2.80999994
   14.31055546   93.00700378    1.66999996    2.82999992
   14.31388950  100.03199768    1.66999996    2.82999992
   14.31972218  100.03199768    1.58000004    2.80999994
   14.32388878   96.11750031    1.58000004    2.82999992
   14.32722187   94.40290070    1.61000001    2.82999992
   14.33055592   97.21279907    1.66999996    2.80999994
   14.33361053  100.32099915    1.66999996    2.80999994
   14.33694458   96.62359619    1.73000002    2.80999994
   14.34027767   97.40989685    1.75000000    2.82999992
   14.34333324  102.85700226    1.78999996    2.80999994
   14.34666634  102.67299652    1.85000002    2.80999994
   14.34972191  102.46700287    1.76999998    2.80999994
   14.35305595  103.05999756    1.76999998    2.80999994
   14.35638905  101.09999847    1.75000000    2.80999994
   14.35694504   99.19899750    1.75000000    2.80999994
   14.36250019   99.19899750    1.78999996    2.80999994
   14.36666679   91.56970215    1.75000000    2.80999994
   14.36999989   91.39949799    1.71000004    2.82999992
   14.37305546   93.40489960    1.69000006    2.78999996
   14.37638855   97.01490021    1.69000006    2.78999996
   14.37972260   93.83640289    1.69000006    2.82999992
   14.38305569   95.51750183    1.66999996    2.82999992
   14.38611126   97.23179626    1.69000006    2.80999994
   14.38944435   93.76059723    1.66999996    2.80999994
   14.39027786   96.13269806    1.66999996    2.80999994
   14.39277744   93.34190369    1.63000000    2.80999994
   14.39611053   95.95159912    1.63000000    2.80999994
   14.39944458   97.14009857    1.69000006    2.82999992
   14.40555477   97.14009857    1.83000004    2.82999992
   14.40972137   97.06040192    1.86000001    2.80999994
   14.41305542   95.42269897    1.89999998    2.80999994
   14.41611099  101.18800354    1.88000000    2.82999992
   14.41944504  103.57800293    1.88000000    2.82999992
   14.42277813  101.15299988    1.88000000    2.80999994
   14.42361164  100.93000031    1.88000000    2.80999994
   14.42611122   99.98560333    1.86000001    2.78999996
   14.42944431  102.23300171    1.83000004    2.80999994
   14.43277836  100.57199860    1.83000004    2.80999994
   14.43583298   98.87809753    1.73000002    2.80999994
   14.43916702  100.36900330    1.73000002    2.82999992
   14.44250011   98.37149811    1.66999996    2.82999992
   14.44833374   98.37149811    1.61000001    2.82999992
   14.45249939   96.42749786    1.63000000    2.82999992
   14.45555496   94.10209656    1.66999996    2.80999994
   14.45694447   95.52799988    1.66999996    2.80999994
   14.45972157   95.73739624    1.73000002    2.82999992
   14.46277714   96.82740021    1.73000002    2.82999992
   14.46611118   96.50209808    1.73000002    2.82999992
   14.46944427   98.01629639    1.76999998    2.82999992
   14.47249985   98.96779633    1.75000000    2.82999992
   14.47583294   90.45349884    1.75000000    2.82999992
   14.47916603   98.14530182    1.75000000    2.82999992
   14.48222160   97.39299774    1.75000000    2.82999992
   14.48555565   97.65869904    1.75000000    2.80999994
   14.49111176   97.65869904    1.69000006    2.82999992
   14.49527836   99.42400360    1.71000004    2.82999992
   14.49861145  101.24299622    1.73000002    2.80999994
   14.50166702  101.51499939    1.73000002    2.80999994
   14.50500011   96.18260193    1.73000002    2.80999994
   14.50833321   94.58350372    1.75000000    2.82999992
   14.51138878   96.58100128    1.85000002    2.82999992
   14.51472187   99.16709900    1.86000001    2.80999994
   14.51805496   97.02670288    1.86000001    2.82999992
   14.52111053   94.63510132    1.88000000    2.80999994
   14.52361107   93.47530365    1.88000000    2.80999994
   14.52499962   93.72280121    1.89999998    2.80999994
   14.52805519   95.02880096    1.89999998    2.80999994
   14.53388977   95.02880096    1.88000000    2.80999994
   14.53805637   96.04830170    1.85000002    2.80999994
   14.54138947   89.72460175    1.85000002    2.80999994
   14.54472256  101.19499969    1.83000004    2.82999992
   14.54777813  100.79499817    1.83000004    2.82999992
   14.55111122   99.27970123    1.85000002    2.80999994
   14.55444431  103.21700287    1.86000001    2.82999992
   14.55694485   99.40039825    1.86000001    2.82999992
   14.55777836   95.23739624    1.86000001    2.82999992
   14.56111145  100.72599792    1.88000000    2.80999994
   14.56444454   99.99240112    1.88000000    2.80999994
   14.56750011  102.01999664    1.94000006    2.80999994
   14.57083321  103.75299835    1.96000004    2.82999992
   14.57694435  103.75299835    1.98000002    2.80999994
   14.58083344   93.51290131    1.98000002    2.82999992
   14.58416653   93.25859833    2.03999996    2.82999992
   14.58749962   98.93340302    2.03999996    2.80999994
   14.59027767   96.55480194    2.05999994    2.80999994
   14.59111118   96.94360352    2.05999994    2.80999994
   14.59416676   95.95619965    2.07999992    2.80999994
   14.59749985   98.99510193    2.07999992    2.78999996
   14.60055637   92.22229767    2.09999990    2.80999994
   14.60388947   98.41750336    2.11999989    2.80999994
   14.60722256   98.86779785    2.11999989    2.78999996
   14.61027813  100.32599640    2.15000010    2.82999992
   14.61361122   99.17970276    2.17000008    2.80999994
   14.61972237   99.17970276    2.19000006    2.80999994
   14.62388897  105.69699860    2.23000002    2.80999994
   14.62694454  100.50700378    2.23000002    2.78999996
   14.63027763   97.89640045    2.25000000    2.80999994
   14.63361073  103.35099792    2.26999998    2.80999994
   14.63666630   98.85160065    2.26999998    2.78999996
   14.64000034  104.23500061    2.28999996    2.80999994
   14.64305496   96.53440094    2.26999998    2.80999994
   14.64638901   94.96820068    2.25000000    2.80999994
   14.64972210   96.45999908    2.21000004    2.82999992
   14.65277767   96.06369781    2.19000006    2.82999992
   14.65611076   93.88030243    2.15000010    2.82999992
   14.65694427  102.72200012    2.15000010    2.82999992
   14.66249943  102.72200012    2.15000010    2.80999994
   14.66666698  101.53199768    2.15000010    2.80999994
   14.67000008   93.43699646    2.15000010    2.80999994
   14.67305565   93.28790283    2.13000011    2.80999994
   14.69055557   98.10780334    2.03999996    2.80999994
   14.69305515   97.07129669    2.03999996    2.80999994
   14.69638920  101.35900116    2.05999994    2.80999994
   14.69944477   95.91590118    2.05999994    2.80999994
   14.70555496   95.91590118    2.07999992    2.82999992
   14.70972157  105.82199860    2.05999994    2.80999994
   14.71277714   88.11489868    2.07999992    2.80999994
   14.71611118   94.68039703    2.05999994    2.82999992
   14.71944427   96.14849854    2.09999990    2.82999992
   14.72249985   92.01879883    2.09999990    2.80999994
   14.72388840   91.90840149    2.09999990    2.82999992
   14.72638798   94.08450317    2.09999990    2.80999994
   14.72944355   95.43470001    2.09999990    2.80999994
   14.73277760   93.21949768    2.11999989    2.82999992
   14.73611164   94.17019653    2.13000011    2.80999994
   14.73916721  101.69100189    2.15000010    2.80999994
   14.74250031   91.93250275    2.13000011    2.80999994
   14.74833393   91.93250275    2.19000006    2.80999994
   14.75249958   99.52700043    2.17000008    2.80999994
   14.75583363   94.47260284    2.17000008    2.82999992
   14.75722218   98.54309845    2.17000008    2.80999994
   14.75944424  100.16400146    2.17000008    2.80999994
   14.76249981  100.63600159    2.17000008    2.80999994
   14.76583290   98.61340332    2.17000008    2.80999994
   14.76888847  103.03299713    2.15000010    2.80999994
   14.77222157  102.48899841    2.13000011    2.80999994
   14.77555561   95.65709686    2.11999989    2.80999994
   14.77861118  102.51499939    2.05999994    2.82999992
   14.78194427   98.91269684    2.05999994    2.82999992
   14.78527832   91.29789734    2.07999992    2.82999992
   14.79111195   91.29789734    2.09999990    2.82999992
   14.79527855   93.38120270    2.05999994    2.82999992
   14.79861164   96.78929901    2.03999996    2.80999994
   14.80166721   90.63279724    2.00000000    2.80999994
   14.80500031   95.44650269    2.00000000    2.82999992
   14.80833340   92.94450378    2.07999992    2.82999992
   14.81138897   92.59999847    2.01999998    2.80999994
   14.81472206   97.56639862    2.01999998    2.80999994
   14.81805515   93.58229828    2.00000000    2.82999992
   14.82111073   98.22200012    1.98000002    2.82999992
   14.82388878  101.65200043    1.98000002    2.82999992
   14.82499981   99.20290375    1.98000002    2.82999992
   14.82805538  103.91600037    1.98000002    2.82999992
   14.83416653  103.91600037    1.96000004    2.82999992
   14.83805561  111.29000092    1.94000006    2.82999992
   14.84138870   98.42330170    1.94000006    2.82999992
   14.84472179   94.33889771    1.98000002    2.82999992
   14.84777737   96.93360138    1.98000002    2.82999992
   14.85111141   95.93820190    1.98000002    2.80999994
   14.85444450   98.75389862    1.98000002    2.80999994
   14.85722256  101.54199982    2.01999998    2.82999992
   14.85805607   98.53279877    2.01999998    2.80999994
   14.86111164   95.97509766    2.01999998    2.82999992
   14.86444473   97.47360229    2.01999998    2.80999994
   14.86750031   90.80169678    2.00000000    2.82999992
   14.87083340   95.33910370    1.98000002    2.82999992
   14.87694454   95.33910370    1.98000002    2.80999994
   14.88111115   94.70379639    1.98000002    2.80999994
   14.88416672   99.08290100    1.98000002    2.80999994
   14.88749981   96.38159943    1.98000002    2.80999994
   14.89055538   96.44069672    1.98000002    2.80999994
   14.89111137   95.99459839    1.98000002    2.80999994
   14.89416695  100.38600159    1.96000004    2.82999992
   14.89750004   99.55819702    1.91999996    2.82999992
   14.90083313   98.98979950    1.91999996    2.82999992
   14.90388870   95.57140350    1.91999996    2.82999992
   14.90749931   96.37799835    1.91999996    2.82999992
   14.91055489  103.00900269    1.89999998    2.82999992
   14.91388893  107.97599792    1.94000006    2.82999992
   14.91972256  107.97599792    1.91999996    2.80999994
   14.92388916  107.29100037    1.91999996    2.82999992
   14.92444515   96.70999908    1.91999996    2.82999992
   14.92750072   99.69840240    1.89999998    2.82999992
   14.93083382   99.90660095    1.89999998    2.80999994
   14.93388939   99.92680359    1.94000006    2.82999992
   14.93722248  102.20200348    1.91999996    2.82999992
   14.94055557  100.27700043    1.91999996    2.82999992
   14.94361115  100.22799683    1.91999996    2.82999992
   14.94694424   94.90779877    1.94000006    2.82999992
   14.95027733   95.65940094    1.96000004    2.80999994
   14.95361137   96.09909821    1.94000006    2.80999994
   14.95666695  100.96600342    1.91999996    2.82999992
   14.95722198  102.62400055    1.91999996    2.82999992
   14.96249962  102.62400055    1.91999996    2.82999992
   14.96666622  101.28800201    1.91999996    2.82999992
   14.96999931  101.01599884    1.89999998    2.82999992
   14.97305489  104.68900299    1.89999998    2.82999992
   14.97638798  101.10399628    1.91999996    2.82999992
   14.97972202  100.29799652    1.89999998    2.82999992
   14.98277760   94.95050049    1.91999996    2.82999992
   14.98611164   92.63079834    1.91999996    2.82999992
   14.98944473   95.04889679    1.89999998    2.82999992
   14.99055576   96.62760162    1.89999998    2.82999992
   14.99305534  102.46199799    1.89999998    2.82999992
   14.99638939   95.58529663    1.94000006    2.80999994
   14.99944496  104.97299957    1.98000002    2.82999992
   15.00555515  104.97299957    1.91999996    2.82999992
   15.00944424  100.83899689    1.88000000    2.82999992
   15.01277733  102.91699982    1.88000000    2.82999992
   15.01611137   99.39240265    1.94000006    2.82999992
   15.01916599   98.94010162    1.91999996    2.80999994
   15.02250004   99.00160217    1.91999996    2.82999992
   15.02388859  100.62599945    1.91999996    2.82999992
   15.02611065   94.93820190    1.94000006    2.82999992
   15.02944374   96.02539825    1.94000006    2.82999992
   15.03249931   94.98660278    1.91999996    2.82999992
   15.03583336   98.38210297    1.86000001    2.82999992
   15.03888893  100.80400085    1.86000001    2.82999992
   15.04222298   98.70290375    1.80999994    2.82999992
   15.04833412   98.70290375    1.78999996    2.84999990
   15.05249977   91.74349976    1.80999994    2.82999992
   15.05555534   95.55699921    1.80999994    2.82999992
   15.05722237   96.52559662    1.78999996    2.82999992
   15.05916691   99.36979675    1.78999996    2.82999992
   15.06250000  102.43199921    1.76999998    2.84999990
   15.06555557   99.61479950    1.80999994    2.82999992
   15.06888866  100.30400085    1.83000004    2.82999992
   15.07222176  102.49800110    1.83000004    2.82999992
   15.07555580  101.22499847    1.85000002    2.82999992
   15.07861137  106.48400116    1.83000004    2.82999992
   15.08194447   98.32019806    1.78999996    2.82999992
   15.08500004   99.06659698    1.78999996    2.82999992
   15.09111118   99.06659698    1.76999998    2.82999992
   15.09527779  105.78099823    1.78999996    2.82999992
   15.09861088  100.68699646    1.80999994    2.82999992
   15.10166740   93.01920319    1.80999994    2.82999992
   15.10500050   98.25250244    1.80999994    2.82999992
   15.10805607   94.37870026    1.83000004    2.82999992
   15.11138916   90.71119690    1.83000004    2.82999992
   15.11472225   98.03769684    1.83000004    2.82999992
   15.11777782  100.90000153    1.80999994    2.82999992
   15.12111092  108.24299622    1.83000004    2.82999992
   15.12388897  106.01599884    1.83000004    2.82999992
   15.12472248   97.90180206    1.83000004    2.82999992
   15.12805557  100.94899750    1.85000002    2.82999992
   15.13388920  100.94899750    1.85000002    2.82999992
   15.13805580  101.57299805    1.86000001    2.82999992
   15.14138889  100.09400177    1.88000000    2.84999990
   15.14444447   97.52700043    1.89999998    2.82999992
   15.14777756  112.47100067    1.91999996    2.82999992
   15.15111065  107.99800110    1.98000002    2.82999992
   15.15416622  102.59999847    1.98000002    2.82999992
   15.15722179  102.32199860    2.00000000    2.82999992
   15.15777779  110.18199921    1.98000002    2.80999994
   15.16111088  107.20099640    2.00000000    2.82999992
   15.16416645  100.26899719    2.01999998    2.84999990
   15.16750050   99.39320374    1.96000004    2.84999990
   15.17083359  105.05400085    1.94000006    2.82999992
   15.17666721  105.05400085    1.89999998    2.82999992
   15.18083382  103.94699860    1.89999998    2.82999992
   15.18416691  103.38400269    1.86000001    2.82999992
   15.18750000  100.82900238    1.83000004    2.82999992
   15.19055557   95.37519836    1.80999994    2.82999992
   15.19111156   99.39689636    1.78999996    2.82999992
   15.19444466   98.72570038    1.78999996    2.82999992
   15.19750023   98.09719849    1.83000004    2.82999992
   15.20083332   96.18060303    1.83000004    2.82999992
   15.20416641   95.73880005    1.89999998    2.82999992
   15.20722198   91.11650085    1.89999998    2.82999992
   15.21055508  103.31600189    1.89999998    2.82999992
   15.21361065   98.35269928    1.94000006    2.82999992
   15.21972179   98.35269928    1.91999996    2.82999992
   15.22388840  104.12500000    1.94000006    2.84999990
   15.22416592  105.36299896    1.94000006    2.84999990
   15.22749996  101.86499786    1.94000006    2.82999992
   15.23083305  103.07499695    1.94000006    2.82999992
   15.23388958  100.65100098    1.94000006    2.82999992
   15.23722267  100.38899994    1.96000004    2.82999992
   15.24055576   99.44400024    1.94000006    2.82999992
   15.24361134   97.61620331    1.91999996    2.84999990
   15.24694443   97.16089630    1.89999998    2.82999992
   15.25027752  102.79299927    1.91999996    2.84999990
   15.25333309  112.35399628    1.91999996    2.84999990
   15.25666714  102.86000061    1.91999996    2.84999990
   15.25777817  102.34799957    1.86000001    2.82999992
   15.26249981  102.34799957    1.83000004    2.82999992
   15.26666641  100.28800201    1.83000004    2.82999992
   15.26972198  102.87699890    1.78999996    2.82999992
   15.27305508   97.95149994    1.80999994    2.82999992
   15.27638817  101.71900177    1.78999996    2.80999994
   15.27944374   93.89379883    1.78999996    2.80999994
   15.28277779   95.67790222    1.78999996    2.82999992
   15.28611183   98.54010010    1.76999998    2.82999992
   15.28916740   97.81020355    1.76999998    2.82999992
   15.29083347   94.86979675    1.76999998    2.82999992
   15.29277802  103.56400299    1.76999998    2.82999992
   15.29611111   97.68859863    1.76999998    2.82999992
   15.29916668  100.64299774    1.80999994    2.82999992
   15.30527782  100.64299774    1.83000004    2.82999992
   15.30944443  106.64499664    1.85000002    2.84999990
   15.31277752  103.24800110    1.83000004    2.82999992
   15.31611156  105.64399719    1.83000004    2.82999992
   15.31916618   99.64050293    1.83000004    2.84999990
   15.32250023  102.51100159    1.83000004    2.84999990
   15.32416630   98.26069641    1.83000004    2.84999990
   15.32611084  102.73400116    1.83000004    2.82999992
   15.32944393   99.73960114    1.85000002    2.82999992
   15.33249950   87.57340240    1.85000002    2.82999992
   15.33583260   94.31929779    1.85000002    2.82999992
   15.33916664   91.97709656    1.88000000    2.82999992
   15.34222221   98.51779938    1.88000000    2.82999992
   15.34805489   98.51779938    1.86000001    2.82999992
   15.35222244   95.47579956    1.85000002    2.84999990
   15.35555553   96.47820282    1.85000002    2.84999990
   15.35750008   98.46610260    1.85000002    2.84999990
   15.35916710   95.52700043    1.85000002    2.84999990
   15.36250019   96.60669708    1.86000001    2.82999992
   15.36555576   98.52619934    1.86000001    2.82999992
   15.36888885   94.20919800    1.86000001    2.84999990
   15.37222195   97.42359924    1.85000002    2.84999990
   15.37527752   92.61019897    1.85000002    2.84999990
   15.37861156   97.87449646    1.85000002    2.84999990
   15.38194466  100.94000244    1.83000004    2.82999992
   15.38500023   96.78859711    1.80999994    2.82999992
   15.39111137   96.78859711    1.83000004    2.82999992
   15.39527798   99.74279785    1.88000000    2.82999992
   15.39833355   98.58209991    1.88000000    2.82999992
   15.40166664  100.46299744    1.89999998    2.82999992
   15.40472221   94.18560028    1.91999996    2.82999992
   15.40805531   95.16000366    1.94000006    2.84999990
   15.41138840   96.75289917    2.01999998    2.82999992
   15.41444397   92.97720337    2.01999998    2.82999992
   15.41777802   93.16230011    2.01999998    2.82999992
   15.42111111   89.98300171    1.98000002    2.82999992
   15.42416668   92.50810242    1.98000002    2.84999990
   15.42472267   92.25679779    1.98000002    2.84999990
   15.42805576   90.29440308    1.98000002    2.82999992
   15.43388939   90.29440308    2.05999994    2.84999990
   15.43805599   96.44090271    2.05999994    2.82999992
   15.44111156   94.39579773    2.11999989    2.84999990
   15.44444466   93.38480377    2.15000010    2.82999992
   15.44777775   91.54229736    2.17000008    2.80999994
   15.45083332   99.90139771    2.21000004    2.82999992
   15.45416641   93.88680267    2.26999998    2.82999992
   15.45749950   96.13320160    2.28999996    2.82999992
   15.45805550   96.52890015    2.30999994    2.82999992
   15.46111107   93.61579895    2.39000010    2.82999992
   15.46416664   93.92680359    2.36999989    2.82999992
   15.46749973   93.43979645    2.34999990    2.82999992
   15.47083282   98.40309906    2.26999998    2.80999994
   15.47666645   98.40309906    2.21000004    2.82999992
   15.48083305   91.05419922    2.19000006    2.82999992
   15.48416710   94.30220032    2.15000010    2.82999992
   15.48722267   93.78140259    2.15000010    2.82999992
   15.49055576   97.66750336    2.15000010    2.82999992
   15.49138927   97.47619629    2.15000010    2.82999992
   15.49416733   98.52570343    2.13000011    2.82999992
   15.49722290   97.34629822    2.15000010    2.82999992
   15.50055599   94.35140228    2.15000010    2.82999992
   15.50388908   92.74220276    2.15000010    2.82999992
   15.50694466   98.32379913    2.13000011    2.82999992
   15.51027775   95.55539703    2.09999990    2.82999992
   15.51333332   95.10119629    2.09999990    2.82999992
   15.51944447   95.10119629    2.03999996    2.82999992
   15.52361107   98.60980225    2.03999996    2.84999990
   15.52472210   92.91300201    2.03999996    2.82999992
   15.52750015   89.52950287    2.03999996    2.82999992
   15.53055573   92.40419769    2.01999998    2.84999990
   15.53388977   90.92359924    2.00000000    2.84999990
   15.53722286   94.37049866    1.98000002    2.80999994
   15.54027843   93.59449768    1.94000006    2.82999992
   15.54361153   95.48570251    1.96000004    2.82999992
   15.54666710   97.72389984    2.00000000    2.82999992
   15.55000019   97.36489868    2.01999998    2.80999994
   15.55333328   94.96369934    2.03999996    2.80999994
   15.55638885   92.07289886    2.09999990    2.82999992
   15.55805588  100.06300354    2.11999989    2.82999992
   15.56250000  100.06300354    2.13000011    2.82999992
   15.56666660   94.99970245    2.11999989    2.82999992
   15.56972218   95.65419769    2.09999990    2.82999992
   15.57305527   98.25000000    2.07999992    2.82999992
   15.57638836   98.22489929    2.07999992    2.84999990
   15.57944393  104.95099640    2.07999992    2.84999990
   15.58277798  100.15499878    2.11999989    2.84999990
   15.58611107   98.87100220    2.11999989    2.82999992
   15.58916664   96.45950317    2.11999989    2.82999992
   15.59138870   97.06240082    2.09999990    2.82999992
   15.59305477   99.14659882    2.11999989    2.84999990
   15.59611034   94.20230103    2.09999990    2.82999992
   15.59944439   92.16210175    2.07999992    2.82999992
   15.60527802   92.16210175    2.00000000    2.82999992
   15.60944462   95.52249908    2.03999996    2.82999992
   15.61250019   93.57009888    2.07999992    2.82999992
   15.61583328   95.97090149    2.07999992    2.82999992
   15.61916637   90.75450134    2.07999992    2.82999992
   15.62222195   99.10350037    2.05999994    2.82999992
   15.62472248   96.10700226    2.03999996    2.82999992
   15.62611103   99.78780365    2.03999996    2.80999994
   15.62916660   99.86160278    2.05999994    2.84999990
   15.63249969   94.70760345    2.09999990    2.84999990
   15.63583279   98.04149628    2.11999989    2.84999990
   15.63888836   99.93119812    2.11999989    2.82999992
   15.64222240   89.00820160    2.11999989    2.82999992
   15.64805508   89.00820160    2.17000008    2.84999990
   15.65222168   92.23590088    2.21000004    2.82999992
   15.65555477   99.24549866    2.21000004    2.82999992
   15.65805531   92.74629974    2.23000002    2.82999992
   15.65916634   91.39320374    2.23000002    2.82999992
   15.66249943   94.34040070    2.23000002    2.84999990
   15.66555500  101.36499786    2.21000004    2.84999990
   15.66888905   97.04750061    2.26999998    2.82999992
   15.67194462   96.71089935    2.26999998    2.82999992
   15.67527771   94.42659760    2.28999996    2.82999992
   15.67861176   96.00109863    2.26999998    2.80999994
   15.68166733   93.43530273    2.25000000    2.82999992
   15.68500042   99.13200378    2.25000000    2.82999992
   15.69083309   99.13200378    2.26999998    2.82999992
   15.70944405   94.95390320    2.26999998    2.84999990
   15.71249962   98.66699982    2.32999992    2.82999992
   15.71583271   89.87359619    2.28999996    2.82999992
   15.71916580   93.63809967    2.28999996    2.82999992
   15.72222137   96.77480316    2.26999998    2.82999992
   15.72555542   96.27380371    2.30999994    2.82999992
   15.72861099   99.74140167    2.32999992    2.82999992
   15.73388958   99.74140167    2.34999990    2.82999992
   15.73805618   98.69809723    2.36999989    2.82999992
   15.74138927   94.97789764    2.39000010    2.80999994
   15.74222279   95.86959839    2.36999989    2.80999994
   15.74499989   98.57219696    2.39000010    2.82999992
   15.74833393  103.86699677    2.36999989    2.80999994
   15.75138855   98.94049835    2.39000010    2.82999992
   15.75472260  104.05500031    2.34999990    2.80999994
   15.75805569   94.28410339    2.28999996    2.82999992
   15.76111126  100.14399719    2.28999996    2.82999992
   15.76444435   98.91560364    2.26999998    2.82999992
   15.76777744   94.70790100    2.26999998    2.82999992
   15.77083302  104.47699738    2.26999998    2.82999992
   15.77694416  104.47699738    2.28999996    2.82999992
   15.78111076  107.46299744    2.26999998    2.82999992
   15.78416729   99.16660309    2.26999998    2.82999992
   15.78750038  105.30000305    2.25000000    2.82999992
   15.79055595   98.34559631    2.25000000    2.82999992
   15.79388905   97.40139771    2.25000000    2.82999992
   15.79722309  104.76000214    2.26999998    2.80999994
   15.80027771  103.38099670    2.23000002    2.82999992
   15.80361176  111.62799835    2.25000000    2.82999992
   15.80694485   94.16380310    2.25000000    2.82999992
   15.80916691   98.60330200    2.25000000    2.82999992
   15.81027794  104.16200256    2.21000004    2.82999992
   15.81361103  106.27600098    2.25000000    2.82999992
   15.81972218  106.27600098    2.21000004    2.82999992
   15.82388878   94.46579742    2.23000002    2.82999992
   15.82694435   98.11460114    2.21000004    2.80999994
   15.83027744   99.20290375    2.25000000    2.82999992
   15.83361053   93.71640015    2.25000000    2.82999992
   15.83666611  100.79199982    2.26999998    2.82999992
   15.84000015  105.81800079    2.28999996    2.82999992
   15.84249973   95.52780151    2.32999992    2.82999992
   15.84361076   97.05349731    2.30999994    2.82999992
   15.84694386  106.24800110    2.32999992    2.82999992
   15.85000038   98.06710052    2.32999992    2.82999992
   15.85333347  110.99800110    2.36999989    2.82999992
   15.85666752   99.91230011    2.39000010    2.82999992
   15.86250019   99.91230011    2.42000008    2.82999992
   15.86666679  104.02300262    2.42000008    2.82999992
   15.86999989  105.03399658    2.42000008    2.82999992
   15.87305546  110.12999725    2.39000010    2.84999990
   15.87583351  114.55699921    2.40000010    2.82999992
   15.87666702  112.38300323    2.40000010    2.82999992
   15.88000011  110.94300079    2.39000010    2.82999992
   15.88333321  123.44699860    2.34999990    2.82999992
   15.88638878  115.51499939    2.32999992    2.82999992
   15.88972187  102.53199768    2.34999990    2.82999992
   15.89277744  103.25700378    2.32999992    2.82999992
   15.89611053  102.81999969    2.32999992    2.82999992
   15.89944458  104.52300262    2.39000010    2.82999992
   15.90527725  104.52300262    2.48000002    2.80999994
   15.90944386  105.43699646    2.46000004    2.82999992
   15.91277695  103.15499878    2.44000006    2.82999992
   15.91611099  107.54100037    2.42000008    2.82999992
   15.91916656  107.05999756    2.40000010    2.82999992
   15.92250061  114.91899872    2.42000008    2.82999992
   15.92555618  108.72899628    2.40000010    2.80999994
   15.92888927  114.35500336    2.42000008    2.82999992
   15.93222237  114.27899933    2.34999990    2.82999992
   15.93527794  115.46399689    2.30999994    2.82999992
   15.93861103  107.40399933    2.28999996    2.82999992
   15.94194412  105.02899933    2.28999996    2.82999992
   15.94250011  117.09200287    2.28999996    2.82999992
   15.94833374  117.09200287    2.30999994    2.82999992
   15.95249939  109.61799622    2.32999992    2.82999992
   15.95555496  113.14800262    2.30999994    2.82999992
   15.95888901  109.85900116    2.25000000    2.82999992
   15.96194458   95.99479675    2.25000000    2.82999992
   15.96527767  103.32700348    2.23000002    2.82999992
   15.96861076  102.82599640    2.23000002    2.84999990
   15.97166634  101.56400299    2.23000002    2.84999990
   15.97499943   98.15899658    2.21000004    2.84999990
   15.97583294   96.52559662    2.21000004    2.82999992
   15.97861099  100.62200165    2.19000006    2.82999992
   15.98194408  106.76599884    2.25000000    2.82999992
   15.98527813   95.90229797    2.21000004    2.82999992
   15.99111176   95.90229797    2.23000002    2.82999992
   15.99527836  113.67900085    2.28999996    2.82999992
   15.99833393  105.72699738    2.30999994    2.82999992
   16.00166702  101.15000153    2.32999992    2.82999992
   16.00499916   97.80570221    2.28999996    2.80999994
   16.00805473  105.64600372    2.28999996    2.82999992
   16.00916672  115.10299683    2.30999994    2.82999992
   16.01166725  104.99900055    2.32999992    2.82999992
   16.01499939  105.08599854    2.32999992    2.82999992
   16.01833344  103.04199982    2.34999990    2.82999992
   16.02138901  100.61000061    2.32999992    2.82999992
   16.02472115  108.04799652    2.32999992    2.82999992
   16.02777672   98.69799805    2.34999990    2.82999992
   16.03388786   98.69799805    2.34999990    2.82999992
   16.03805542   94.21710205    2.32999992    2.80999994
   16.04138756  102.76999664    2.32999992    2.80999994
   16.04249954  104.26100159    2.34999990    2.82999992
   16.04472160  101.43399811    2.32999992    2.82999992
   16.04805565  100.56400299    2.32999992    2.82999992
   16.05138779  102.22899628    2.28999996    2.84999990
   16.05444336   92.30259705    2.26999998    2.82999992
   16.05777740   95.71649933    2.25000000    2.82999992
   16.06083298  107.85099792    2.25000000    2.82999992
   16.06416512  116.15799713    2.21000004    2.82999992
   16.06750107  111.80999756    2.17000008    2.82999992
   16.07055664  103.83699799    2.19000006    2.82999992
   16.07666779  103.83699799    2.11999989    2.84999990
   16.08083344  106.44200134    2.11999989    2.82999992
   16.08416748  100.44000244    2.05999994    2.84999990
   16.08750153  101.86799622    2.07999992    2.82999992
   16.09055710   96.42220306    2.03999996    2.84999990
   16.09388924  106.42600250    2.09999990    2.82999992
   16.09722328  100.08300018    2.11999989    2.84999990
   16.10027885   96.79360199    2.15000010    2.82999992
   16.10361099  103.02600098    2.13000011    2.82999992
   16.10666656  103.17900085    2.15000010    2.82999992
   16.10916710   90.88339996    2.17000008    2.82999992
   16.11027908   96.78720093    2.17000008    2.82999992
   16.11361122   95.80339813    2.19000006    2.84999990
   16.11972237   95.80339813    2.15000010    2.84999990
   16.12388992   99.14119720    2.17000008    2.84999990
   16.12694550   98.47679901    2.17000008    2.84999990
   16.13027763  101.76799774    2.19000006    2.82999992
   16.13333321  107.37500000    2.21000004    2.82999992
   16.13666725  100.72399902    2.23000002    2.82999992
   16.13999939   99.44619751    2.25000000    2.84999990
   16.14249992  105.46700287    2.23000002    2.84999990
   16.14333344  102.94899750    2.25000000    2.84999990
   16.14666748  102.26399994    2.25000000    2.82999992
   16.14999962  101.30500031    2.25000000    2.82999992
   16.15305519   95.11630249    2.21000004    2.84999990
   16.15638924  108.51799774    2.19000006    2.82999992
   16.16250038  108.51799774    2.23000002    2.82999992
   16.16666603  103.12799835    2.26999998    2.82999992
   16.16972160  105.80300140    2.28999996    2.82999992
   16.17305565   96.44360352    2.25000000    2.82999992
   16.17583275   94.30780029    2.28999996    2.82999992
   16.17666626  102.83399963    2.26999998    2.84999990
   16.18000031  105.20300293    2.28999996    2.84999990
   16.18333244  106.74400330    2.28999996    2.82999992
   16.18638802  104.14700317    2.28999996    2.82999992
   16.18972206  103.69899750    2.28999996    2.82999992
   16.19277763  105.18699646    2.26999998    2.82999992
   16.19610977  104.65599823    2.23000002    2.82999992
   16.19944382   96.62390137    2.23000002    2.82999992
   16.20527840   96.62390137    2.26999998    2.82999992
   16.20944595  101.23200226    2.28999996    2.84999990
   16.21277809  100.14499664    2.26999998    2.82999992
   16.21583366  101.83000183    2.28999996    2.82999992
   16.21916771  100.00099945    2.32999992    2.82999992
   16.22249985  103.52100372    2.32999992    2.82999992
   16.22555542   98.70220184    2.32999992    2.84999990
   16.22888947   98.04049683    2.30999994    2.82999992
   16.23194504   98.95520020    2.30999994    2.82999992
   16.23527718   95.59860229    2.30999994    2.82999992
   16.23861122  101.28600311    2.30999994    2.82999992
   16.24166679  103.27100372    2.39000010    2.82999992
   16.24250031   97.62760162    2.39000010    2.82999992
   16.24805641   97.62760162    2.44000006    2.82999992
   16.25222206   95.54859924    2.42000008    2.82999992
   16.25555611   96.74299622    2.44000006    2.84999990
   16.25888824  101.71099854    2.46000004    2.82999992
   16.26194382  110.06800079    2.44000006    2.82999992
   16.26527786  100.32199860    2.40000010    2.82999992
   16.26861000  101.09700012    2.42000008    2.82999992
   16.27166557  100.39299774    2.40000010    2.82999992
   16.27499962  105.94599915    2.39000010    2.82999992
   16.27583313   99.02020264    2.39000010    2.82999992
   16.27833366  102.29499817    2.36999989    2.82999992
   16.28166580  101.82700348    2.46000004    2.80999994
   16.28499985   98.80149841    2.48000002    2.82999992
   16.29111099   98.80149841    2.50000000    2.82999992
   16.29527664   99.18540192    2.48000002    2.82999992
   16.29833221  106.80100250    2.50000000    2.82999992
   16.30166626   99.39140320    2.55999994    2.82999992
   16.30472183  106.54000092    2.59999990    2.82999992
   16.30805397  103.51300049    2.64000010    2.82999992
   16.30916595   99.44259644    2.64000010    2.80999994
   16.31166649  100.06500244    2.66000009    2.82999992
   16.31499863  100.09799957    2.67000008    2.82999992
   16.31833458  102.99800110    2.67000008    2.80999994
   16.32139015   98.86599731    2.66000009    2.82999992
   16.32472229   95.54859924    2.66000009    2.82999992
   16.32805634  101.58399963    2.64000010    2.82999992
   16.33388901  101.58399963    2.61999989    2.82999992
   16.33805656   91.87359619    2.59999990    2.82999992
   16.34138870  101.35199738    2.61999989    2.80999994
   16.34250069  106.13800049    2.67000008    2.82999992
   16.34472275   96.70700073    2.67000008    2.82999992
   16.34805679  104.96299744    2.67000008    2.82999992
   16.35138893  107.12100220    2.71000004    2.82999992
   16.35472298  101.14700317    2.73000002    2.80999994
   16.35777855   99.94589996    2.76999998    2.80999994
   16.36111069  102.40499878    2.80999994    2.80999994
   16.36444473   97.17240143    2.78999996    2.82999992
   16.36750031  101.78800201    2.76999998    2.80999994
   16.37083435  102.89099884    2.80999994    2.80999994
   16.37666702  102.89099884    2.76999998    2.80999994
   16.38083267   99.10269928    2.71000004    2.80999994
   16.38416672   96.74019623    2.69000006    2.82999992
   16.38722229   92.81390381    2.69000006    2.82999992
   16.39055634   95.16190338    2.61999989    2.82999992
   16.39388847   87.88249969    2.57999992    2.82999992
   16.39694405   97.92160034    2.51999998    2.82999992
   16.40027809   96.74199677    2.50000000    2.82999992
   16.40333366   95.17890167    2.48000002    2.82999992
   16.40666580   94.56529999    2.46000004    2.82999992
   16.40916634  112.59300232    2.46000004    2.82999992
   16.41027832  101.48300171    2.44000006    2.82999992
   16.41361046   95.41159821    2.46000004    2.82999992
   16.41944313   95.41159821    2.44000006    2.82999992
   16.42361069  100.03299713    2.44000006    2.82999992
   16.42694473  102.92900085    2.44000006    2.82999992
   16.43027687  101.20300293    2.39000010    2.84999990
   16.43333244  100.25599670    2.39000010    2.82999992
   16.43666649   94.62760162    2.34999990    2.82999992
   16.43999863   99.15709686    2.36999989    2.82999992
   16.44249916   97.89379883    2.36999989    2.82999992
   16.44333267   94.28130341    2.36999989    2.82999992
   16.44666672   97.85050201    2.36999989    2.84999990
   16.45000076   99.35050201    2.39000010    2.82999992
   16.45305634   92.85600281    2.50000000    2.80999994
   16.45639038   92.50160217    2.66000009    2.82999992
   16.46250153   92.50160217    2.71000004    2.82999992
   16.46666718   92.50939941    2.75000000    2.82999992
   16.46972275  108.51599884    2.75000000    2.82999992
   16.47305679   96.65820313    2.73000002    2.82999992
   16.47583389  107.75499725    2.69000006    2.80999994
   16.47638893   98.15899658    2.69000006    2.80999994
   16.47972298   95.49649811    2.67000008    2.82999992
   16.48305511   96.97070313    2.67000008    2.82999992
   16.48611069   91.96579742    2.69000006    2.82999992
   16.48944473  101.18900299    2.76999998    2.80999994
   16.49277878  106.66899872    2.80999994    2.82999992
   16.49583435   93.85079956    2.86999989    2.82999992
   16.49916649   98.24250031    2.91000009    2.80999994
   16.50527763   98.24250031    3.01999998    2.80999994
   16.50944519   99.08719635    3.09999990    2.82999992
   16.51250076   96.29799652    3.11999989    2.80999994
   16.51583290   95.05180359    3.14000010    2.80999994
   16.51916695  100.86199951    3.14000010    2.80999994
   16.52222252   91.63230133    3.16000009    2.80999994
   16.52555466  103.88099670    3.25000000    2.80999994
   16.52861023  102.97399902    3.28999996    2.80999994
   16.53194427  104.26399994    3.32999992    2.80999994
   16.53527641  100.13300323    3.36999989    2.80999994
   16.53833199   95.48979950    3.34999990    2.78999996
   16.54166603   91.70590210    3.34999990    2.80999994
   16.54249954  103.46199799    3.32999992    2.82999992
   16.54805565  103.46199799    3.26999998    2.80999994
   16.55222130  102.62599945    3.23000002    2.80999994
   16.55555534  105.63200378    3.23000002    2.80999994
   16.55861092   95.93260193    3.20000005    2.80999994
   16.56194305  101.23899841    3.18000007    2.82999992
   16.56499863   94.28160095    3.11999989    2.82999992
   16.56833458   96.84609985    3.09999990    2.82999992
   16.57166672   99.46990204    3.09999990    2.82999992
   16.57472229   93.29139709    3.09999990    2.82999992
   16.57583427  102.44499969    3.09999990    2.82999992
   16.57833481   94.85729980    3.05999994    2.82999992
   16.58166695   89.27110291    3.01999998    2.82999992
   16.58500099   95.32820129    2.98000002    2.82999992
   16.59083366   95.32820129    2.96000004    2.80999994
   16.59500122   95.61660004    2.94000006    2.82999992
   16.59833336   91.29989624    2.91000009    2.82999992
   16.60166740   96.12950134    2.89000010    2.80999994
   16.60472298   94.42870331    2.86999989    2.82999992
   16.60805511   97.09680176    2.82999992    2.80999994
   16.60916710   96.34290314    2.82999992    2.82999992
   16.61166763   94.13369751    2.80999994    2.82999992
   16.61499977   99.25319672    2.78999996    2.82999992
   16.61833382   97.50360107    2.73000002    2.82999992
   16.62138939  101.66999817    2.64000010    2.82999992
   16.62472153  102.55300140    2.57999992    2.82999992
   16.62805557  102.71399689    2.51999998    2.82999992
   16.63388824  102.71399689    2.34999990    2.84999990
   16.63777733  102.11599731    2.25000000    2.84999990
   16.64111137   96.14830017    2.19000006    2.84999990
   16.64249992   97.17630005    2.23000002    2.82999992
   16.64472198  100.02400208    2.23000002    2.84999990
   16.64805603   98.93820190    2.23000002    2.84999990
   16.65138817   95.42009735    2.34999990    2.82999992
   16.65444374   95.15209961    2.32999992    2.84999990
   16.65777779   99.30609894    2.30999994    2.84999990
   16.66110992   98.83070374    2.26999998    2.84999990
   16.66416550   98.35289764    2.21000004    2.84999990
   16.66749954   91.58489990    2.21000004    2.82999992
   16.67055511   89.03849792    2.21000004    2.84999990
   16.67666626   89.03849792    2.13000011    2.84999990
   16.68083191   89.05039978    2.01999998    2.84999990
   16.68388748   86.16609955    2.01999998    2.84999990
   16.68722153   90.51689911    2.03999996    2.84999990
   16.69055557   95.20760345    2.03999996    2.84999990
   16.69361115  101.28199768    2.05999994    2.82999992
   16.69694328   97.52619934    2.09999990    2.82999992
   16.70027924   94.79199982    2.09999990    2.84999990
   16.70333481   96.22589874    2.07999992    2.84999990
   16.70666695   96.08110046    2.03999996    2.82999992
   16.70916748   94.80819702    2.05999994    2.84999990
   16.72972298   94.80819702    1.89999998    2.82999992
   16.73388863   95.72930145    1.91999996    2.82999992
   16.73722267  101.36000061    1.94000006    2.84999990
   16.74027824  102.13500214    1.96000004    2.84999990
   16.74250031   94.12000275    1.94000006    2.84999990
   16.74416733   97.99389648    1.94000006    2.84999990
   16.74722290   99.69190216    1.91999996    2.84999990
   16.75055504   99.73750305    1.96000004    2.82999992
   16.75361061  102.71600342    1.98000002    2.84999990
   16.75694466   97.92199707    1.98000002    2.84999990
   16.76027870  104.74800110    1.98000002    2.84999990
   16.76333427  102.80100250    2.11999989    2.82999992
   16.76666641   98.22969818    2.11999989    2.82999992
   16.77249908   98.22969818    2.17000008    2.86999989
   16.77666664   91.78240204    2.19000006    2.82999992
   16.77972221   92.69999695    2.17000008    2.84999990
   16.78305435   95.06610107    2.19000006    2.84999990
   16.78638840   93.34390259    2.15000010    2.82999992
   16.78944397   93.61219788    2.11999989    2.82999992
   16.79277802   96.48290253    2.11999989    2.82999992
   16.79611015   89.04060364    2.09999990    2.82999992
   16.79916573  100.27999878    2.09999990    2.82999992
   16.80249977  102.68099976    2.07999992    2.82999992
   16.80555534  107.49900055    2.05999994    2.82999992
   16.80888748   98.28299713    2.05999994    2.82999992
   16.80944443  101.50700378    2.05999994    2.82999992
   16.81527710  101.50700378    2.03999996    2.82999992
   16.81944466  104.55699921    2.01999998    2.82999992
   16.82277870  100.97200012    1.98000002    2.84999990
   16.82583427  101.35399628    1.98000002    2.82999992
   16.82916832  100.27300262    2.00000000    2.84999990
   16.83250046  103.69999695    2.00000000    2.82999992
   16.83555603  102.31300354    2.01999998    2.82999992
   16.83889008  101.03700256    2.05999994    2.82999992
   16.84194565  102.37699890    2.05999994    2.82999992
   16.84277916   98.98529816    2.07999992    2.82999992
   16.84583473   95.40290070    2.11999989    2.82999992
   16.84889030  100.92700195    2.09999990    2.82999992
   16.85222244   96.14949799    2.05999994    2.82999992
   16.85805511   96.14949799    2.05999994    2.82999992
   16.86222267   93.92130280    2.01999998    2.82999992
   16.86555672  103.28099823    2.01999998    2.84999990
   16.86888885   90.24150085    2.01999998    2.84999990
   16.87194443   91.97190094    2.00000000    2.82999992
   16.87527847   93.00289917    1.98000002    2.84999990
   16.87611198  101.33399963    1.98000002    2.82999992
   16.87888908   93.10769653    1.98000002    2.84999990
   16.88194466   95.98690033    1.94000006    2.84999990
   16.88527679   99.22570038    1.94000006    2.82999992
   16.88833237  100.75599670    1.91999996    2.84999990
   16.89166641  101.35800171    1.94000006    2.84999990
   16.89500046   99.79930115    1.94000006    2.82999992
   16.90111160   99.79930115    1.91999996    2.84999990
   16.90527725  105.35299683    1.91999996    2.82999992
   16.90833282  102.00000000    1.91999996    2.82999992
   16.90944481   96.80639648    1.91999996    2.82999992
   16.91222191   98.52529907    1.94000006    2.84999990
   16.91527748   98.11620331    2.00000000    2.82999992
   16.91860962   97.32679749    2.03999996    2.82999992
   16.92194366  102.14900208    2.07999992    2.82999992
   16.92499924   96.27149963    2.07999992    2.82999992
   16.92833328  103.72200012    2.09999990    2.82999992
   16.93166542   98.76679993    2.09999990    2.82999992
   16.93472099   96.16649628    2.11999989    2.82999992
   16.93805504  102.44699860    2.11999989    2.82999992
   16.94388771  102.44699860    2.15000010    2.82999992
   16.94805527   95.47329712    2.21000004    2.82999992
   16.95138931   96.82610321    2.21000004    2.82999992
   16.95444489   91.01930237    2.21000004    2.82999992
   16.95777893   97.01080322    2.26999998    2.82999992
   16.96083450   95.98660278    2.25000000    2.82999992
   16.96416664   95.26059723    2.26999998    2.82999992
   16.96750069   97.88549805    2.28999996    2.80999994
   16.97055626   91.23670197    2.30999994    2.82999992
   16.97389030   96.22959900    2.30999994    2.82999992
   16.97611237   98.54669952    2.28999996    2.82999992
   16.97750092   94.74970245    2.30999994    2.80999994
   16.98055649   91.40519714    2.32999992    2.82999992
   16.98666763   91.40519714    2.32999992    2.82999992
   16.99083328   99.23889923    2.34999990    2.82999992
   16.99416733   98.45880127    2.32999992    2.82999992
   16.99722290   89.41300201    2.32999992    2.82999992
   17.00055504  102.53500366    2.34999990    2.82999992
   17.00388908   99.24179840    2.39000010    2.80999994
   17.00694466   97.80639648    2.40000010    2.82999992
   17.00944519   94.96530151    2.40000010    2.80999994
   17.01083374   98.70120239    2.44000006    2.82999992
   17.01388931   96.98059845    2.42000008    2.82999992
   17.01722145   94.50219727    2.44000006    2.80999994
   17.02055550   96.76609802    2.44000006    2.82999992
   17.02361107   95.23200226    2.44000006    2.82999992
   17.02972221   95.23200226    2.50000000    2.82999992
   17.03361130   92.79329681    2.48000002    2.80999994
   17.03694344   92.67130280    2.48000002    2.82999992
   17.04027748   97.44640350    2.48000002    2.80999994
   17.04277802   94.99140167    2.48000002    2.80999994
   17.04388809   93.84860229    2.50000000    2.80999994
   17.04722214   94.34169769    2.50000000    2.80999994
   17.05027771   97.01930237    2.53999996    2.80999994
   17.05360985   93.54129791    2.51999998    2.82999992
   17.05666542   93.40080261    2.51999998    2.80999994
   17.05999947   89.77549744    2.53999996    2.80999994
   17.06333351  100.31199646    2.53999996    2.80999994
   17.06638718   98.97570038    2.55999994    2.82999992
   17.07250023   98.97570038    2.55999994    2.80999994
   17.07666779  100.69699860    2.57999992    2.80999994
   17.07972336   94.67890167    2.59999990    2.80999994
   17.08305550   97.86679840    2.61999989    2.82999992
   17.08638954   95.47730255    2.61999989    2.80999994
   17.08944511   99.51419830    2.66000009    2.80999994
   17.09277916   95.55940247    2.69000006    2.80999994
   17.09583473   97.24369812    2.71000004    2.80999994
   17.09916687  101.02799988    2.73000002    2.80999994
   17.10250092   96.40560150    2.73000002    2.80999994
   17.10555649   94.96849823    2.73000002    2.80999994
   17.10888863   89.62059784    2.75000000    2.80999994
   17.10944557   98.85269928    2.75000000    2.80999994
   17.11527824   98.85269928    2.73000002    2.80999994
   17.11944389   93.92769623    2.71000004    2.80999994
   17.12277794   95.15139771    2.73000002    2.80999994
   17.12583351   93.14040375    2.73000002    2.80999994
   17.12916756   93.63439941    2.73000002    2.80999994
   17.13222313   96.69339752    2.73000002    2.82999992
   17.13555527  100.38300323    2.71000004    2.80999994
   17.13888931  104.62000275    2.69000006    2.82999992
   17.14194489   94.84089661    2.67000008    2.82999992
   17.14277840  101.56600189    2.67000008    2.82999992
   17.14583397   94.82270050    2.69000006    2.80999994
   17.14888954  110.11199951    2.73000002    2.80999994
   17.15222168   94.73090363    2.75000000    2.80999994
   17.15805435   94.73090363    2.73000002    2.80999994
   17.16222191   96.80709839    2.75000000    2.80999994
   17.16555595  102.26599884    2.76999998    2.80999994
   17.16888809   98.12560272    2.78999996    2.82999992
   17.17194366   99.01439667    2.80999994    2.80999994
   17.17527771   96.47239685    2.78999996    2.80999994
   17.17611122   97.21170044    2.78999996    2.80999994
   17.17888832   95.32980347    2.80999994    2.82999992
   17.18222237   93.00669861    2.80999994    2.82999992
   17.18527603  105.47699738    2.78999996    2.80999994
   17.18861008   98.90049744    2.80999994    2.80999994
   17.19166565   90.22299957    2.80999994    2.80999994
   17.19499969   95.15540314    2.80999994    2.80999994
   17.20111275   95.15540314    2.78999996    2.80999994
   17.20555687   94.09500122    2.78999996    2.82999992
   17.20861244  101.12699890    2.76999998    2.82999992
   17.20944595  103.28800201    2.76999998    2.82999992
   17.21250153   96.98049927    2.80999994    2.82999992
   17.21555710   94.36730194    2.80999994    2.80999994
   17.21888924   98.71700287    2.80999994    2.80999994
   17.22222328   95.04989624    2.80999994    2.78999996
   17.22527885   97.06250000    2.82999992    2.80999994
   17.22861099   96.33830261    2.86999989    2.80999994
   17.23166656   97.06430054    2.84999990    2.80999994
   17.23500061   97.59770203    2.86999989    2.80999994
   17.23833275   90.20259857    2.86999989    2.80999994
   17.24388885   90.20259857    2.86999989    2.82999992
   17.24805641   93.00949860    2.82999992    2.82999992
   17.25111198   97.01499939    2.82999992    2.82999992
   17.25444412   92.74629974    2.84999990    2.80999994
   17.25777817   90.83010101    2.91000009    2.82999992
   17.26083374   90.44560242    2.96000004    2.80999994
   17.26416588   90.61150360    2.94000006    2.80999994
   17.26722145   95.73539734    2.93000007    2.80999994
   17.27055550   98.49579620    2.89000010    2.82999992
   17.27388954   97.42530060    2.94000006    2.80999994
   17.27611160   89.66390228    2.94000006    2.80999994
   17.27750015   90.68939972    2.93000007    2.80999994
   17.28055573   92.49539948    2.91000009    2.82999992
   17.28666687   92.49539948    3.00000000    2.80999994
   17.29083252   90.34230042    3.07999992    2.80999994
   17.29416656   93.00240326    3.09999990    2.80999994
   17.29722214   89.51950073    3.05999994    2.80999994
   17.30055428   91.87709808    3.05999994    2.80999994
   17.30360985   93.19979858    2.96000004    2.78999996
   17.30694389   97.43650055    2.98000002    2.80999994
   17.30944443   90.90989685    2.96000004    2.80999994
   17.31055450   89.23280334    2.96000004    2.80999994
   17.31361008   91.36569977    2.94000006    2.80999994
   17.31694603   96.22489929    2.86999989    2.80999994
   17.32027817   95.82089996    2.80999994    2.80999994
   17.32333374   92.80500031    2.80999994    2.80999994
   17.32944489   92.80500031    2.75000000    2.82999992
   17.33361244   95.62689972    2.71000004    2.80999994
   17.33694458   95.62560272    2.69000006    2.80999994
   17.34000015   98.31479645    2.67000008    2.82999992
   17.34277916   93.12999725    2.66000009    2.80999994
   17.34388924   98.74490356    2.66000009    2.80999994
   17.34694481   91.65709686    2.64000010    2.82999992
   17.35027885   98.15989685    2.59999990    2.80999994
   17.35361099   93.67680359    2.57999992    2.82999992
   17.35666656  103.58000183    2.57999992    2.80999994
   17.36000061   90.31770325    2.55999994    2.80999994
   17.36333466   96.58830261    2.53999996    2.82999992
   17.36638832   91.81719971    2.57999992    2.82999992
   17.37222290   91.81719971    2.59999990    2.80999994
   17.37638855   98.51650238    2.59999990    2.80999994
   17.37972260   95.25129700    2.61999989    2.82999992
   17.38305473   99.10050201    2.61999989    2.82999992
   17.38638878   97.71469879    2.64000010    2.82999992
   17.38944435   95.61389923    2.66000009    2.80999994
   17.39277840   92.11060333    2.67000008    2.80999994
   17.39583397   92.41819763    2.71000004    2.80999994
   17.39916611   93.44819641    2.71000004    2.80999994
   17.40250015  102.31999969    2.71000004    2.80999994
   17.40555573   97.52279663    2.71000004    2.80999994
   17.40888786   97.80280304    2.69000006    2.80999994
   17.40944481  102.12300110    2.69000006    2.80999994
   17.41527748  102.12300110    2.75000000    2.80999994
   17.41944313   94.29759979    2.73000002    2.80999994
   17.42305565   90.45169830    2.73000002    2.80999994
   17.42611122   95.29889679    2.71000004    2.80999994
   17.42944336   94.83390045    2.69000006    2.80999994
   17.43249893   96.75679779    2.71000004    2.80999994
   17.43583298   97.74880219    2.75000000    2.80999994
   17.43916512   97.71240234    2.75000000    2.80999994
   17.44222069   93.05529785    2.75000000    2.80999994
   17.44277763   93.93350220    2.75000000    2.80999994
   17.44583321   88.30930328    2.76999998    2.80999994
   17.44888878   93.48529816    2.73000002    2.80999994
   17.45222282   92.32330322    4.90999985    2.98000002
   17.45805550   92.32330322    0.15000001    0.25999999
   17.46222305   91.49140167    0.11000000    0.07000000
   17.46555710   92.68270111    0.11000000    0.07000000
   17.46861076   93.16339874    0.11000000    0.07000000
   17.47194481   96.82189941    0.11000000    0.07000000
   17.47527885   99.91410065    0.11000000    0.07000000
   17.47611237   92.13110352    0.11000000    0.07000000
   17.47888947   93.41249847    0.11000000    0.07000000
   17.48222351   94.54029846    0.11000000    0.07000000
   17.48527718   94.03150177    0.11000000    0.07000000
   17.48861122   93.43810272    0.11000000    0.07000000
   17.49166679   91.52649689    0.11000000    0.07000000
   17.49500084   91.34110260    0.11000000    0.07000000
   17.50083351   91.34110260    0.11000000    0.07000000
   17.50499916   92.22969818    0.11000000    0.07000000
   17.50833321  102.02400208    0.11000000    0.07000000
   17.50944519   95.10659790    0.11000000    0.07000000
   17.51194382   94.48040009    0.11000000    0.07000000
   17.51527786   88.58740234    0.11000000    0.07000000
   17.51833344   88.06960297    0.11000000    0.07000000
   17.52166557   91.61710358    0.11000000    0.07000000
   17.52472115   88.52860260    0.11000000    0.07000000
   17.52805519   90.03679657    0.11000000    0.07000000
   17.53138924   96.81539917    0.11000000    0.07000000
   17.53444481   89.49169922    0.11000000    0.07000000
   17.53777695   92.77510071    0.11000000    0.07000000
   17.54388809   92.77510071    0.11000000    0.07000000
   17.54777718   97.96679688    0.11000000    0.07000000
   17.55111122   97.63780212    0.11000000    0.07000000
   17.55444336   92.47280121    0.11000000    0.07000000
   17.55749893   92.32119751    0.11000000    0.07000000
   17.56083298   94.11350250    0.11000000    0.07000000
   17.56388855   93.90080261    0.11000000    0.07000000
   17.56722260   93.01740265    0.11000000    0.07000000
   17.57055664   99.99600220    0.11000000    0.07000000
   17.57361221   97.59130096    0.11000000    0.07000000
   17.57611275   93.54509735    0.11000000    0.07000000
   17.57722282   93.14389801    0.11000000    0.07000000
   17.58055687   96.00920105    0.11000000    0.07000000
   17.58666801   96.00920105    0.11000000    0.07000000
   17.59083366   91.29149628    0.11000000    0.07000000
   17.59388924   98.32260132    0.11000000    0.07000000
   17.59722328   95.07319641    0.11000000    0.07000000
   17.60027885   99.35810089    0.11000000    0.07000000
   17.60361099   88.33509827    0.11000000    0.07000000
   17.60694504   93.17960358    0.11000000    0.07000000
   17.60944557   93.20200348    0.11000000    0.07000000
   17.61055565   94.68099976    0.11000000    0.07000000
   17.61388969   92.25879669    0.11000000    0.07000000
   17.61694527   92.56500244    0.11000000    0.07000000
   17.62027740   95.24870300    0.11000000    0.07000000
   17.62333298   94.32309723    0.11000000    0.07000000
   17.62944412   94.32309723    0.11000000    0.07000000
   17.63361168   92.63629913    0.11000000    0.07000000
   17.63694382   96.96610260    0.11000000    0.07000000
   17.63999939   90.39119720    0.11000000    0.07000000
   17.64277840   87.63339996    0.11000000    0.07000000
   17.64361191   99.06670380    0.11000000    0.07000000
   17.64694405  100.68599701    0.11000000    0.07000000
   17.64999962   97.94689941    0.11000000    0.07000000
   17.65333366   94.61769867    0.11000000    0.07000000
   17.65666580  103.25099945    0.11000000    0.07000000
   17.65972137   96.72850037    0.11000000    0.07000000
   17.66305542   91.38829803    0.11000000    0.07000000
   17.66611099   99.03790283    0.11000000    0.07000000
   17.67222214   99.03790283    0.11000000    0.07000000
   17.67638779   97.01550293    0.11000000    0.07000000
   17.67972183   95.01540375    0.11000000    0.07000000
   17.68277740   92.78540039    0.11000000    0.07000000
   17.68610954   91.96710205    0.11000000    0.07000000
   17.68944359   90.97889709    0.11000000    0.07000000
   17.69249916   94.08959961    0.11000000    0.07000000
   17.69583321   92.34049988    0.11000000    0.07000000
   17.69888878   92.87840271    0.11000000    0.07000000
   17.70222282   87.75389862    0.11000000    0.07000000
   17.70555687   95.11630249    0.11000000    0.07000000
   17.70861244   97.67749786    0.11000000    0.07000000
   17.70944595   90.82029724    0.11000000    0.07000000
   17.71500015   90.82029724    0.11000000    0.07000000
   17.71916771   95.04409790    0.11000000    0.07000000
   17.72249985   95.19309998    0.11000000    0.07000000
   17.72583389   97.82900238    0.11000000    0.07000000
   17.74333382   91.87030029    0.11000000    0.07000000
   17.74583435   95.40260315    0.11000000    0.07000000
   17.74888992   99.06259918    0.11000000    0.07000000
   17.75222206   95.53389740    0.11000000    0.07000000
   17.75805473   95.53389740    0.11000000    0.07000000
   17.76222229   95.05480194    0.11000000    0.07000000
   17.76555634   96.10310364    0.11000000    0.07000000
   17.76861000   94.85980225    0.11000000    0.07000000
   17.77194405   96.31210327    0.11000000    0.07000000
   17.77527809   94.12239838    0.11000000    0.07000000
   17.77666664   97.58930206    0.11000000    0.07000000
   17.77861023   94.06900024    0.11000000    0.07000000
   17.78194427  100.60299683    0.11000000    0.07000000
   17.78527641   95.44589996    0.11000000    0.07000000
   17.78833199   94.64769745    0.11000000    0.07000000
   17.79166603   92.45700073    0.11000000    0.07000000
   17.79472160   96.19889832    0.11000000    0.07000000
   17.80111122   96.19889832    0.11000000    0.07000000
   17.80499840   93.36789703    0.11000000    0.07000000
   17.80833244   91.90730286    0.11000000    0.07000000
   17.80999947   91.34960175    0.11000000    0.07000000
   17.81194305   96.41380310    0.11000000    0.07000000
   17.81527710   93.52339935    0.11000000    0.07000000
   17.81861115   93.47899628    0.11000000    0.07000000
   17.82166672   94.29830170    0.11000000    0.07000000
   17.82500076   97.83979797    0.11000000    0.07000000
   17.82833481   97.56109619    0.11000000    0.07000000
   17.83139038   95.81150055    0.11000000    0.07000000
   17.83472252  102.76399994    0.11000000    0.07000000
   17.83805656   96.19329834    0.11000000    0.07000000
   17.84388924   96.19329834    0.11000000    0.07000000
   17.84805679   94.18090057    0.11000000    0.07000000
   17.85111237   95.77709961    0.11000000    0.07000000
   17.85444450   93.81169891    0.11000000    0.07000000
   17.85777855   94.76689911    0.11000000    0.07000000
   17.86083412   91.37670135    0.11000000    0.07000000
   17.86416626   95.11820221    0.11000000    0.07000000
   17.86722183   92.95149994    0.11000000    0.07000000
   17.87055588   97.94640350    0.11000000    0.07000000
   17.87388992   93.63899994    0.11000000    0.07000000
   17.87666702   94.11569977    0.11000000    0.07000000
   17.87722206   94.39499664    0.11000000    0.07000000
   17.88055611   91.56500244    0.11000000    0.07000000
   17.88666725   91.56500244    0.11000000    0.07000000
   17.89083290   92.91020203    0.11000000    0.07000000
   17.89416695   97.40419769    0.11000000    0.07000000
   17.89722252   93.92579651    0.11000000    0.07000000
   17.90055466   95.75610352    0.11000000    0.07000000
   17.90361023   90.99210358    0.11000000    0.07000000
   17.90694427   94.23320007    0.11000000    0.07000000
   17.90999985   92.87830353    0.11000000    0.07000000
   17.91083336   87.28869629    0.11000000    0.07000000
   17.91388893   89.21420288    0.11000000    0.07000000
   17.91722107   93.73349762    0.11000000    0.07000000
   17.92027664   98.12979889    0.11000000    0.07000000
   17.92361069   95.14459991    0.11000000    0.07000000
   17.92944336   95.14459991    0.11000000    0.07000000
   17.93361092   90.62580109    0.11000000    0.07000000
   17.93694305   82.64019775    0.11000000    0.07000000
   17.93999863   90.70020294    0.11000000    0.07000000
   17.94333267   91.96369934    0.11000000    0.07000000
   17.94361115   94.12599945    0.11000000    0.07000000
   17.94694328   88.44570160    0.11000000    0.07000000
   17.95027924   90.32309723    0.11000000    0.07000000
   17.95333481   86.89689636    0.11000000    0.07000000
   17.95666695   81.97070313    0.11000000    0.07000000
   17.95972252   90.15560150    0.11000000    0.07000000
   17.96305656   95.33110046    0.11000000    0.07000000
   17.96638870   90.60939789    0.11000000    0.07000000
   17.97249985   90.60939789    0.11000000    0.07000000
   17.97638893   90.50589752    0.11000000    0.07000000
   17.97694588   88.76170349    0.11000000    0.07000000
   17.98027802   90.63749695    0.11000000    0.07000000
   17.98361206   86.80010223    0.11000000    0.07000000
   17.98666763   90.83920288    0.11000000    0.07000000
   17.98999977   85.64029694    0.11000000    0.07000000
   17.99305534   92.24659729    0.11000000    0.07000000
   17.99638939   89.86889648    0.11000000    0.07000000
   17.99972153   93.68399811    0.11000000    0.07000000
   18.00305557   90.87429810    0.11000000    0.07000000
   18.00611115   98.17900085    0.11000000    0.07000000
   18.00944519   95.06449890    0.11000000    0.07000000
   18.01027870  100.66899872    0.11000000    0.07000000
   18.01527786  100.66899872    0.11000000    0.07000000
   18.01944351   92.29039764    0.11000000    0.07000000
   18.02249908   92.90959930    0.11000000    0.07000000
   18.02583313   85.98229980    0.11000000    0.07000000
   18.02916718   93.30909729    0.11000000    0.07000000
   18.03222275   94.30750275    0.11000000    0.07000000
   18.03555489   89.14320374    0.11000000    0.07000000
   18.03861046   93.46060181    0.11000000    0.07000000
   18.04194450   93.88559723    0.11000000    0.07000000
   18.04361153   91.93910217    0.11000000    0.07000000
   18.04555511   93.97910309    0.11000000    0.07000000
   18.04888916   97.09290314    0.11000000    0.07000000
   18.05194283   92.67870331    0.11000000    0.07000000
   18.05805397   92.67870331    0.11000000    0.07000000
   18.06222153   93.90509796    0.11000000    0.07000000
   18.06555557   93.91860199    0.11000000    0.07000000
   18.06861115   94.51049805    0.11000000    0.07000000
   18.07194519   92.68119812    0.11000000    0.07000000
   18.07500076   98.29109955    0.11000000    0.07000000
   18.07694626   92.86769867    0.11000000    0.07000000
   18.07861137   91.85269928    0.11000000    0.07000000
   18.08194542   92.45200348    0.11000000    0.07000000
   18.08500099   95.20410156    0.11000000    0.07000000
   18.08833313   93.75080109    0.11000000    0.07000000
   18.09138870   95.61650085    0.11000000    0.07000000
   18.09472275   89.74069977    0.11000000    0.07000000
   18.10083389   89.74069977    0.11000000    0.07000000
   18.10499954   92.09190369    0.11000000    0.07000000
   18.10833359   92.35009766    0.11000000    0.07000000
   18.11027908   91.81909943    0.11000000    0.07000000
   18.11194420   93.82550049    0.11000000    0.07000000
   18.11527824   95.52500153    0.11000000    0.07000000
   18.11833382   87.58000183    0.11000000    0.07000000
   18.12166595   85.90480042    0.11000000    0.07000000
   18.12472153  154.29499817    0.11000000    0.07000000
   18.12805557   95.74479675    0.11000000    0.07000000
   18.13138962   92.60199738    0.11000000    0.07000000
   18.13444519   91.61370087    0.11000000    0.07000000
   18.13777733   88.59760284    0.11000000    0.07000000
   18.14361191   88.59760284    0.11000000    0.07000000
   18.14777756   94.17990112    0.11000000    0.07000000
   18.15111160   97.80410004    0.11000000    0.07000000
   18.15444374   93.49970245    0.11000000    0.07000000
   18.15749931   87.88480377    0.11000000    0.07000000
   18.16083336   89.13659668    0.11000000    0.07000000
   18.16416550   94.60160065    0.11000000    0.07000000
   18.16722107   89.94930267    0.11000000    0.07000000
   18.17055511   92.71430206    0.11000000    0.07000000
   18.17388916  157.20700073    0.11000000    0.07000000
   18.17694473   94.46880341    0.11000000    0.07000000
   18.17749977   91.82309723    0.11000000    0.07000000
   18.18083191   91.48239899    0.11000000    0.07000000
   18.18666649   91.48239899    0.11000000    0.07000000
   18.19083214   90.09670258    0.11000000    0.07000000
   18.19388771   90.84100342    0.11000000    0.07000000
   18.19722176   88.78279877    0.11000000    0.07000000
   18.20027924   87.80770111    0.11000000    0.07000000
   18.20361137   86.98490143    0.11000000    0.07000000
   18.20694542   90.31390381    0.11000000    0.07000000
   18.21000099   99.66169739    0.11000000    0.07000000
   18.21055603   90.66739655    0.11000000    0.07000000
   18.21389008   94.32219696    0.11000000    0.07000000
   18.21694565   88.55000305    0.11000000    0.07000000
   18.22027779   95.45159912    0.11000000    0.07000000
   18.22361183   87.00980377    0.11000000    0.07000000
   18.22944450   87.00980377    0.11000000    0.07000000
   18.23361206   87.12310028    0.11000000    0.07000000
   18.23666763   91.29290009    0.11000000    0.07000000
   18.23999977   96.85669708    0.11000000    0.07000000
   18.24333382   96.39250183    0.11000000    0.07000000
   18.24388885   93.80380249    0.11000000    0.07000000
   18.24694443   91.18360138    0.11000000    0.07000000
   18.25027847   92.89379883    0.11000000    0.07000000
   18.25333405   90.63449860    0.11000000    0.07000000
   18.25666618   97.21019745    0.11000000    0.07000000
   18.26000023   92.13009644    0.11000000    0.07000000
   18.26305580   91.19819641    0.11000000    0.07000000
   18.26638794   98.42269897    0.11000000    0.07000000
   18.27222252   98.42269897    0.11000000    0.07000000
   18.27638817   88.08750153    0.11000000    0.07000000
   18.27722168   94.26589966    0.11000000    0.07000000
   18.28000069   97.65550232    0.11000000    0.07000000
   18.28305435   94.91159821    0.11000000    0.07000000
   18.28638840   99.47019958    0.11000000    0.07000000
   18.28972244   97.73780060    0.11000000    0.07000000
   18.29277802   92.90319824    0.11000000    0.07000000
   18.29611015   97.61229706    0.11000000    0.07000000
   18.29944420   89.09490204    0.11000000    0.07000000
   18.30249977   97.28179932    0.11000000    0.07000000
   18.30583191   98.92359924    0.11000000    0.07000000
   18.30888748   92.68550110    0.11000000    0.07000000
   18.31055450   98.65370178    0.11000000    0.07000000
   18.31527710   98.65370178    0.11000000    0.07000000
   18.31916809   90.08920288    0.11000000    0.07000000
   18.32250023   91.43869781    0.11000000    0.07000000
   18.32583427   93.55809784    0.11000000    0.07000000
   18.32888985   92.55090332    0.11000000    0.07000000
   18.33222389   92.69560242    0.11000000    0.07000000
   18.33555603   96.24150085    0.11000000    0.07000000
   18.33889008   93.28130341    0.11000000    0.07000000
   18.34194565   93.00099945    0.11000000    0.07000000
   18.34388924   96.60269928    0.11000000    0.07000000
   18.34555626   89.63240051    0.11000000    0.07000000
   18.34889030  100.02500153    0.11000000    0.07000000
   18.35194397   99.42279816    0.11000000    0.07000000
   18.35805511   99.42279816    0.11000000    0.07000000
   18.36222267   94.50070190    0.11000000    0.07000000
   18.36527824   93.44699860    0.11000000    0.07000000
   18.36861038   91.39189911    0.11000000    0.07000000
   18.37194443   93.27490234    0.11000000    0.07000000
   18.37500000   89.30899811    0.11000000    0.07000000
   18.37722206   90.78589630    0.11000000    0.07000000
   18.37861061   94.49040222    0.11000000    0.07000000
   18.38194466   90.13159943    0.11000000    0.07000000
   18.38500023   92.05740356    0.11000000    0.07000000
   18.38833237   95.44960022    0.11000000    0.07000000
   18.39138794   93.78900146    0.11000000    0.07000000
   18.39472198   93.10929871    0.11000000    0.07000000
   18.40083313   93.10929871    0.11000000    0.07000000
   18.40499878   93.03569794    0.11000000    0.07000000
   18.40805435   92.87310028    0.11000000    0.07000000
   18.41055489   91.61129761    0.11000000    0.07000000
   18.41194344   91.37200165    0.11000000    0.07000000
   18.41527748   89.46309662    0.11000000    0.07000000
   18.41833305   90.87729645    0.11000000    0.07000000
   18.42166519   90.37930298    0.11000000    0.07000000
   18.42472076   92.50469971    0.11000000    0.07000000
   18.42805481   87.96569824    0.11000000    0.07000000
   18.43138885   91.74359894    0.11000000    0.07000000
   18.43444443   85.07599640    0.11000000    0.07000000
   18.43777657   90.87529755    0.11000000    0.07000000
   18.44361115   90.87529755    0.11000000    0.07000000
   18.44777679   89.50450134    0.11000000    0.07000000
   18.45111275   94.16369629    0.11000000    0.07000000
   18.45416832   85.70760345    0.11000000    0.07000000
   18.45750046   91.31600189    0.11000000    0.07000000
   18.46083450   95.91480255    0.11000000    0.07000000
   18.46389008   90.38700104    0.11000000    0.07000000
   18.46722221   99.02210236    0.11000000    0.07000000
   18.47027779   91.92949677    0.11000000    0.07000000
   18.47361183   85.38300323    0.11000000    0.07000000
   18.47694588   86.03839874    0.11000000    0.07000000
   18.47861099   91.67680359    0.11000000    0.07000000
   18.48055649   86.85530090    0.11000000    0.07000000
   18.48638916   86.85530090    0.11000000    0.07000000
   18.49055672   89.17019653    0.11000000    0.07000000
   18.49388885   95.54540253    0.11000000    0.07000000
   18.49722290   85.36519623    0.11000000    0.07000000
   18.50055504   88.35310364    0.11000000    0.07000000
   18.50361061   91.71269989    0.11000000    0.07000000
   18.50694466   86.93199921    0.11000000    0.07000000
   18.51000023   91.12359619    0.11000000    0.07000000
   18.51194382   93.27649689    0.11000000    0.07000000
   18.51361084  101.00499725    0.11000000    0.07000000
   18.51694489   91.87270355    0.11000000    0.07000000
   18.52000046   91.94789886    0.11000000    0.07000000
   18.52333260   89.67019653    0.11000000    0.07000000
   18.52944374   89.67019653    0.11000000    0.07000000
   18.53361130   87.52770233    0.11000000    0.07000000
   18.53666687   89.25769806    0.11000000    0.07000000
   18.53999901   86.09719849    0.11000000    0.07000000
   18.54305458   87.80339813    0.11000000    0.07000000
   18.54555511   86.33660126    0.11000000    0.07000000
   18.54694366   88.54709625    0.11000000    0.07000000
   18.54999924   93.01770020    0.11000000    0.07000000
   18.55333328   88.61190033    0.11000000    0.07000000
   18.55666542   92.03890228    0.11000000    0.07000000
   18.55972099   91.31800079    0.11000000    0.07000000
   18.56305504   82.28700256    0.11000000    0.07000000
   18.56638718   93.45580292    0.11000000    0.07000000
   18.57222366   93.45580292    0.11000000    0.07000000
   18.57638931   87.70890045    0.11000000    0.07000000
   18.57888985   86.90879822    0.11000000    0.07000000
   18.58000183   85.13899994    0.11000000    0.07000000
   18.58305550   90.29720306    0.11000000    0.07000000
   18.58638954   87.03649902    0.11000000    0.07000000
   18.58972359   88.76260376    0.11000000    0.07000000
   18.59277916   82.64489746    0.11000000    0.07000000
   18.59611130   88.42289734    0.11000000    0.07000000
   18.59916687   83.87349701    0.11000000    0.07000000
   18.60250092   84.98950195    0.11000000    0.07000000
   18.60583305   90.66020203    0.11000000    0.07000000
   18.60888863   90.58540344    0.11000000    0.07000000
   18.61499977   90.58540344    0.11000000    0.07000000
   18.61916733   90.83580017    0.11000000    0.07000000
   18.62249947   87.32869720    0.11000000    0.07000000
   18.62555504   90.07469940    0.11000000    0.07000000
   18.62888908   85.72869873    0.11000000    0.07000000
   18.63222313   91.68129730    0.11000000    0.07000000
   18.63527679   86.13670349    0.11000000    0.07000000
   18.63861084   86.27999878    0.11000000    0.07000000
   18.64166641   90.52390289    0.11000000    0.07000000
   18.64500046   90.33350372    0.11000000    0.07000000
   18.64583397   94.64029694    0.11000000    0.07000000
   18.64861107   92.69920349    0.11000000    0.07000000
   18.65194321   95.12220001    0.11000000    0.07000000
   18.65777779   95.12220001    0.11000000    0.07000000
   18.66194344   91.63469696    0.11000000    0.07000000
   18.66527748   88.65940094    0.11000000    0.07000000
   18.66860962   86.63939667    0.11000000    0.07000000
   18.67194366   90.96170044    0.11000000    0.07000000
   18.67499924   98.22299957    0.11000000    0.07000000
   18.67833328   90.51280212    0.11000000    0.07000000
   18.67916679   89.73329926    0.11000000    0.07000000
   18.68194389   87.53610229    0.11000000    0.07000000
   18.68527603   90.81780243    0.11000000    0.07000000
   18.68833160   91.53199768    0.11000000    0.07000000
   18.69166565   91.58589935    0.11000000    0.07000000
   18.69499969   95.95529938    0.11000000    0.07000000
   18.70083427   95.95529938    0.11000000    0.07000000
   18.70499992   98.24990082    0.11000000    0.07000000
   18.70805550   86.12740326    0.11000000    0.07000000
   18.71138954   89.46849823    0.11000000    0.07000000
   18.71277809   91.14350128    0.11000000    0.07000000
   18.71500015   88.72270203    0.11000000    0.07000000
   18.71805573   89.77410126    0.11000000    0.07000000
   18.72138977   88.34919739    0.11000000    0.07000000
   18.72472191   94.84850311    0.11000000    0.07000000
   18.72777748   91.96700287    0.11000000    0.07000000
   18.73111153   95.60350037    0.11000000    0.07000000
   18.73444557   92.33290100    0.11000000    0.07000000
   18.73750114   94.20449829    0.11000000    0.07000000
   18.74361229   94.20449829    0.11000000    0.07000000
   18.76194382   91.04170227    0.11000000    0.07000000
   18.76527786   86.38289642    0.11000000    0.07000000
   18.76833344   94.25769806    0.11000000    0.07000000
   18.77166557   93.00440216    0.11000000    0.07000000
   18.77499962   85.96029663    0.11000000    0.07000000
   18.77805519   88.22679901    0.11000000    0.07000000
   18.78138924   91.25330353    0.11000000    0.07000000
   18.78666687   91.25330353    0.11000000    0.07000000
   18.79083252   97.29930115    0.11000000    0.07000000
   18.79388809   93.77349854    0.11000000    0.07000000
   18.79500008   94.69819641    0.11000000    0.07000000
   18.79777718   92.69730377    0.11000000    0.07000000
   18.80083275   93.54380035    0.11000000    0.07000000
   18.80416679  100.52799988    0.11000000    0.07000000
   18.80749893   96.09200287    0.11000000    0.07000000
   18.81055450   93.08580017    0.11000000    0.07000000
   18.81388855   96.55359650    0.11000000    0.07000000
   18.81694603   92.65370178    0.11000000    0.07000000
   18.82027817   92.95339966    0.11000000    0.07000000
   18.82361221   91.19689941    0.11000000    0.07000000
   18.82944489   91.19689941    0.11000000    0.07000000
   18.83361244   88.77639771    0.11000000    0.07000000
   18.83694458   91.94539642    0.11000000    0.07000000
   18.84000015   92.55889893    0.11000000    0.07000000
   18.84333420   87.03330231    0.11000000    0.07000000
   18.84666824   90.19760132    0.11000000    0.07000000
   18.84972191   83.78530121    0.11000000    0.07000000
   18.85305595   89.70269775    0.11000000    0.07000000
   18.85611153   91.14739990    0.11000000    0.07000000
   18.85944557   87.03399658    0.11000000    0.07000000
   18.86166763   89.24060059    0.11000000    0.07000000
   18.86305618   96.75740051    0.11000000    0.07000000
   18.86611176   91.59819794    0.11000000    0.07000000
   18.87222290   91.59819794    0.11000000    0.07000000
   18.87638855   92.66100311    0.11000000    0.07000000
   18.87972260   94.17630005    0.11000000    0.07000000
   18.88305473   91.15339661    0.11000000    0.07000000
   18.88611031   86.70480347    0.11000000    0.07000000
   18.88944435   95.55180359    0.11000000    0.07000000
   18.89249992   90.16210175    0.11000000    0.07000000
   18.89500046   85.48470306    0.11000000    0.07000000
   18.89638901   91.11060333    0.11000000    0.07000000
   18.89944458   91.25219727    0.11000000    0.07000000
   18.90277672   91.11039734    0.11000000    0.07000000
   18.90611076   94.49299622    0.11000000    0.07000000
   18.90916634   92.29550171    0.11000000    0.07000000
   18.91527748   92.29550171    0.11000000    0.07000000
   18.91944313   91.35549927    0.11000000    0.07000000
   18.92249870   96.13369751    0.11000000    0.07000000
   18.92583275   98.11859894    0.11000000    0.07000000
   18.92833328   88.65350342    0.11000000    0.07000000
   18.92944336   90.12030029    0.11000000    0.07000000
   18.93277740   86.59680176    0.11000000    0.07000000
   18.93583298   95.30400085    0.11000000    0.07000000
   18.93916512   90.34210205    0.11000000    0.07000000
   18.94249916   90.41539764    0.11000000    0.07000000
   18.94555473   93.96050262    0.11000000    0.07000000
   18.94888878   93.69139862    0.11000000    0.07000000
   18.95194435   92.84970093    0.11000000    0.07000000
   18.95805550   92.84970093    0.11000000    0.07000000
   18.96222305   92.67220306    0.11000000    0.07000000
   18.96527863   91.48310089    0.11000000    0.07000000
   18.96861076   89.63420105    0.11000000    0.07000000
   18.97194481   97.14089966    0.11000000    0.07000000
   18.97500038   95.87590027    0.11000000    0.07000000
   18.97833443   96.88009644    0.11000000    0.07000000
   18.98166656   92.21579742    0.11000000    0.07000000
   18.98472214   87.91960144    0.11000000    0.07000000
   18.98805618   93.31150055    0.11000000    0.07000000
   18.99111176   88.43199921    0.11000000    0.07000000
   18.99444389   92.50150299    0.11000000    0.07000000
   18.99500084   94.46440125    0.11000000    0.07000000
   19.00083351   94.46440125    0.11000000    0.07000000
   19.00499916   90.72769928    0.11000000    0.07000000
   19.00833321   98.24169922    0.11000000    0.07000000
   19.01138878   94.28500366    0.11000000    0.07000000
   19.01472282   90.51010132    0.11000000    0.07000000
   19.01805496   96.16419983    0.11000000    0.07000000
   19.02111053   90.62359619    0.11000000    0.07000000
   19.02444458   94.74189758    0.11000000    0.07000000
   19.02750015   90.65319824    0.11000000    0.07000000
   19.02833366   98.39920044    0.11000000    0.07000000
   19.03138924  123.50900269    0.11000000    0.07000000
   19.03444481  113.30200195    0.11000000    0.07000000
   19.03777695  101.98999786    0.11000000    0.07000000
   19.04361153  101.98999786    0.11000000    0.07000000
   19.04777718  101.69000244    0.11000000    0.07000000
   19.05111122  130.02999878    0.11000000    0.07000000
   19.05444336  124.68199921    0.11000000    0.07000000
   19.05749893  114.04100037    0.11000000    0.07000000
   19.06083298  133.10099792    0.11000000    0.07000000
   19.06166649   90.07700348    0.11000000    0.07000000
   19.06444359  112.51100159    0.11000000    0.07000000
   19.06750107  102.14399719    0.11000000    0.07000000
   19.07083511  102.98699951    0.11000000    0.07000000
   19.07416725  118.04900360    0.11000000    0.07000000
   19.07722282   97.98149872    0.11000000    0.07000000
   19.08055687  147.66099548    0.11000000    0.07000000
   19.08666801  147.66099548    0.11000000    0.07000000
   19.09083366  104.91899872    0.11000000    0.07000000
   19.09388924  128.21400452    0.11000000    0.07000000
   19.09500122   99.32029724    0.11000000    0.07000000
   19.09749985  102.06500244    0.11000000    0.07000000
   19.10083389  125.45899963    0.11000000    0.07000000
   19.10388947  104.26000214    0.11000000    0.07000000
   19.10722351  124.38500214    0.11000000    0.07000000
   19.11027908   99.83850098    0.11000000    0.07000000
   19.11361122   88.15480042    0.11000000    0.07000000
   19.11694527  116.72699738    0.11000000    0.07000000
   19.12000084  107.79699707    0.11000000    0.07000000
   19.12333298  104.60199738    0.11000000    0.07000000
   19.12944412  104.60199738    0.11000000    0.07000000
   19.13361168   99.86430359    0.11000000    0.07000000
   19.13666725  112.63200378    0.11000000    0.07000000
   19.13999939  105.45400238    0.11000000    0.07000000
   19.14333344   84.85379791    0.11000000    0.07000000
   19.14638901  114.25299835    0.11000000    0.07000000
   19.14972115   95.74299622    0.11000000    0.07000000
   19.15305519   84.39759827    0.11000000    0.07000000
   19.15611076   98.14279938    0.11000000    0.07000000
   19.15944481   91.85469818    0.11000000    0.07000000
   19.16166687   89.87770081    0.11000000    0.07000000
   19.16305542   96.00240326    0.11000000    0.07000000
   19.16611099   93.23799896    0.11000000    0.07000000
   19.17222214   93.23799896    0.11000000    0.07000000
   19.17638779   85.22100067    0.11000000    0.07000000
   19.17972183   86.91600037    0.11000000    0.07000000
   19.18277740   89.44069672    0.11000000    0.07000000
   19.18610954   86.75450134    0.11000000    0.07000000
   19.18944359   90.28299713    0.11000000    0.07000000
   19.19249916   81.56780243    0.11000000    0.07000000
   19.19499969   88.25119781    0.11000000    0.07000000
   19.19610977   88.18219757    0.11000000    0.07000000
   19.19944382   88.91629791    0.11000000    0.07000000
   19.20250130   89.56580353    0.11000000    0.07000000
   19.20583344   91.22969818    0.11000000    0.07000000
   19.20888901   88.48950195    0.11000000    0.07000000
   19.21500015   88.48950195    0.11000000    0.07000000
   19.21916771   86.44740295    0.11000000    0.07000000
   19.22249985   88.31410217    0.11000000    0.07000000
   19.22583389   87.42479706    0.11000000    0.07000000
   19.22833443   85.34929657    0.11000000    0.07000000
   19.22944450   87.52799988    0.11000000    0.07000000
   19.23277855   88.46389771    0.11000000    0.07000000
   19.23583412   90.54329681    0.11000000    0.07000000
   19.23916626   89.83059692    0.11000000    0.07000000
   19.24222183   95.59790039    0.11000000    0.07000000
   19.24555588   88.55490112    0.11000000    0.07000000
   19.24888992   90.47810364    0.11000000    0.07000000
   19.25194359   88.36949921    0.11000000    0.07000000
   19.25805473   88.36949921    0.11000000    0.07000000
   19.26222229   85.08159637    0.11000000    0.07000000
   19.26555634   91.65049744    0.11000000    0.07000000
   19.26861000   89.49400330    0.11000000    0.07000000
   19.27194405   90.30970001    0.11000000    0.07000000
   19.27499962   91.89710236    0.11000000    0.07000000
   19.27833366   91.68650055    0.11000000    0.07000000
   19.28166580   89.19899750    0.11000000    0.07000000
   19.28472137   87.55909729    0.11000000    0.07000000
   19.28805542   87.58229828    0.11000000    0.07000000
   19.29138756   88.14489746    0.11000000    0.07000000
   19.29444313   87.67900085    0.11000000    0.07000000
   19.29500008   80.67459869    0.11000000    0.07000000
   19.30083275   80.67459869    0.11000000    0.07000000
   19.30499840   79.80539703    0.11000000    0.07000000
   19.30805397   86.37539673    0.11000000    0.07000000
   19.31138802   85.29139709    0.11000000    0.07000000
   19.31472206   87.41230011    0.11000000    0.07000000
   19.31777954   90.38289642    0.11000000    0.07000000
   19.32111168   92.46589661    0.11000000    0.07000000
   19.32444572   89.05110168    0.11000000    0.07000000
   19.32750130   81.60240173    0.11000000    0.07000000
   19.32833481   87.45449829    0.11000000    0.07000000
   19.33111191   83.20549774    0.11000000    0.07000000
   19.33444595   86.13670349    0.11000000    0.07000000
   19.33750153   88.78410339    0.11000000    0.07000000
   19.34361267   88.78410339    0.11000000    0.07000000
   19.34777832   84.85630035    0.11000000    0.07000000
   19.35111237   87.32409668    0.11000000    0.07000000
   19.35416794   85.30919647    0.11000000    0.07000000
   19.35750008   89.82879639    0.11000000    0.07000000
   19.36083412   87.24510193    0.11000000    0.07000000
   19.36166763   86.71140289    0.11000000    0.07000000
   19.36444473   87.70059967    0.11000000    0.07000000
   19.36777878   89.89189911    0.11000000    0.07000000
   19.37083435   88.16809845    0.11000000    0.07000000
   19.37416649   92.07959747    0.11000000    0.07000000
   19.37722206   89.86849976    0.11000000    0.07000000
   19.38055611   87.86129761    0.11000000    0.07000000
   19.38638878   87.86129761    0.11000000    0.07000000
   19.39055634   88.04000092    0.11000000    0.07000000
   19.39388847   98.21150208    0.11000000    0.07000000
   19.39500046   93.23529816    0.11000000    0.07000000
   19.39749908   92.97139740    0.11000000    0.07000000
   19.40083313   94.80139923    0.11000000    0.07000000
   19.40388870   88.77510071    0.11000000    0.07000000
   19.40722275   86.65399933    0.11000000    0.07000000
   19.41055489   85.09539795    0.11000000    0.07000000
   19.41361046   89.11660004    0.11000000    0.07000000
   19.41694450   91.49050140    0.11000000    0.07000000
   19.42000008   87.74289703    0.11000000    0.07000000
   19.42333221   98.43800354    0.11000000    0.07000000
   19.42944336   98.43800354    0.11000000    0.07000000
   19.43361092  103.56500244    0.11000000    0.07000000
   19.43666649   97.38780212    0.11000000    0.07000000
   19.43999863   91.65129852    0.11000000    0.07000000
   19.44305420   89.87840271    0.11000000    0.07000000
   19.44638824  108.07499695    0.11000000    0.07000000
   19.44972038   91.10299683    0.11000000    0.07000000
   19.45277786   86.94629669    0.11000000    0.07000000
   19.45611191   88.95369720    0.11000000    0.07000000
   19.45944595   97.88120270    0.11000000    0.07000000
   19.46166801   91.78309631    0.11000000    0.07000000
   19.46305656   91.26119995    0.11000000    0.07000000
   19.46638870   93.43139648    0.11000000    0.07000000
   19.47222328   93.43139648    0.11000000    0.07000000
   19.47638893   95.93270111    0.11000000    0.07000000
   19.47944450   86.54280090    0.11000000    0.07000000
   19.48277855   91.13770294    0.11000000    0.07000000
   19.48611069   92.40789795    0.11000000    0.07000000
   19.48916626  101.18000031    0.11000000    0.07000000
   19.49250031   92.81819916    0.11000000    0.07000000
   19.49500084   85.01899719    0.11000000    0.07000000
   19.49611092   88.86579895    0.11000000    0.07000000
   19.49944496   92.40039825    0.11000000    0.07000000
   19.50250053   89.94049835    0.11000000    0.07000000
   19.50583267   89.11430359    0.11000000    0.07000000
   19.50916672   89.21690369    0.11000000    0.07000000
   19.51499939   89.21690369    0.11000000    0.07000000
   19.51916695   94.32460022    0.11000000    0.07000000
   19.52249908   95.92199707    0.11000000    0.07000000
   19.52555466   89.23300171    0.11000000    0.07000000
   19.52888870   83.55039978    0.11000000    0.07000000
   19.52944374   86.15979767    0.11000000    0.07000000
   19.53305435   95.64209747    0.11000000    0.07000000
   19.53638840   89.62789917    0.11000000    0.07000000
   19.53944397   95.24150085    0.11000000    0.07000000
   19.54277802   92.47850037    0.11000000    0.07000000
   19.54611015   89.11519623    0.11000000    0.07000000
   19.54916573   88.95590210    0.11000000    0.07000000
   19.55249977   95.56410217    0.11000000    0.07000000
   19.55777740   95.56410217    0.11000000    0.07000000
   19.56194305   89.37770081    0.11000000    0.07000000
   19.56527710   91.84680176    0.11000000    0.07000000
   19.56861115   87.97209930    0.11000000    0.07000000
   19.57166672   89.05670166    0.11000000    0.07000000
   19.57500076   90.08200073    0.11000000    0.07000000
   19.57805634   88.75450134    0.11000000    0.07000000
   19.58139038   90.30190277    0.11000000    0.07000000
   19.58472252   90.52359772    0.11000000    0.07000000
   19.58777809   90.65280151    0.11000000    0.07000000
   19.59111214   86.80590057    0.11000000    0.07000000
   19.59444427   89.75360107    0.11000000    0.07000000
   19.59500122   88.65779877    0.11000000    0.07000000
   19.60083389   88.65779877    0.11000000    0.07000000
   19.60499954   87.58319855    0.11000000    0.07000000
   19.60805511   90.30719757    0.11000000    0.07000000
   19.61138916   92.86720276    0.11000000    0.07000000
   19.61444473   86.52890015    0.11000000    0.07000000
   19.61777878   91.84490204    0.11000000    0.07000000
   19.62111092  100.58200073    0.11000000    0.07000000
   19.62416649   82.95469666    0.11000000    0.07000000
   19.62750053   83.24479675    0.11000000    0.07000000
   19.62833405   81.01509857    0.11000000    0.07000000
   19.63111115   93.22470093    0.11000000    0.07000000
   19.63444519   92.52510071    0.11000000    0.07000000
   19.63750076   95.87339783    0.11000000    0.07000000
   19.64361191   95.87339783    0.11000000    0.07000000
   19.64777756   89.69069672    0.11000000    0.07000000
   19.65083313   96.03980255    0.11000000    0.07000000
   19.65416718   94.05280304    0.11000000    0.07000000
   19.65749931   93.56259918    0.11000000    0.07000000
   19.66055489   88.80059814    0.11000000    0.07000000
   19.66166687   90.77269745    0.11000000    0.07000000
   19.66416550   87.25969696    0.11000000    0.07000000
   19.66749954   91.67169952    0.11000000    0.07000000
   19.67055511   89.36820221    0.11000000    0.07000000
   19.67388916   98.99770355    0.11000000    0.07000000
   19.67722130   91.80650330    0.11000000    0.07000000
   19.68027687   98.93109894    0.11000000    0.07000000
   19.68638802   98.93109894    0.11000000    0.07000000
   19.69055557   94.29599762    0.11000000    0.07000000
   19.69388771   89.62560272    0.11000000    0.07000000
   19.69499969   89.62599945    0.11000000    0.07000000
   19.69749832   95.99150085    0.11000000    0.07000000
   19.70083427   94.30560303    0.11000000    0.07000000
   19.70388985   92.72239685    0.11000000    0.07000000
   19.70722389   94.55130005    0.11000000    0.07000000
   19.71055603  102.54100037    0.11000000    0.07000000
   19.71361160   98.85269928    0.11000000    0.07000000
   19.71694565   88.78520203    0.11000000    0.07000000
   19.72000122   96.70659637    0.11000000    0.07000000
   19.72333336   89.95989990    0.11000000    0.07000000
   19.72916794   89.95989990    0.11000000    0.07000000
   19.73333359   99.04850006    0.11000000    0.07000000
   19.73666763  100.89800262    0.11000000    0.07000000
   19.73999977   93.03800201    0.11000000    0.07000000
   19.74305534   94.57769775    0.11000000    0.07000000
   19.74638939   94.36199951    0.11000000    0.07000000
   19.74972153   90.97899628    0.11000000    0.07000000
   19.75277710  101.23300171    0.11000000    0.07000000
   19.75611115   87.64559937    0.11000000    0.07000000
   19.75916672   98.39430237    0.11000000    0.07000000
   19.76166725  107.84600067    0.11000000    0.07000000
   19.78249931  107.84600067    0.11000000    0.07000000
   19.78666687  125.64499664    0.11000000    0.07000000
   19.78972244  107.30500031    0.11000000    0.07000000
   19.79305458  100.19300079    0.11000000    0.07000000
   19.79500008   98.47440338    0.11000000    0.07000000
   19.79666710  102.18699646    0.11000000    0.07000000
   19.79999924  103.95600128    0.11000000    0.07000000
   19.80333328  100.48899841    0.11000000    0.07000000
   19.80638885   95.45760345    0.11000000    0.07000000
   19.80972099   91.68890381    0.11000000    0.07000000
   19.81305504   93.52559662    0.11000000    0.07000000
   19.81611061   89.33899689    0.11000000    0.07000000
   19.81944466   90.43640137    0.11000000    0.07000000
   19.82527924   90.43640137    0.11000000    0.07000000
   19.82916832   87.95850372    0.11000000    0.07000000
   19.83250046   96.08329773    0.11000000    0.07000000
   19.83583450   91.96140289    0.11000000    0.07000000
   19.83889008   92.06520081    0.11000000    0.07000000
   19.84222221   91.20449829    0.11000000    0.07000000
   19.84555626   90.00579834    0.11000000    0.07000000
   19.84861183   92.73449707    0.11000000    0.07000000
   19.85194397   89.56849670    0.11000000    0.07000000
   19.85499954   90.04969788    0.11000000    0.07000000
   19.85833359   91.54360199    0.11000000    0.07000000
   19.86166763   92.08580017    0.11000000    0.07000000
   19.86194420   93.50759888    0.11000000    0.07000000
   19.86805534   93.50759888    0.11000000    0.07000000
   19.87222290   96.38310242    0.11000000    0.07000000
   19.87527847   85.74130249    0.11000000    0.07000000
   19.87861061   90.47959900    0.11000000    0.07000000
   19.88194466   84.23660278    0.11000000    0.07000000
   19.88500023   89.71209717    0.11000000    0.07000000
   19.88833237   96.17040253    0.11000000    0.07000000
   19.89138794   92.81950378    0.11000000    0.07000000
   19.89472198   96.41870117    0.11000000    0.07000000
   19.89555550   95.09870148    0.11000000    0.07000000
   19.89833260   89.84210205    0.11000000    0.07000000
   19.90166664   87.13480377    0.11000000    0.07000000
   19.90499878   89.63649750    0.11000000    0.07000000
   19.91083336   89.63649750    0.11000000    0.07000000
   19.91499901   90.99859619    0.11000000    0.07000000
   19.91833305   94.82510376    0.11000000    0.07000000
   19.92138863   97.93080139    0.11000000    0.07000000
   19.92472076   91.85050201    0.11000000    0.07000000
   19.92777634   92.20259857    0.11000000    0.07000000
   19.92860985   95.55059814    0.11000000    0.07000000
   19.93138885   94.79979706    0.11000000    0.07000000
   19.93472099   88.10169983    0.11000000    0.07000000
   19.93777657   89.33260345    0.11000000    0.07000000
   19.94111061   95.24040222    0.11000000    0.07000000
   19.94444275   93.21880341    0.11000000    0.07000000
   19.94749832   88.77799988    0.11000000    0.07000000
   19.95361137   88.77799988    0.11000000    0.07000000
   19.95777893   92.64550018    0.11000000    0.07000000
   19.96111107   87.32910156    0.11000000    0.07000000
   19.96222305   86.74310303    0.11000000    0.07000000
   19.96472359   91.31289673    0.11000000    0.07000000
   19.96805573   86.97399902    0.11000000    0.07000000
   19.97111130   87.92120361    0.11000000    0.07000000
   19.97444534   87.26129913    0.11000000    0.07000000
   19.97777748   86.72740173    0.11000000    0.07000000
   19.98083305   87.31990051    0.11000000    0.07000000
   19.98416710   93.57910156    0.11000000    0.07000000
   19.98750114   99.04440308    0.11000000    0.07000000
   19.99055672   92.02310181    0.11000000    0.07000000
   19.99666786   92.02310181    0.11000000    0.07000000
   20.00083351   92.20069885    0.11000000    0.07000000
   20.00388908   90.67939758    0.11000000    0.07000000
   20.00722313   99.15499878    0.11000000    0.07000000
   20.01027870   98.30719757    0.11000000    0.07000000
   20.01361084  106.48999786    0.11000000    0.07000000
   20.01694489  105.16699982    0.11000000    0.07000000
   20.02000046  107.99199677    0.11000000    0.07000000
   20.02333260  108.47799683    0.11000000    0.07000000
   20.02666664  107.67600250    0.11000000    0.07000000
   20.02888870  110.53500366    0.11000000    0.07000000
   20.03000069   98.84140015    0.11000000    0.07000000
   20.03333282   93.02809906    0.11000000    0.07000000
   20.03944397   93.02809906    0.11000000    0.07000000
   20.04361153   92.01909637    0.11000000    0.07000000
   20.04666710   92.76409912    0.11000000    0.07000000
   20.04999924   90.07330322    0.11000000    0.07000000
   20.05333328  103.87100220    0.11000000    0.07000000
   20.05638885   94.54550171    0.11000000    0.07000000
   20.05972099   92.80180359    0.11000000    0.07000000
   20.06222153   88.28669739    0.11000000    0.07000000
   20.06333351  107.87200165    0.11000000    0.07000000
   20.06666756   88.44879913    0.11000000    0.07000000
   20.07000160  103.38400269    0.11000000    0.07000000
   20.07305717  103.21399689    0.11000000    0.07000000
   20.07638931  110.25800323    0.11000000    0.07000000
   20.08222389  110.25800323    0.11000000    0.07000000
   20.08638954  107.13300323    0.11000000    0.07000000
   20.08972359  100.00199890    0.11000000    0.07000000
   20.09277916  102.51200104    0.11000000    0.07000000
   20.09555626   98.52819824    0.11000000    0.07000000
   20.09638977   94.22660065    0.11000000    0.07000000
   20.09972191   96.96499634    0.11000000    0.07000000
   20.10305595   98.38569641    0.11000000    0.07000000
   20.10611153  100.27799988    0.11000000    0.07000000
   20.10944557   95.47270203    0.11000000    0.07000000
   20.11250114   97.51450348    0.11000000    0.07000000
   20.11583328  101.63999939    0.11000000    0.07000000
   20.11916733   89.81130219    0.11000000    0.07000000
   20.12500000   89.81130219    0.11000000    0.07000000
   20.12916756   91.48670197    0.11000000    0.07000000
   20.13249969   89.84120178    0.11000000    0.07000000
   20.13555527   94.96279907    0.11000000    0.07000000
   20.13888931   99.41799927    0.11000000    0.07000000
   20.14222145   90.77300262    0.11000000    0.07000000
   20.14527702  102.76499939    0.11000000    0.07000000
   20.14861107   90.50740051    0.11000000    0.07000000
   20.15194321   89.77899933    0.11000000    0.07000000
   20.15499878   96.01010132    0.11000000    0.07000000
   20.15833282   91.50360107    0.11000000    0.07000000
   20.16138840   95.13300323    0.11000000    0.07000000
   20.16222191   91.50759888    0.11000000    0.07000000
   20.16805458   91.50759888    0.11000000    0.07000000
   20.17222214   93.74169922    0.11000000    0.07000000
   20.17527771   89.74320221    0.11000000    0.07000000
   20.17860985   94.09629822    0.11000000    0.07000000
   20.18166542   83.02950287    0.11000000    0.07000000
   20.18499947   91.72229767    0.11000000    0.07000000
   20.18833160   89.11389923    0.11000000    0.07000000
   20.19138718   82.62660217    0.11000000    0.07000000
   20.19472122   89.14019775    0.11000000    0.07000000
   20.19555473   86.41809845    0.11000000    0.07000000
   20.19833183   91.38790131    0.11000000    0.07000000
   20.20166779   86.12879944    0.11000000    0.07000000
   20.20499992   85.57050323    0.11000000    0.07000000
   20.21083450   85.57050323    0.11000000    0.07000000
   20.21500015   88.34349823    0.11000000    0.07000000
   20.21805573   91.80950165    0.11000000    0.07000000
   20.22138977   84.14099884    0.11000000    0.07000000
   20.22472191   91.02349854    0.11000000    0.07000000
   20.22777748   83.91940308    0.11000000    0.07000000
   20.22888947   87.08209991    0.11000000    0.07000000
   20.23139000   89.18750000    0.11000000    0.07000000
   20.23472214   86.78790283    0.11000000    0.07000000
   20.23805618   89.99909973    0.11000000    0.07000000
   20.24111176   97.40350342    0.11000000    0.07000000
   20.24444389   88.91539764    0.11000000    0.07000000
   20.24749947   91.84850311    0.11000000    0.07000000
   20.25361061   91.84850311    0.11000000    0.07000000
   20.25777817   88.03199768    0.11000000    0.07000000
   20.26111031   86.40119934    0.11000000    0.07000000
   20.26222229   90.89769745    0.11000000    0.07000000
   20.26444435   91.00440216    0.11000000    0.07000000
   20.26777840   85.64350128    0.11000000    0.07000000
   20.27083397   90.77950287    0.11000000    0.07000000
   20.27416611   88.74909973    0.11000000    0.07000000
   20.27750015   88.61049652    0.11000000    0.07000000
   20.28055573   89.84089661    0.11000000    0.07000000
   20.28388786   93.93720245    0.11000000    0.07000000
   20.28722191   85.60759735    0.11000000    0.07000000
   20.29027748   89.07620239    0.11000000    0.07000000
   20.29638863   89.07620239    0.11000000    0.07000000
   20.30055428   86.74410248    0.11000000    0.07000000
   20.30388832   92.56939697    0.11000000    0.07000000
   20.30694389   94.16230011    0.11000000    0.07000000
   20.31027794   93.33709717    0.11000000    0.07000000
   20.31361008   87.34040070    0.11000000    0.07000000
   20.31666756   94.82070160    0.11000000    0.07000000
   20.32000160   86.58630371    0.11000000    0.07000000
   20.32333374   89.63259888    0.11000000    0.07000000
   20.32638931   89.36550140    0.11000000    0.07000000
   20.32888985   92.69280243    0.11000000    0.07000000
   20.33000183   87.80269623    0.11000000    0.07000000
   20.33333397   90.29190063    0.11000000    0.07000000
