    HOUR (UT)   FLARE FACTOR    SKY TESTER    SUN TESTER
   11.75333309   -1.00000000   -1.00000000   -1.00000000
   11.77250004  143.38699341    4.90999985    1.80999994
   11.77861118  157.36799622    4.34999990    1.80999994
   11.78277779  142.24699402    3.45000005    1.83000004
   11.78611183  145.42900085    2.89000010    1.83000004
   11.78972244  126.61199951    2.34999990    1.83000004
   11.79277802  141.28999329    2.05999994    1.83000004
   11.79611111  150.54600525    1.89999998    1.85000002
   11.79944515  140.41000366    1.78999996    1.83000004
   11.80249977  139.85899353    1.58000004    1.85000002
   11.80583382  140.07499695    1.51999998    1.85000002
   11.80638885  144.63000488    1.51999998    1.85000002
   11.80944443  135.70599365    1.50000000    1.86000001
   11.81277752  137.21099854    1.51999998    1.86000001
   11.81583309  142.64700317    1.53999996    1.86000001
   11.81916618  135.83200073    1.58000004    1.86000001
   11.82250023  134.28199768    1.60000002    1.86000001
   11.82555580  132.10000610    1.60000002    1.86000001
   11.82888889  128.86799622    1.61000001    1.86000001
   11.83222198  152.27499390    1.61000001    1.88000000
   11.83527756  132.37399292    1.61000001    1.89999998
   11.83861065  134.10699463    1.58000004    1.88000000
   11.83916664  138.02000427    1.58000004    1.88000000
   11.84222221  144.66999817    1.58000004    1.88000000
   11.84527779  138.81599426    1.48000002    1.89999998
   11.84861088  140.91600037    1.46000004    1.89999998
   11.85194492  142.88699341    1.46000004    1.89999998
   11.85527802  136.44200134    1.46000004    1.89999998
   11.85833359  136.95399475    1.33000004    1.89999998
   11.86166668  145.74899292    1.30999994    1.89999998
   11.86472225  148.92900085    1.33000004    1.89999998
   11.86805534  151.07899475    1.30999994    1.91999996
   11.87138939  161.81500244    1.33000004    1.91999996
   11.87250042  141.65499878    1.33000004    1.91999996
   11.87500000  158.77799988    1.30999994    1.91999996
   11.87805557  142.62399292    1.30999994    1.91999996
   11.88138866  136.37500000    1.30999994    1.91999996
   11.88472176  144.79699707    1.28999996    1.91999996
   11.88777733  138.13600159    1.25000000    1.91999996
   11.89111137  131.78999329    1.21000004    1.94000006
   11.89416695  142.53999329    1.21000004    1.94000006
   11.89750004  137.09899902    1.21000004    1.94000006
   11.90083313  141.61199951    1.21000004    1.94000006
   11.90388870  132.66900635    1.21000004    1.94000006
   11.90583324  141.49899292    1.21000004    1.94000006
   11.90777779  132.82400513    1.21000004    1.94000006
   11.91083336  132.16900635    1.19000006    1.96000004
   11.91416645  145.21499634    1.16999996    1.96000004
   11.91750050  131.66900635    1.19000006    1.94000006
   11.92055607  123.06999969    1.44000006    1.96000004
   11.92388916  142.01400757    1.46000004    1.94000006
   11.92694473  141.94599915    1.50000000    1.94000006
   11.93027782  136.34100342    1.61000001    1.96000004
   11.93361092  155.99699402    2.00000000    1.96000004
   11.93666649  158.15299988    1.98000002    1.96000004
   11.93916702  136.83399963    1.98000002    1.96000004
   11.94055557  140.83000183    1.98000002    1.96000004
   11.94361115  136.92799377    1.98000002    1.96000004
   11.94694424  137.52299500    1.91999996    1.96000004
   11.95027733  132.11500549    1.76999998    1.98000002
   11.95333290  133.60800171    1.50000000    1.98000002
   11.95666695  134.41099548    1.50000000    1.98000002
   11.96000004  139.01899719    1.36000001    1.98000002
   11.96305561  147.89199829    1.28999996    1.98000002
   11.96638870  135.70199585    1.25000000    2.00000000
   11.96944427  135.25700378    1.34000003    2.00000000
   11.97249985  145.70300293    1.75000000    1.98000002
   11.97333336  143.03300476    1.75000000    1.98000002
   11.97638798  140.50799561    1.78999996    1.98000002
   11.97972202  143.12699890    1.83000004    1.98000002
   11.98305511  149.49800110    2.21000004    2.01999998
   11.98611164  143.85600281    2.15000010    2.01999998
   11.98944473  145.54899597    2.05999994    2.01999998
   11.99250031  148.93600464    1.88000000    2.01999998
   11.99583340  157.45700073    1.83000004    2.01999998
   11.99916649  139.11300659    1.78999996    2.03999996
   12.00222206  147.56599426    1.48000002    2.01999998
   12.00555515  149.93699646    1.44000006    2.03999996
   12.00611115  145.77099609    1.44000006    2.03999996
   12.00944424  144.49800110    1.39999998    2.03999996
   12.01249981  132.88200378    1.33000004    2.03999996
   12.01583290  136.28599548    1.33000004    2.03999996
   12.01888847  146.52799988    1.21000004    2.03999996
   12.02222157  146.44299316    1.14999998    2.03999996
   12.02555561  145.21499634    1.14999998    2.03999996
   12.02861118  148.31799316    1.14999998    2.05999994
   12.03194427  134.97099304    1.14999998    2.05999994
   12.03500080  136.01400757    1.21000004    2.05999994
   12.03833389  143.13200378    1.30999994    2.05999994
   12.03944492  135.12300110    1.30999994    2.05999994
   12.04194450  132.63900757    1.38000000    2.05999994
   12.04527855  137.41900635    1.41999996    2.05999994
   12.04861164  130.77099609    1.39999998    2.05999994
   12.05166721  128.75900269    1.39999998    2.05999994
   12.05500031  132.57099915    1.30999994    2.05999994
   12.05833340  140.83399963    1.19000006    2.07999992
   12.06138897  133.98199463    1.13000000    2.05999994
   12.06472206  143.25599670    1.11000001    2.05999994
   12.06777763  133.00599670    1.19000006    2.07999992
   12.07111073  137.43499756    1.25000000    2.07999992
   12.07277775  128.24099731    1.28999996    2.07999992
   12.07472229  132.46499634    1.28999996    2.07999992
   12.07805538  134.38900757    1.30999994    2.07999992
   12.08138847  124.50499725    1.33000004    2.07999992
   12.08444405  142.17900085    1.36000001    2.07999992
   12.08777714  129.10600281    1.39999998    2.09999990
   12.09111118  131.67100525    1.39999998    2.09999990
   12.09416676  136.22799683    1.46000004    2.09999990
   12.09749985  137.08099365    1.46000004    2.09999990
   12.10055637  136.47599792    1.48000002    2.09999990
   12.10388947  144.03399658    1.48000002    2.09999990
   12.10611153  138.58799744    1.48000002    2.09999990
   12.10750008  140.25399780    1.48000002    2.09999990
   12.11083412  140.76400757    1.53999996    2.09999990
   12.11416721  134.93600464    1.61000001    2.09999990
   12.11722279  148.10099792    1.61000001    2.11999989
   12.12055588  142.29200745    1.48000002    2.11999989
   12.12388897  139.50199890    1.21000004    2.11999989
   12.12694454  149.05099487    1.09000003    2.13000011
   12.13027763  151.91499329    1.14999998    2.13000011
   12.13333321  139.64500427    2.39000010    2.13000011
   12.13666630  141.87600708    3.43000007    2.13000011
   12.13944435  157.88600159    4.67999983    2.13000011
   12.14027786  131.48800659    4.86999989    2.13000011
   12.14361095  137.43499756    4.90999985    2.13000011
   12.14694405  143.50700378    4.90999985    2.15000010
   12.14999962  150.17799377    4.90999985    2.15000010
   12.15333271  146.74499512    4.90999985    2.11999989
   12.15666676  143.01499939    4.90999985    2.13000011
   12.15972137  138.42999268    4.90999985    2.11999989
   12.16305542  129.73399353    4.90999985    2.09999990
   12.16611099  137.13000488    4.90999985    2.11999989
   12.16944504  139.47799683    4.90999985    2.13000011
   12.17277813  149.17700195    4.90999985    2.07999992
   12.17305565  152.36399841    4.84999990    2.05999994
   12.17638874  147.22000122    4.57999992    2.01999998
   12.17972279  145.01100159    4.28999996    2.00000000
   12.18277836  154.05000305    4.05999994    2.13000011
   12.18611145  153.97599792    4.21999979    2.13000011
   12.18944454  159.39700317    4.82999992    2.11999989
   12.19250011  145.13499451    4.90999985    2.09999990
   12.19583321  160.03700256    4.90999985    2.11999989
   12.19888878  332.87399292    4.90999985    1.96000004
   12.20222187  204.29899597    4.90999985    1.63000000
   12.20555496  214.75599670    4.90999985    1.80999994
   12.20611095  199.11700439    4.90999985    1.83000004
   12.20888901  224.58200073    4.90999985    1.85000002
   12.21222210  363.36099243    4.90999985    1.71000004
   12.21555519  139.98699951    4.90999985    1.50000000
   12.21861076  107.33200073    4.90999985    1.38000000
   12.22194386   89.75019836    4.90999985    1.36000001
   12.22527695  151.60400391    4.90999985    1.33000004
   12.22833252   -1.00000000    4.90999985    1.36000001
   12.23166656   -1.00000000    4.90999985    1.21000004
   12.23472214   -1.00000000    4.90999985    1.07000005
   12.23805618   50.66630173    4.90999985    1.26999998
   12.24166679   -1.00000000    4.90999985    1.23000002
   12.24499989   -1.00000000    4.90999985    1.13000000
   12.24833393   -1.00000000    4.90999985    0.94000000
   12.25138855   -1.00000000    4.90999985    1.07000005
   12.25472260  225.63299561    4.90999985    1.44000006
   12.25777817  132.06599426    4.90999985    1.78999996
   12.26111126  120.35900116    4.90999985    2.09999990
   12.26444435  145.24600220    4.90999985    2.17000008
   12.26749992  138.65299988    4.90999985    2.17000008
   12.27083302  130.74400330    4.90999985    2.17000008
   12.27277756  133.95899963    4.90999985    2.17000008
   12.27472210  134.38999939    4.90999985    2.17000008
   12.27777767  143.94799805    4.90999985    2.13000011
   12.28111076  137.41299438    4.90999985    2.15000010
   12.28416729  138.11500549    4.26999998    2.19000006
   12.28750038  125.24800110    3.16000009    2.21000004
   12.29083347  137.98699951    1.89999998    2.21000004
   12.29388905  143.41099548    1.30999994    2.21000004
   12.29722309  128.88299561    1.16999996    2.21000004
   12.30055618  132.63499451    1.00000000    2.19000006
   12.30361176  143.31900024    0.86000001    2.21000004
   12.30611134  125.96299744    0.88000000    2.21000004
   12.30749989  132.95199585    0.89999998    2.21000004
   12.31055546  126.63200378    0.92000002    2.21000004
   12.31388950  135.80299377    0.94000000    2.21000004
   12.31694412  130.94599915    0.98000002    2.21000004
   12.32027817  137.37899780    1.09000003    2.21000004
   12.32361126  127.37100220    1.48000002    2.23000002
   12.32666683  125.42500305    4.40999985    2.21000004
   12.32999992  131.43600464    4.90999985    2.23000002
   12.33333302  138.12199402    4.90999985    2.17000008
   12.33638859  172.19200134    4.90999985    2.05999994
   12.34000015   -1.00000000    4.90999985    1.69000006
   12.34333324   -1.00000000    4.90999985    0.83999997
   12.34666634   -1.00000000    4.90999985    0.61000001
   12.34972191   -1.00000000    4.90999985    0.47999999
   12.35305595   -1.00000000    4.90999985    0.34000000
   12.35611153   -1.00000000    4.90999985    0.19000000
   12.35944462   -1.00000000    4.90999985    0.17000000
   12.36277771   -1.00000000    4.90999985    0.20999999
   12.36583328   -1.00000000    4.90999985    0.38000000
   12.36916637   -1.00000000    4.90999985    0.86000001
   12.37250042  110.35399628    4.90999985    1.36000001
   12.37277794  106.22000122    4.90999985    1.39999998
   12.37583351   -1.00000000    4.90999985    1.34000003
   12.37916660   -1.00000000    4.90999985    0.67000002
   12.38222218   -1.00000000    4.90999985    0.41999999
   12.38555527   -1.00000000    4.90999985    0.46000001
   12.38888836   -1.00000000    4.90999985    0.61000001
   12.39194393   23.57019997    4.90999985    0.81999999
   12.39527798  117.86299896    4.90999985    1.25000000
   12.39833355  115.18199921    4.90999985    1.66999996
   12.40166664  145.26800537    4.90999985    1.86000001
   12.40499973  136.78399658    4.90999985    2.21000004
   12.40611076  135.42999268    4.90999985    2.25000000
   12.40861034  142.47300720    4.90999985    2.28999996
   12.41194439  137.95300293    4.90999985    2.28999996
   12.41499996  133.90299988    4.90999985    2.28999996
   12.41833401  132.59599304    4.90999985    2.28999996
   12.42138958  142.40499878    4.90999985    2.26999998
   12.42472267  137.60200500    4.26999998    2.28999996
   12.42805576  138.34700012    3.00000000    2.26999998
   12.43111134  143.45700073    2.19000006    2.26999998
   12.43444443  136.49600220    1.50000000    2.26999998
   12.43777752  138.50300598    1.30999994    2.26999998
   12.43944454  134.82000732    1.14999998    2.26999998
   12.44138908  140.18200684    1.11000001    2.26999998
   12.44472218  138.73199463    1.05999994    2.26999998
   12.44777775  137.54299927    1.03999996    2.28999996
   12.45111084  136.87100220    1.00000000    2.28999996
   12.45444393  141.36599731    0.98000002    2.28999996
   12.45749950  151.58000183    0.95999998    2.28999996
   12.46083355  138.68899536    0.94000000    2.28999996
   12.46388912  136.83700562    0.92000002    2.28999996
   12.46722221  151.01899719    0.92000002    2.28999996
   12.47055531  144.31199646    0.89999998    2.28999996
   12.47277737  149.40699768    0.89999998    2.28999996
   12.47416592  148.49200439    0.89999998    2.28999996
   12.47749996  155.67300415    0.92000002    2.28999996
   12.48055553  145.83700562    0.92000002    2.28999996
   12.48388958  148.09199524    0.98000002    2.28999996
   12.48722267  142.88299561    1.01999998    2.28999996
   12.49027824  144.80999756    1.05999994    2.28999996
   12.49361134  141.32899475    1.13000000    2.28999996
   12.49666691  134.89700317    1.19000006    2.28999996
   12.50000000  143.36599731    1.21000004    2.28999996
   12.50333309  140.26699829    1.21000004    2.28999996
   12.50611115  142.13000488    1.25000000    2.28999996
   12.50694466  142.39999390    1.25000000    2.28999996
   12.51027775  135.34700012    1.38000000    2.28999996
   12.51333332  126.58300018    1.66999996    2.28999996
   12.51666641  140.84800720    2.17000008    2.28999996
   12.51999950  140.67700195    2.46000004    2.26999998
   12.52305508  142.83299255    2.91000009    2.26999998
   12.52694416  137.29800415    3.28999996    2.25000000
   12.53027725  142.72700500    3.59999990    2.25000000
   12.53333378  129.81199646    3.93000007    2.25000000
   12.53666687  139.40699768    4.34999990    2.25000000
   12.53944492  141.00399780    4.55999994    2.26999998
   12.54027843  134.61700439    4.63999987    2.26999998
   12.54361153  139.80000305    4.84999990    2.28999996
   12.54666710  145.68600464    4.90999985    2.28999996
   12.55000019  147.45399475    4.90999985    2.28999996
   12.55333328  141.14799500    4.90999985    2.26999998
   12.55638885  152.00999451    4.90999985    2.26999998
   12.55972195  146.89500427    4.90999985    2.26999998
   12.56277752  171.05099487    4.90999985    2.28999996
   12.56611156  152.25300598    4.90999985    2.26999998
   12.56944466  144.95199585    4.90999985    2.26999998
   12.57250023  148.06300354    4.90999985    2.26999998
   12.57305527  144.31900024    4.90999985    2.26999998
   12.57638836  154.23100281    4.90999985    2.26999998
   12.57944393  151.87699890    4.90999985    2.25000000
   12.58277798  149.67399597    4.90999985    2.26999998
   12.58611107  148.39599609    4.90999985    2.26999998
   12.58916664  156.05200195    4.90999985    2.26999998
   12.59249973  172.94799805    4.90999985    2.26999998
   12.59583282  160.30499268    4.90999985    2.28999996
   12.59888840  161.89300537    4.90999985    2.28999996
   12.60222244  156.71600342    4.90999985    2.28999996
   12.60527802  163.96699524    4.90999985    2.28999996
   12.60638905  151.75500488    4.90999985    2.28999996
   12.60916710  173.07099915    4.90999985    2.28999996
   12.61222267  171.22000122    4.90999985    2.30999994
   12.61555576  153.60699463    4.90999985    2.28999996
   12.61888885  154.73899841    4.90999985    2.28999996
   12.62194443  160.75399780    4.90999985    2.28999996
   12.62527752  160.13200378    4.90999985    2.28999996
   12.62861156  161.48599243    4.90999985    2.28999996
   12.63166714  162.80799866    4.90999985    2.28999996
   12.63500023  154.90299988    4.90999985    2.28999996
   12.63805580  164.34899902    4.90999985    2.28999996
   12.63972187  159.68899536    4.90999985    2.28999996
   12.64194393  171.39799500    4.90999985    2.28999996
   12.64499950  163.66999817    4.90999985    2.28999996
   12.64833355  160.80099487    4.90999985    2.28999996
   12.65166664  163.68899536    4.90999985    2.28999996
   12.65472221  163.53100586    4.90999985    2.28999996
   12.65805531  157.19200134    4.90999985    2.28999996
   12.66111088  161.88299561    4.90999985    2.28999996
   12.66444397  160.87800598    4.90999985    2.26999998
   12.66777802  157.57000732    4.90999985    2.28999996
   12.67083359  149.55099487    4.90999985    2.28999996
   12.67305565  151.44700623    4.90999985    2.28999996
   12.67472267  156.77499390    4.90999985    2.28999996
   12.67777824  158.27799988    4.90999985    2.26999998
   12.68111134  161.11199951    4.90999985    2.25000000
   12.68444443  190.80599976    4.90999985    2.09999990
   12.68750000  186.87800598    4.90999985    2.00000000
   12.69083309  167.58500671    4.90999985    2.09999990
   12.69416714  165.86300659    4.90999985    2.15000010
   12.69722271  164.45199585    4.90999985    2.15000010
   12.70055580  173.58999634    4.90999985    2.17000008
   12.70361137  169.78700256    4.90999985    2.13000011
   12.70638847  156.98800659    4.90999985    2.15000010
   12.70749950  164.40600586    4.90999985    2.17000008
   12.71055508  158.69500732    4.90999985    2.19000006
   12.71388912  178.61599731    4.90999985    2.19000006
   12.71722221  205.50100708    4.90999985    2.17000008
   12.72027779  556.20898438    4.90999985    2.09999990
   12.72249985  165.86300659    4.90999985    2.15000010
   12.72249985  164.45199585    4.90999985    2.15000010
   12.72249985  173.58999634    4.90999985    2.17000008
   12.72249985  169.78700256    4.90999985    2.13000011
   12.72249985  164.40600586    4.90999985    2.17000008
   12.72277737  158.69500732    4.90999985    2.19000006
   12.72277737  178.61599731    4.90999985    2.19000006
   12.72277737  205.50100708    4.90999985    2.17000008
   12.72305489  556.20898438    4.90999985    2.09999990
   12.72499943   -1.00000000    4.90999985    1.33000004
   12.72805500   -1.00000000    4.90999985    1.11000001
   12.73138809   -1.00000000    4.90999985    1.25000000
   12.73444462   -1.00000000    4.90999985    0.63000000
   12.73777771   -1.00000000    4.90999985    0.55000001
   12.74722290  292.11499023    4.90999985    1.39999998
   12.75027752  208.97799683    4.90999985    1.86000001
   12.75361156  212.62699890    4.90999985    2.03999996
   12.75638866  213.65299988    4.90999985    2.07999992
   12.75749969  215.25700378    4.90999985    2.07999992
   12.76083374  192.43800354    4.90999985    2.09999990
   12.76388931  209.83399963    4.90999985    2.05999994
   12.76722240  168.96499634    4.90999985    2.15000010
   12.77027798  179.72799683    4.90999985    2.19000006
   12.79277802  179.72799683    4.90999985    1.60000002
   12.79694462   89.42220306    4.90999985    1.66999996
   12.80027771   68.02169800    4.90999985    1.55999994
   12.80333328  443.32000732    4.90999985    1.55999994
   12.80527782   -1.00000000   -1.00000000   -1.00000000
   12.80555534  192.43800354    4.90999985    2.09999990
   12.80555534  209.83399963    4.90999985    2.05999994
   12.80555534  168.96499634    4.90999985    2.15000010
   12.80555534  179.72799683    4.90999985    2.19000006
   12.80583382   89.42220306    4.90999985    1.66999996
   12.80583382   68.02169800    4.90999985    1.55999994
   12.80583382  443.32000732    4.90999985    1.55999994
   12.80583382  212.62699890    4.90999985    2.03999996
   12.80583382  215.25700378    4.90999985    2.07999992
   12.80777836   -1.00000000    4.90999985    1.38000000
   12.81111145   -1.00000000    4.90999985    1.11000001
   12.81444454   -1.00000000    4.90999985    1.21000004
   12.81750011   -1.00000000    4.90999985    1.33000004
   12.82083321   -1.00000000    4.90999985    1.25000000
   12.82611084   -1.00000000    4.90999985    1.50000000
   12.83027744   -1.00000000    4.90999985    1.60000002
   12.83361053   -1.00000000    4.90999985    1.39999998
   12.83666611   45.29040146    4.90999985    1.39999998
   12.83916664  102.87699890    4.90999985    1.55999994
   12.84027767   61.01810074    4.90999985    1.61000001
   12.84333324  179.42599487    4.90999985    1.60000002
   12.84666634  300.23001099    4.90999985    1.85000002
   12.85000038  387.83499146    4.90999985    1.88000000
   12.85305595  292.36401367    4.90999985    1.83000004
   12.85638905  114.81900024    4.90999985    1.83000004
   12.85972214   -1.00000000    4.90999985    1.55999994
   12.86277771   -1.00000000    4.90999985    1.41999996
   12.86888885   -1.00000000    4.90999985    1.83000004
   12.87305546  410.36999512    4.90999985    1.78999996
   12.87527752  255.41499329    4.90999985    1.78999996
   12.87527752  179.42599487    4.90999985    1.60000002
   12.87527752  300.23001099    4.90999985    1.85000002
   12.87527752  387.83499146    4.90999985    1.88000000
   12.87527752  292.36401367    4.90999985    1.83000004
   12.87555599  114.81900024    4.90999985    1.83000004
   12.87555599   -1.00000000    4.90999985    1.55999994
   12.87555599   -1.00000000    4.90999985    1.41999996
   12.87555599  410.36999512    4.90999985    1.78999996
   12.87583351   61.01810074    4.90999985    1.61000001
   12.87750053   98.64129639    4.90999985    1.75000000
   12.88055611   95.00720215    4.90999985    1.58000004
   12.88388920   -1.00000000   -1.00000000   -1.00000000
   12.88722229   -1.00000000    4.90999985    1.30999994
   12.89027786   -1.00000000    4.90999985    1.01999998
   12.89999962   -1.00000000    4.90999985    1.26999998
   12.90333271   -1.00000000    4.90999985    1.09000003
   12.90638828   -1.00000000    4.90999985    1.26999998
   12.90888882  340.99700928    4.90999985    1.48000002
   12.90999985  411.89700317    4.90999985    1.64999998
   12.91194439   73.39160156    4.90999985    1.75000000
   12.91194439   98.64129639    4.90999985    1.75000000
   12.91222191   95.00720215    4.90999985    1.58000004
   12.91222191   -1.00000000   -1.00000000   -1.00000000
   12.91222191   -1.00000000    4.90999985    1.30999994
   12.91222191   -1.00000000    4.90999985    1.01999998
   12.91222191   -1.00000000    4.90999985    1.26999998
   12.91249943   -1.00000000    4.90999985    1.09000003
   12.91249943   -1.00000000    4.90999985    1.26999998
   12.91249943  411.89700317    4.90999985    1.64999998
   12.91444397  288.90499878    4.90999985    1.55999994
   12.91777802  259.47698975    4.90999985    1.83000004
   12.92083359  192.17799377    4.90999985    1.83000004
   12.92416668  222.06599426    4.90999985    1.98000002
   12.92750072  196.60099792    4.90999985    2.01999998
   12.93277836  196.60099792    4.90999985    2.05999994
   12.93694496  187.99699402    4.90999985    2.03999996
   12.94000053  179.61700439    4.90999985    2.07999992
   12.94333363  177.00399780    4.90999985    2.09999990
   12.94583321  209.13999939    4.90999985    2.11999989
   12.94694424  202.80400085    4.90999985    2.09999990
   12.94999981  212.94400024    4.90999985    2.07999992
   12.95333290  201.67599487    4.90999985    2.01999998
   12.95638847  244.74600220    4.90999985    2.00000000
   12.95972157  272.23400879    4.90999985    1.94000006
   12.96305561  326.16299438    4.90999985    1.89999998
   12.96611118  343.37701416    4.90999985    1.85000002
   12.96944427  418.07101440    4.90999985    1.78999996
   12.97138882  365.95700073    4.90999985    1.78999996
   12.97277737  347.70800781    4.90999985    1.80999994
   12.97277737  212.94400024    4.90999985    2.07999992
   12.97277737  201.67599487    4.90999985    2.01999998
   12.97277737  244.74600220    4.90999985    2.00000000
   12.97305489  272.23400879    4.90999985    1.94000006
   12.97305489  326.16299438    4.90999985    1.89999998
   12.97305489  343.37701416    4.90999985    1.85000002
   12.97305489  418.07101440    4.90999985    1.78999996
   12.97305489  177.00399780    4.90999985    2.09999990
   12.97333336  202.80400085    4.90999985    2.09999990
   12.97444439  319.30499268    4.90999985    1.83000004
   12.97749996  276.59201050    4.90999985    1.88000000
   12.98083305  304.66400146    4.90999985    1.86000001
   12.98416710  266.51098633    4.90999985    1.86000001
   12.98722267  287.14199829    4.90999985    1.89999998
   12.99361134  287.14199829    4.90999985    1.89999998
   12.99750042  293.80599976    4.90999985    1.89999998
   13.00083351  272.84201050    4.90999985    1.88000000
   13.00416660  403.89599609    4.90999985    1.85000002
   13.00611115  423.45700073    4.90999985    1.80999994
   13.00722218  402.24099731    4.90999985    1.78999996
   13.00888920  438.11801147    4.90999985    1.78999996
   13.01027775  336.46099854    4.90999985    1.76999998
   13.01027775  319.30499268    4.90999985    1.83000004
   13.01027775  276.59201050    4.90999985    1.88000000
   13.01027775  304.66400146    4.90999985    1.86000001
   13.01027775  266.51098633    4.90999985    1.86000001
   13.01055527  287.14199829    4.90999985    1.89999998
   13.01055527  293.80599976    4.90999985    1.89999998
   13.01055527  272.84201050    4.90999985    1.88000000
   13.01055527  403.89599609    4.90999985    1.85000002
   13.01111126  404.60900879    4.90999985    1.78999996
   13.01305580  336.14001465    4.90999985    1.78999996
   13.01500034  394.94900513    4.90999985    1.80999994
   13.01833344  241.60800171    4.90999985    1.75000000
   13.02166653  404.71398926    4.90999985    1.75000000
   13.02361107  375.48001099    4.90999985    1.78999996
   13.02499962  399.40200806    4.90999985    1.78999996
   13.02611065  411.14599609    4.90999985    1.78999996
   13.02750015  348.00799561    4.90999985    1.75000000
   13.02777767  394.94900513    4.90999985    1.80999994
   13.02777767  241.60800171    4.90999985    1.75000000
   13.02777767  404.71398926    4.90999985    1.75000000
   13.02833271  405.57800293    4.90999985    1.75000000
   13.03027725  424.07199097    4.90999985    1.73000002
   13.03166676  394.36401367    4.90999985    1.75000000
   13.03305531  392.37200928    4.90999985    1.75000000
   13.03444481  431.59799194    4.90999985    1.75000000
   13.03583336  407.56900024    4.90999985    1.76999998
   13.03722286  311.20901489    4.90999985    1.78999996
   13.03722286  405.57800293    4.90999985    1.75000000
   13.03777790  321.78500366    4.90999985    1.80999994
   13.04111195  375.39099121    4.90999985    1.83000004
   13.04444504  280.70901489    4.90999985    1.80999994
   13.04750061  235.49499512    4.90999985    1.86000001
   13.05083370  258.19900513    4.90999985    1.88000000
   13.05388927  210.36500549    4.90999985    1.91999996
   13.05805588  210.36500549    4.90999985    2.00000000
   13.06222248  173.97500610    4.90999985    2.01999998
   13.06555557  206.10099792    4.90999985    2.01999998
   13.06861115  191.08399963    4.90999985    2.03999996
   13.07111073  191.82000732    4.90999985    2.09999990
   13.07222176  160.35299683    4.90999985    2.15000010
   13.07555580  148.94000244    4.90999985    2.28999996
   13.07888889  151.25300598    4.90999985    2.28999996
   13.08194447  149.21299744    4.90999985    2.36999989
   13.08527756  148.75999451    4.90999985    2.40000010
   13.08861065  139.33299255    4.90999985    2.40000010
   13.09166622  143.88600159    4.90999985    2.44000006
   13.09499931  135.32200623    4.90999985    2.42000008
   13.10083389  135.32200623    4.90999985    2.42000008
   13.10500050  141.99800110    4.90999985    2.44000006
   13.10833359  135.21299744    4.90999985    2.44000006
   13.11166668  142.44099426    4.90999985    2.46000004
   13.11472225  147.56900024    4.90999985    2.46000004
   13.11805534  145.01100159    4.90999985    2.44000006
   13.12111092  139.33399963    4.90999985    2.44000006
   13.12444496  136.06500244    4.90999985    2.44000006
   13.12777805  141.94099426    4.90999985    2.46000004
   13.13083363  144.06500244    4.84999990    2.44000006
   13.13416672  140.99400330    4.82999992    2.44000006
   13.13749981  141.57800293    4.80000019    2.44000006
   13.13777733  154.14399719    4.76000023    2.44000006
   13.14388847  154.14399719    4.61999989    2.44000006
   13.14805508  152.27600098    4.38999987    2.42000008
   13.15111065  133.17799377    3.95000005    2.44000006
   13.15444374  149.86399841    3.43000007    2.44000006
   13.15749931  139.56900024    2.96000004    2.48000002
   13.16083336  132.24800110    2.55999994    2.48000002
   13.16416645  145.46800232    2.11999989    2.48000002
   13.16722298  150.05900574    1.91999996    2.48000002
   13.17055607  146.93800354    1.86000001    2.48000002
   13.17111111  149.69599915    1.85000002    2.48000002
   13.17416668  130.67999268    1.89999998    2.50000000
   13.17750072  140.27299500    1.91999996    2.50000000
   13.18055630  136.06199646    2.00000000    2.48000002
   13.18666649  136.06199646    2.15000010    2.48000002
   13.19083309  147.30000305    2.26999998    2.48000002
   13.19416714  132.79800415    2.34999990    2.48000002
   13.19722271  139.42100525    2.39000010    2.48000002
   13.20055580  138.98599243    2.53999996    2.48000002
   13.20388889  141.47000122    2.66000009    2.48000002
   13.20444393  142.73699951    2.69000006    2.48000002
   13.20749950  142.57400513    2.69000006    2.48000002
   13.21083355  144.74200439    2.69000006    2.48000002
   13.21388912  148.05400085    2.66000009    2.48000002
   13.21722221  145.68600464    2.61999989    2.50000000
   13.22027779  144.25100708    2.53999996    2.48000002
   13.22361088  142.73300171    2.86999989    2.48000002
   13.22944355  142.73300171    3.50000000    2.48000002
   13.23361111  140.83799744    3.64000010    2.48000002
   13.23694515  143.11700439    3.84999990    2.44000006
   13.23777771  133.33299255    3.86999989    2.44000006
   13.24055576  146.21200562    3.78999996    2.46000004
   13.24388885  143.56300354    3.66000009    2.48000002
   13.24694443  136.31100464    3.48000002    2.48000002
   13.25027752  136.20100403    3.45000005    2.46000004
   13.25361156  136.40800476    3.43000007    2.48000002
   13.25666714  135.03700256    3.45000005    2.46000004
   13.26000023  139.63000488    3.41000009    2.46000004
   13.26305580  127.75900269    3.34999990    2.48000002
   13.26638889  123.29100037    3.50000000    2.48000002
   13.27222157  123.29100037    3.73000002    2.48000002
   13.27638817  136.78500366    4.23999977    2.50000000
   13.27972221  129.04699707    4.90999985    2.50000000
   13.28305531  137.96099854    4.90999985    2.46000004
   13.28611183  189.25399780    4.90999985    2.21000004
   13.28944492   -1.00000000    4.90999985    1.28999996
   13.29250050   -1.00000000    4.90999985    1.11000001
   13.29583359  129.49699402    4.90999985    1.55999994
   13.29916668  137.18499756    4.90999985    2.44000006
   13.30222225  144.54200745    4.90999985    2.46000004
   13.30444431  137.28799438    4.90999985    2.46000004
   13.30583382  129.96600342    4.90999985    2.46000004
   13.30916691  140.78100586    4.90999985    2.42000008
   13.31527805  140.78100586    4.90999985    2.36999989
   13.31944466  136.80799866    4.90999985    2.34999990
   13.32250023  137.74800110    4.90999985    2.32999992
   13.32583332  139.99299622    4.90999985    2.32999992
   13.32888889  134.44400024    4.90999985    2.30999994
   13.33222198  146.00799561    4.90999985    2.32999992
   13.33555508  141.46899414    4.90999985    2.32999992
   13.33777714  150.89100647    4.90999985    2.32999992
   13.33916664  141.21000671    4.90999985    2.30999994
   13.34249973  141.27400208    4.90999985    2.32999992
   13.34555531  138.52000427    4.90999985    2.32999992
   13.34888840  135.00399780    4.90999985    2.32999992
   13.35222244  132.79600525    4.90999985    2.42000008
   13.35805607  132.79600525    4.90999985    2.21000004
   13.36222267   -1.00000000    4.90999985    1.46000004
   13.36527824   -1.00000000    4.90999985    0.88000000
   13.36861134   83.30619812    4.90999985    1.38000000
   13.37111092  224.32299805    4.90999985    1.53999996
   13.37222195  169.40499878    4.90999985    1.83000004
   13.37555599  131.78799438    4.90999985    2.17000008
   13.37861156  144.83099365    4.90999985    2.30999994
   13.38194466   -1.00000000    4.90999985    1.89999998
   13.38527775  155.73199463    4.90999985    1.60000002
   13.38833332  126.73100281    4.90999985    2.15000010
   13.39166641  132.12600708    4.90999985    2.40000010
   13.39472198  122.91000366    4.01999998    2.53999996
   13.40083313  122.91000366    2.61999989    2.55999994
   13.40499973  131.00399780    3.57999992    2.50000000
   13.40833282  133.59599304    4.90999985    2.51999998
   13.41138840  124.92299652    4.90999985    2.48000002
   13.41472149  143.68299866    4.90999985    2.48000002
   13.41805553  215.68600464    4.90999985    2.40000010
   13.42111111  187.34899902    4.90999985    1.88000000
   13.42444515   -1.00000000    4.90999985    1.55999994
   13.42750072   -1.00000000    4.90999985    1.25000000
   13.43083382   -1.00000000    4.90999985    0.83999997
   13.43416691   -1.00000000    4.90999985    0.67000002
   13.43722248   -1.00000000    4.90999985    0.63000000
   13.44777775   -1.00000000    4.90999985    1.16999996
   13.45111084   -1.00000000    4.90999985    1.07000005
   13.45416641   -1.00000000    4.90999985    0.92000002
   13.45749950   -1.00000000    4.90999985    0.92000002
   13.46083355   -1.00000000    4.90999985    0.75000000
   13.46388912   -1.00000000    4.90999985    0.81999999
   13.46722221   -1.00000000    4.90999985    0.98000002
   13.47027779   -1.00000000    4.90999985    0.94000000
   13.47388840   -1.00000000    4.90999985    0.83999997
   13.47722149   -1.00000000    4.90999985    0.83999997
   13.48027706   -1.00000000    4.90999985    0.94000000
   13.49055576   -1.00000000    4.90999985    0.86000001
   13.49388885   -1.00000000    4.90999985    0.75000000
   13.49722290  277.90701294    4.90999985    1.21000004
   13.50027752  245.58000183    4.90999985    2.21000004
   13.50361156  224.29299927    4.90999985    2.17000008
   13.50444412  203.80200195    4.90999985    2.21000004
   13.50722218  201.13000488    4.90999985    2.36999989
   13.51055527  165.64999390    4.90999985    2.36999989
   13.51361084  175.22799683    4.90999985    2.36999989
   13.51694393  181.69500732    4.90999985    2.32999992
   13.52027798  199.97799683    4.90999985    2.26999998
   13.52333355  184.38000488    4.90999985    2.26999998
   13.52944374  184.38000488    4.90999985    2.17000008
   13.53361130  190.87699890    4.90999985    2.21000004
   13.53666687  149.42799377    4.90999985    2.25000000
   13.53777790  158.50300598    4.90999985    2.28999996
   13.54027843  164.39500427    4.90999985    2.26999998
   13.54361153  162.74099731    4.90999985    2.28999996
   13.54666710  153.62199402    4.90999985    2.25000000
   13.55000019  160.76699829    4.90999985    2.26999998
   13.55333328  159.57099915    4.90999985    2.25000000
   13.55638885  153.01899719    4.90999985    2.25000000
   13.55972195  151.61599731    4.90999985    2.23000002
   13.56305599  167.90400696    4.90999985    2.25000000
   13.56611156  164.87600708    4.90999985    2.25000000
   13.57222176  164.87600708    4.90999985    2.21000004
   13.57638836  152.31700134    4.90999985    2.21000004
   13.57972240  181.05400085    4.90999985    2.11999989
   13.58277798  146.03199768    4.90999985    2.05999994
   13.58611107  148.84100342    4.90999985    2.09999990
   13.58944416  143.74699402    4.90999985    2.17000008
   13.59249973  147.12600708    4.90999985    2.25000000
   13.59583282  145.72500610    4.90999985    2.21000004
   13.59888840  154.65800476    4.90999985    2.25000000
   13.60222244  159.07400513    4.90999985    2.21000004
   13.60444450  158.95500183    4.90999985    2.21000004
   13.60583401  157.22999573    4.90999985    2.21000004
   13.60916710  165.05599976    4.90999985    2.21000004
   13.61500072  165.05599976    4.90999985    2.26999998
   13.61916637  143.97000122    4.90999985    2.28999996
   13.62250042  136.50000000    4.90999985    2.30999994
   13.62583351  136.05499268    4.90999985    2.34999990
   13.62888908  131.90600586    4.90999985    2.36999989
   13.63222218  132.72399902    4.90999985    2.36999989
   13.63555527  133.92999268    4.90999985    2.36999989
   13.63777733  136.38900757    4.90999985    2.34999990
   13.63916683  137.30700684    4.90999985    2.32999992
   13.64249992  138.49800110    4.90999985    2.32999992
   13.64555550  148.28300476    4.90999985    2.30999994
   13.64888859  153.77200317    4.90999985    2.30999994
   13.65222168  152.35699463    4.90999985    2.25000000
   13.65805531  152.35699463    4.90999985    2.26999998
   13.66222191  154.63699341    4.90999985    2.26999998
   13.66527748  143.76699829    4.90999985    2.26999998
   13.66861153  142.26699829    4.90999985    2.26999998
   13.67111111  155.84700012    4.90999985    2.28999996
   13.67222214  148.68699646    4.90999985    2.28999996
   13.67555618  155.73300171    4.90999985    2.25000000
   13.67861176  150.57699585    4.90999985    2.28999996
   13.68194485  154.07899475    4.90999985    2.26999998
   13.68527794  158.48500061    4.90999985    2.25000000
   13.68833351  164.38200378    4.90999985    2.23000002
   13.69166660  165.49800110    4.90999985    2.15000010
   13.69499969  173.80599976    4.90999985    2.15000010
   13.70083332  173.80599976    4.90999985    2.25000000
   13.70499992  157.28900146    4.90999985    2.19000006
   13.70805550  155.44999695    4.90999985    2.23000002
   13.71138859  144.23500061    4.90999985    2.17000008
   13.71472168  160.10499573    4.90999985    2.25000000
   13.71777725  172.26499939    4.90999985    2.21000004
   13.72111034  168.97399902    4.90999985    2.21000004
   13.72444439  155.87100220    4.90999985    2.13000011
   13.72749996  160.67100525    4.90999985    2.19000006
   13.73083305  194.62800598    4.90999985    2.13000011
   13.73388958  200.20599365    4.90999985    2.09999990
   13.73722267  202.04800415    4.90999985    2.05999994
   13.73805618  194.38000488    4.90999985    2.05999994
   13.74361134  194.38000488    4.90999985    2.09999990
   13.74777794  170.38699341    4.90999985    2.19000006
   13.75111103  178.48500061    4.90999985    2.17000008
   13.75416660  171.90400696    4.90999985    2.17000008
   13.75749969  176.87800598    4.90999985    2.21000004
   13.76083374  181.96699524    4.90999985    2.21000004
   13.76388931  157.01199341    4.90999985    2.23000002
   13.76722240  169.59399414    4.90999985    2.30999994
   13.77027798  155.83399963    4.90999985    2.25000000
   13.77138901  157.85400391    4.90999985    2.26999998
   13.77388859  166.23300171    4.90999985    2.23000002
   13.77722168  148.32299805    4.90999985    2.28999996
   13.78055573  149.30900574    4.90999985    2.36999989
   13.78638935  149.30900574    4.90999985    2.39000010
   13.80611134  143.17100525    4.90999985    2.46000004
   13.80944443  143.88299561    4.90999985    2.46000004
   13.81250000  139.14599609    4.90999985    2.44000006
   13.81583309  121.84700012    4.90999985    2.44000006
   13.81916618  141.02099609    4.90999985    2.44000006
   13.82222176  135.04699707    4.90999985    2.46000004
   13.82555580  142.55099487    4.90999985    2.48000002
   13.82972240  142.55099487    4.90999985    2.44000006
   13.83388901  159.73699951    4.90999985    2.44000006
   13.83694458  154.51699829    4.90999985    2.44000006
   13.83916664  144.60299683    4.90999985    2.44000006
   13.84055519  154.43099976    4.90999985    2.44000006
   13.84361076  141.35000610    4.90999985    2.44000006
   13.84694386  138.48599243    4.90999985    2.44000006
   13.85027790  134.67500305    4.90999985    2.40000010
   13.85333347  145.75300598    4.90999985    2.42000008
   13.85666752  145.52200317    4.90999985    2.44000006
   13.85972214  130.82899475    4.90999985    2.44000006
   13.86305618  141.29299927    4.90999985    2.46000004
   13.86638927  134.92700195    4.90999985    2.48000002
   13.87250042  134.92700195    4.90999985    2.48000002
   13.87666702  129.54600525    4.90999985    2.42000008
   13.87972260  129.72300720    4.90999985    2.50000000
   13.88305569  122.51100159    4.90999985    2.51999998
   13.88638878  123.18900299    4.90999985    2.50000000
   13.88944435  130.05499268    4.90999985    2.50000000
   13.89277744  130.09899902    4.90999985    2.50000000
   13.89611053  130.64500427    4.90999985    2.44000006
   13.89916611  126.92800140    4.90999985    2.46000004
   13.90249920  127.48400116    4.90999985    2.48000002
   13.90583324  131.40100098    4.90999985    2.46000004
   13.90749931  138.09100342    4.90999985    2.40000010
   13.90944386  140.36599731    4.90999985    2.40000010
   13.91527748  140.36599731    4.90999985    2.21000004
   13.91944504  106.48400116    4.90999985    1.86000001
   13.92277813  333.02999878    4.90999985    1.78999996
   13.92583370  220.70500183    4.90999985    2.01999998
   13.92916679   -1.00000000    4.90999985    1.78999996
   13.93222237   -1.00000000    4.90999985    1.30999994
   13.93555546   -1.00000000    4.90999985    1.25000000
   13.93888855   -1.00000000    4.90999985    1.11000001
   13.94222260   -1.00000000    4.90999985    1.61000001
   13.94555569   -1.00000000    4.90999985    1.44000006
   13.94888878  302.27301025    4.90999985    1.39999998
   13.95194435  261.46701050    4.90999985    1.89999998
   13.95805550  261.46701050    4.90999985    1.38000000
   13.96222210  122.59999847    4.90999985    1.46000004
   13.96555519   -1.00000000    4.90999985    1.63000000
   13.96888828  220.75300598    4.90999985    1.80999994
   13.97194386  168.70899963    4.90999985    2.03999996
   13.97444439  170.68499756    4.90999985    2.13000011
   13.97583294  221.66000366    4.90999985    2.09999990
   13.97888851  291.35101318    4.90999985    1.94000006
   13.98222160  217.19200134    4.90999985    1.88000000
   13.98555565  215.74600220    4.90999985    1.98000002
   13.98861122  172.70300293    4.90999985    2.03999996
   13.99194431  181.18200684    4.90999985    2.17000008
   13.99499989  174.53300476    4.90999985    2.17000008
   14.00111103  174.53300476    4.90999985    2.32999992
   14.00527763  142.25500488    4.90999985    2.34999990
   14.00777817  149.43600464    4.90999985    2.39000010
   14.00861073  137.26100159    4.90999985    2.39000010
   14.01194477  145.93600464    4.90999985    2.36999989
   14.01527786  134.19000244    4.90999985    2.36999989
   14.01833344  133.70700073    4.90999985    2.40000010
   14.02166653  139.87100220    4.90999985    2.28999996
   14.02472210  142.28599548    4.90999985    2.30999994
   14.02805519  142.50900269    4.90999985    2.28999996
   14.03138828  187.04600525    4.90999985    2.28999996
   14.03444481   -1.00000000    4.90999985    1.94000006
   14.03777790   -1.00000000    4.90999985    1.53999996
   14.04388905   -1.00000000    4.90999985    2.28999996
   14.04805565  172.32200623    4.90999985    2.25000000
   14.05111122  143.56900024    4.90999985    2.17000008
   14.05444431  157.03300476    4.90999985    2.30999994
   14.05777836  142.41099548    4.90999985    2.42000008
   14.06083393  130.16200256    4.90999985    2.44000006
   14.06416702  145.96099854    4.90999985    2.48000002
   14.06750011  155.52600098    4.90999985    2.46000004
   14.07055569  148.04899597    4.90999985    2.42000008
   14.07388878  148.82899475    4.90999985    2.44000006
   14.07472229  147.61999512    4.90999985    2.44000006
   14.07750034  154.91499329    4.90999985    2.46000004
   14.08055592  146.34300232    4.90999985    2.55999994
   14.08666611  146.34300232    4.90999985    2.55999994
   14.09083271  124.61299896    4.90999985    2.55999994
   14.09416676  141.60400391    4.90999985    2.53999996
   14.09722233  146.72599792    4.90999985    2.50000000
   14.10055637  147.62699890    4.90999985    2.48000002
   14.10388947  158.07099915    4.90999985    2.50000000
   14.10694504  156.93600464    4.90999985    2.46000004
   14.10805607  158.19200134    4.90999985    2.48000002
   14.11055565  151.35899353    4.90999985    2.42000008
   14.11361122  220.11599731    4.90999985    2.19000006
   14.11694431   -1.00000000    4.90999985    1.89999998
   14.12027836   -1.00000000    4.90999985    1.48000002
   14.12333393   -1.00000000    4.90999985    1.30999994
   14.12944412   -1.00000000    4.90999985    2.42000008
   14.13361073  161.43899536    4.90999985    2.44000006
   14.13694477  159.20399475    4.90999985    2.50000000
   14.14027786  148.46699524    4.90999985    2.46000004
   14.14166641  151.36399841    4.90999985    2.51999998
   14.14388847  157.21600342    4.90999985    2.46000004
   14.14722252  162.12899780    4.90999985    2.46000004
   14.15027714  152.64500427    4.90999985    2.48000002
   14.15361118  144.26199341    4.90999985    2.46000004
   14.15666676  145.31399536    4.90999985    2.46000004
   14.15999985  147.22599792    4.90999985    2.51999998
   14.16333294  140.17999268    4.90999985    2.51999998
   14.16638851  136.38999939    4.90999985    2.53999996
   14.17250061  136.38999939    4.90999985    2.48000002
   14.17666721  158.19400024    4.90999985    2.48000002
   14.17972279  145.91799927    4.90999985    2.46000004
   14.18305588  145.56599426    4.90999985    2.48000002
   14.18611145  146.54100037    4.90999985    2.50000000
   14.18944454  154.05799866    4.90999985    2.50000000
   14.19277763  140.55200195    4.90999985    2.50000000
   14.19583321  147.27099609    4.90999985    2.51999998
   14.19916630  134.22900391    4.90999985    2.50000000
   14.20249939  148.85800171    4.90999985    2.51999998
   14.20555496  151.78700256    4.90999985    2.44000006
   14.20833302  171.04299927    4.90999985    2.40000010
   14.20944405  168.63699341    4.90999985    2.30999994
   14.21527767  168.63699341    4.90999985    1.89999998
   14.21944427  242.02799988    4.90999985    1.73000002
   14.22249985  178.45500183    4.90999985    2.07999992
   14.22583294  146.13400269    4.90999985    2.30999994
   14.22916603  142.05000305    4.90999985    2.36999989
   14.23222160  140.91799927    4.90999985    2.40000010
   14.23555565  134.44999695    4.90999985    2.36999989
   14.23888874  127.51799774    4.90999985    2.42000008
   14.24166679  132.90899658    4.90999985    2.42000008
   14.24250031  136.61300659    4.90999985    2.42000008
   14.24555588  133.45700073    4.90999985    2.42000008
   14.24888897  128.19000244    4.90999985    2.42000008
   14.25194454  138.67500305    4.90999985    2.40000010
   14.25805569  138.67500305    4.90999985    2.32999992
   14.26222229  162.51899719    4.90999985    2.30999994
   14.26555538  152.67300415    4.90999985    2.36999989
   14.26861095  151.55299377    4.90999985    2.28999996
   14.27194405  158.45199585    4.90999985    2.25000000
   14.27499962  165.83399963    4.90999985    2.28999996
   14.27555561  149.90699768    4.90999985    2.28999996
   14.27861118  156.88000488    4.90999985    2.32999992
   14.28194427  134.44299316    4.90999985    2.34999990
   14.28500080  130.88699341    4.90999985    2.36999989
   14.28833389  134.05799866    4.90999985    2.36999989
   14.29166698  130.76199341    4.90999985    2.39000010
   14.29472256  132.60499573    4.90999985    2.36999989
   14.30083370  132.60499573    4.90999985    2.40000010
   14.30500031  128.78399658    4.90999985    2.32999992
   14.30833340  137.51800537    4.90999985    2.39000010
   14.30888939  140.49499512    4.90999985    2.39000010
   14.31194496  144.56100464    4.90999985    2.30999994
   14.31527805  130.48399353    4.90999985    2.39000010
   14.31833363  132.81900024    4.90999985    2.46000004
   14.32166672  136.20799255    4.90999985    2.44000006
   14.32499981  136.90800476    4.90999985    2.48000002
   14.32805538  124.50299835    4.90999985    2.46000004
   14.33138847  123.78299713    4.90999985    2.50000000
   14.33472157  128.59700012    4.90999985    2.51999998
   14.33777714  143.66900635    4.90999985    2.48000002
   14.34388828  143.66900635    4.90999985    2.48000002
   14.34805489  130.58099365    4.90999985    2.44000006
   14.35111141  128.17999268    4.90999985    2.44000006
   14.35444450  144.30200195    4.90999985    2.40000010
   14.35750008  131.67599487    4.90999985    2.42000008
   14.36083412  149.21899414    4.90999985    2.39000010
   14.36416721  150.33099365    4.90999985    2.34999990
   14.36722279  148.60400391    4.90999985    2.30999994
   14.37055588  164.60600281    4.90999985    2.25000000
   14.37361145  161.25399780    4.90999985    2.25000000
   14.37500000  142.41400146    4.90999985    2.26999998
   14.37750053  141.96499634    4.90999985    2.26999998
   14.38055611  139.63099670    4.90999985    2.23000002
   14.38666630  139.63099670    4.90999985    2.21000004
   14.39083290  128.54699707    4.90999985    2.28999996
   14.39416695  127.54900360    4.90999985    2.40000010
   14.39722252  128.24200439    4.90999985    2.40000010
   14.40055561  125.77799988    4.90999985    2.40000010
   14.40361118  136.08599854    4.90999985    2.39000010
   14.40694427  135.77699280    4.90999985    2.36999989
   14.40833282  134.61000061    4.90999985    2.40000010
   14.41055489  136.66000366    4.90999985    2.32999992
   14.41361046  128.55599976    4.90999985    2.40000010
   14.41694450  137.65899658    4.90999985    2.40000010
   14.42027855  135.82099915    4.90999985    2.40000010
   14.42333412  132.34599304    4.90999985    2.39000010
   14.42944431  132.34599304    4.90999985    2.39000010
   14.43361092  131.22200012    4.90999985    2.44000006
   14.43666649  128.87699890    4.90999985    2.44000006
   14.44000053  133.44999695    4.90999985    2.46000004
   14.44194412  129.44900513    4.90999985    2.50000000
   14.44361115  121.74600220    4.90999985    2.50000000
   14.44694424  111.52500153    4.90999985    2.50000000
   14.45027733  120.91500092    4.90999985    2.48000002
   14.45333290  119.27700043    4.90999985    2.53999996
   14.45666695  121.16400146    4.90999985    2.61999989
   14.45972157  119.14099884    4.90999985    2.61999989
   14.46305561  117.85600281    4.90999985    2.59999990
   14.46638870  119.20400238    4.73999977    2.61999989
   14.47222137  119.20400238    3.30999994    2.64000010
   14.47638798  117.40299988    2.98000002    2.61999989
   14.47972202  121.68099976    2.75000000    2.64000010
   14.48277760  112.62500000    2.26999998    2.64000010
   14.48611164  113.10600281    2.32999992    2.64000010
   14.48944473  112.42900085    3.03999996    2.61999989
   14.49250031  103.19599915    3.48000002    2.61999989
   14.49583340  108.23500061    3.36999989    2.61999989
   14.49888897  108.37500000    3.28999996    2.61999989
   14.50222206  113.31500244    3.26999998    2.64000010
   14.50555515  116.30300140    3.59999990    2.61999989
   14.50861073  111.93000031    3.89000010    2.59999990
   14.50888920  111.56500244    4.11999989    2.61999989
   14.51527786  111.56500244    4.90999985    2.59999990
   14.51916599  129.33599854    4.90999985    2.53999996
   14.52250004  116.61599731    4.90999985    2.55999994
   14.52583313  119.20899963    4.90999985    2.57999992
   14.52888870  131.51300049    4.90999985    2.53999996
   14.53222179  134.16200256    4.90999985    2.40000010
   14.53527832  141.26400757    4.90999985    2.36999989
   14.53861141  172.31900024    4.90999985    2.17000008
   14.54194450  183.66299438    4.90999985    2.03999996
   14.54222298  175.17100525    4.90999985    2.05999994
   14.54555607  172.49000549    4.90999985    2.09999990
   14.54888916  159.43299866    4.90999985    2.17000008
   14.55194473  200.90600586    4.90999985    2.05999994
   14.55805588  200.90600586    4.90999985    2.00000000
   14.56222248  124.69599915    4.90999985    1.98000002
   14.56527805  352.98199463    4.90999985    1.78999996
   14.56861115  340.49700928    4.90999985    1.86000001
   14.57166672  193.67900085    4.90999985    1.78999996
   14.57499981  182.96099854    4.90999985    1.83000004
   14.57555580  174.76199341    4.90999985    1.83000004
   14.57888889  232.23699951    4.90999985    1.89999998
   14.58194447   53.99610138    4.90999985    2.01999998
   14.58527756  207.47399902    4.90999985    2.00000000
   14.58833313  309.94400024    4.90999985    1.98000002
   14.59166622  318.74499512    4.90999985    1.80999994
   14.59499931  173.11700439    4.90999985    2.05999994
   14.60083389  173.11700439    4.90999985    2.11999989
   14.60500050  265.26599121    4.90999985    2.07999992
   14.60805607  360.23498535    4.90999985    1.98000002
   14.60888958  314.37500000    4.90999985    1.94000006
   14.61194515  245.15699768    4.90999985    1.89999998
   14.61500072   90.62570190    4.90999985    1.83000004
   14.61833382   -1.00000000    4.90999985    1.73000002
   14.62138939   23.57019997    4.90999985    1.76999998
   14.62472248   -1.00000000    4.90999985    1.76999998
   14.62805557   -1.00000000    4.90999985    1.50000000
   14.63111115   -1.00000000    4.90999985    1.75000000
   14.63444424   -1.00000000    4.90999985    1.28999996
   14.63749981   -1.00000000    4.90999985    1.09000003
   14.64361095   -1.00000000    4.90999985    1.38000000
   14.64777756   -1.00000000    4.90999985    1.73000002
   14.65111065   -1.00000000    4.90999985    1.25000000
   14.65416622   -1.00000000    4.90999985    1.44000006
   14.65749931  119.39600372    4.90999985    1.64999998
   14.66083336  131.60200500    4.90999985    1.75000000
   14.66388893   66.27999878    4.90999985    1.76999998
   14.66722298  112.25599670    4.90999985    1.71000004
   14.67027855  272.45199585    4.90999985    1.85000002
   14.67361164  226.41999817    4.90999985    1.96000004
   14.67555618  250.09899902    4.90999985    1.98000002
   14.67750072  252.69500732    4.90999985    1.98000002
   14.68055630   58.30030060    4.90999985    1.75000000
   14.68638897   58.30030060    4.90999985    1.76999998
   14.69055557  142.52000427    4.90999985    1.78999996
   14.69388866  151.80499268    4.90999985    1.75000000
   14.69722271  258.38598633    4.90999985    1.86000001
   14.70027733  336.42098999    4.90999985    1.83000004
   14.70361137  301.20498657    4.90999985    1.86000001
   14.70666695   75.09169769    4.90999985    1.80999994
   14.71027756   -1.00000000    4.90999985    1.55999994
   14.71361065   23.57019997    4.90999985    1.61000001
   14.71694374  241.92100525    4.90999985    1.73000002
   14.71999931  213.02499390    4.90999985    1.80999994
   14.72333336  174.80499268    4.90999985    2.03999996
   14.72944355  174.80499268    4.90999985    2.05999994
   14.73361111  140.36000061    4.90999985    2.05999994
   14.73666668  131.30400085    4.90999985    2.28999996
   14.74000072  124.83200073    4.90999985    2.48000002
   14.74222279  118.20200348    4.90999985    2.51999998
   14.74361134  142.32800293    4.90999985    2.51999998
   14.74666691  121.69699860    4.90999985    2.51999998
   14.75000000  122.05000305    4.90999985    2.48000002
   14.75333309  116.57099915    4.90999985    2.44000006
   14.75638866  129.47500610    4.90999985    2.46000004
   14.75972176  135.57899475    4.90999985    2.40000010
   14.76305580  150.76300049    4.90999985    2.28999996
   14.76611137  154.05400085    4.90999985    2.23000002
   14.77222157  154.05400085    4.90999985    2.09999990
   14.77638817  149.70700073    4.90999985    2.23000002
   14.77944374  149.67900085    4.90999985    2.25000000
   14.78277779  149.35200500    4.90999985    2.30999994
   14.78611183  145.05799866    4.90999985    2.21000004
   14.78916740  164.87199402    4.90999985    2.30999994
   14.79250050  158.11700439    4.90999985    2.21000004
   14.79583359  127.98899841    4.90999985    2.34999990
   14.79888916  167.94700623    4.90999985    2.28999996
   14.80222225  242.27900696    4.90999985    1.94000006
   14.80527782  268.13699341    4.90999985    1.91999996
   14.82277775  125.63200378    4.90999985    2.36999989
   14.82694435  125.63200378    4.90999985    2.26999998
   14.83111095  134.13200378    4.90999985    2.25000000
   14.83416653  124.79499817    4.90999985    2.25000000
   14.83749962  132.86900330    4.90999985    2.36999989
   14.84083271  123.08799744    4.90999985    2.32999992
   14.84388828  120.35399628    4.90999985    2.34999990
   14.84722233  127.50199890    4.90999985    2.36999989
   14.85055637  121.67400360    4.90999985    2.34999990
   14.85361195  140.91900635    4.90999985    2.32999992
   14.85611153  132.35800171    4.90999985    2.30999994
   14.85722256  131.51600647    4.90999985    2.28999996
   14.86055565  141.70899963    4.90999985    2.26999998
   14.86361122  138.38200378    4.90999985    2.28999996
   14.86972237  138.38200378    4.90999985    2.25000000
   14.87388897  138.44400024    4.90999985    2.21000004
   14.87694454  137.20700073    4.90999985    2.17000008
   14.88027763  163.23199463    4.90999985    2.17000008
   14.88361073  166.05900574    4.90999985    2.09999990
   14.88666630  178.57899475    4.90999985    2.07999992
   14.88944435  179.72099304    4.90999985    2.07999992
   14.89027786  185.18299866    4.90999985    2.07999992
   14.89361095  147.76400757    4.90999985    2.07999992
   14.89666653  159.63499451    4.90999985    2.07999992
   14.89999962  180.69000244    4.90999985    2.11999989
   14.90333271  168.09899902    4.90999985    2.13000011
   14.90638828  179.25599670    4.90999985    2.09999990
   14.91249943  179.25599670    4.90999985    2.05999994
   14.91666698  184.95500183    4.90999985    2.07999992
   14.92000008  300.18701172    4.90999985    2.07999992
   14.92277813  207.74400330    4.90999985    1.96000004
   14.92333412  224.85099792    4.90999985    1.94000006
   14.92666721  206.81599426    4.90999985    1.94000006
   14.92972279  173.92700195    4.90999985    2.00000000
   14.93305588  290.62200928    4.90999985    2.05999994
   14.93638897  203.12600708    4.90999985    2.03999996
   14.93944454  237.63200378    4.90999985    2.09999990
   14.94277763  226.88000488    4.90999985    2.05999994
   14.94611073  294.66101074    4.90999985    2.00000000
   14.94916630  223.49200439    4.90999985    1.94000006
   14.95527744  223.49200439    4.90999985    1.98000002
   14.95944405  219.48899841    4.90999985    2.01999998
   14.96277714  226.06100464    4.90999985    2.01999998
   14.96611118  248.53799438    4.90999985    1.94000006
   14.96916580  262.86801147    4.90999985    1.98000002
   14.97249985  186.99600220    4.90999985    2.03999996
   14.97555542  198.57200623    4.90999985    2.05999994
   14.97888851  184.39799500    4.90999985    2.05999994
   14.98222160  201.62600708    4.90999985    2.07999992
   14.98527813  171.99800110    4.90999985    2.09999990
   14.98861122  193.13099670    4.90999985    2.09999990
   14.99027824  187.64199829    4.90999985    2.07999992
   14.99222279  173.69599915    4.90999985    2.07999992
   14.99833393  173.69599915    4.90999985    2.05999994
   15.00249958  165.97999573    4.90999985    2.15000010
   15.00555515  169.94299316    4.90999985    2.15000010
   15.00888920  143.79600525    4.90999985    2.15000010
   15.01194477  148.27900696    4.90999985    2.11999989
   15.01527786  134.53799438    4.90999985    2.25000000
   15.01861095  142.41499329    4.90999985    2.28999996
   15.02166653  137.28399658    4.90999985    2.32999992
   15.02388859  142.39799500    4.90999985    2.30999994
   15.02527714  145.75500488    4.90999985    2.32999992
   15.02861118  134.62800598    4.90999985    2.26999998
   15.03166676  128.65699768    4.90999985    2.40000010
   15.03500080  126.37000275    4.90999985    2.44000006
   15.04111195  126.37000275    4.90999985    2.40000010
   15.04527855  117.95999908    4.90999985    2.46000004
   15.04833412  124.56199646    4.90999985    2.46000004
   15.05166721  127.59600067    4.90999985    2.48000002
   15.05500031  128.83200073    4.90999985    2.50000000
   15.05722237  129.08700562    4.90999985    2.50000000
   15.05861092  117.12899780    4.90999985    2.51999998
   15.06166649  129.75599670    4.90999985    2.53999996
   15.06500053  130.03999329    4.90999985    2.53999996
   15.06833363  129.44799805    4.90999985    2.51999998
   15.07138920  113.96199799    4.90999985    2.48000002
   15.07472229  122.97200012    4.90999985    2.46000004
   15.07805538  120.40299988    4.90999985    2.48000002
   15.08388901  120.40299988    4.90999985    2.44000006
   15.08805561  128.38800049    4.90999985    2.48000002
   15.09055519  125.18399811    4.90999985    2.48000002
   15.09166622  136.13699341    4.90999985    2.48000002
   15.09472179  129.02900696    4.90999985    2.46000004
   15.09805489  137.99699402    4.90999985    2.51999998
   15.10138893  130.07600403    4.90999985    2.48000002
   15.10444450  132.41799927    4.90999985    2.44000006
   15.10777855  134.02999878    4.90999985    2.42000008
   15.11111164  132.06399536    4.90999985    2.39000010
   15.11416721  182.25599670    4.90999985    2.30999994
   15.11750031  110.67900085    4.90999985    2.01999998
   15.12055588  147.19900513    4.90999985    1.94000006
   15.12666702  147.19900513    4.90999985    2.30999994
   15.13083363  142.44999695    4.90999985    2.32999992
   15.13416672  134.13200378    4.90999985    2.32999992
   15.13749981  140.27499390    4.90999985    2.32999992
   15.14055538  143.78599548    4.90999985    2.26999998
   15.14388847  152.34199524    4.90999985    2.28999996
   15.14694405  148.08500671    4.90999985    2.28999996
   15.15027714  149.86199951    4.90999985    2.32999992
   15.15361118  137.88200378    4.90999985    2.30999994
   15.15666676  142.28500366    4.90999985    2.32999992
   15.15777779  120.94699860    4.90999985    2.32999992
   15.16027737  135.57299805    4.90999985    2.34999990
   15.16361046  135.98199463    4.90999985    2.36999989
   15.16972256  135.98199463    4.90999985    2.32999992
   15.17388916  129.12500000    4.90999985    2.23000002
   15.17694473  223.97999573    4.90999985    2.34999990
   15.18027782  157.45500183    4.90999985    2.17000008
   15.18333340  143.39999390    4.90999985    2.19000006
   15.18666649  129.08200073    4.90999985    2.34999990
   15.19000053  124.41200256    4.90999985    2.42000008
   15.19111156  128.87899780    4.90999985    2.44000006
   15.19333363  131.67100525    4.90999985    2.44000006
   15.19666672  121.39700317    4.90999985    2.44000006
   15.19999981  119.48600006    4.90999985    2.42000008
   15.20305538  118.72100067    4.90999985    2.44000006
   15.20638847  122.60399628    4.90999985    2.42000008
   15.21249962  122.60399628    4.90999985    2.39000010
   15.21666622  118.08699799    4.90999985    2.39000010
   15.21972179  121.73799896    4.90999985    2.40000010
   15.22305489  117.09899902    4.90999985    2.44000006
   15.22444439  116.69899750    4.90999985    2.44000006
   15.22666645  116.93900299    4.90999985    2.48000002
   15.22999954  122.48400116    4.90999985    2.48000002
   15.23305511  115.15899658    4.90999985    2.51999998
   15.23638916  114.85399628    4.90999985    2.59999990
   15.23972225  111.54499817    4.90999985    2.64000010
   15.24277782  114.74299622    4.90999985    2.66000009
   15.24611092  111.04599762    4.90999985    2.64000010
   15.24916649  117.89499664    4.90999985    2.61999989
   15.25527763  117.89499664    4.90999985    2.59999990
   15.25944424  113.17800140    4.90999985    2.57999992
   15.26277733  116.92199707    4.90999985    2.55999994
   15.26583290  112.65399933    4.90999985    2.53999996
   15.26916599  119.66899872    4.90999985    2.48000002
   15.27250004  134.21000671    4.90999985    2.50000000
   15.27555561  138.55999756    4.90999985    2.40000010
   15.27888870  133.99299622    4.90999985    2.40000010
   15.28194427  129.08799744    4.90999985    2.46000004
   15.28527832  138.01600647    4.90999985    2.46000004
   15.28861141  143.85200500    4.90999985    2.44000006
   15.29111195  143.06900024    4.90999985    2.46000004
   15.29222298  136.77799988    4.90999985    2.46000004
   15.29805565  136.77799988    4.90999985    2.46000004
   15.30222225  157.15600586    4.90999985    2.39000010
   15.30555534  150.39900208    4.90999985    2.23000002
   15.30888939  153.33799744    4.90999985    2.28999996
   15.31194496  132.56300354    4.90999985    2.28999996
   15.31527805  148.72399902    4.90999985    2.36999989
   15.31833363  142.93099976    4.90999985    2.21000004
   15.32166672  140.31399536    4.90999985    2.34999990
   15.32472229  141.12199402    4.90999985    2.21000004
   15.32527733  131.92700195    4.90999985    2.21000004
   15.32861137  141.18200684    4.90999985    2.26999998
   15.33166695  137.87199402    4.90999985    2.30999994
   15.33500004  139.92799377    4.90999985    2.28999996
   15.34111118  139.92799377    4.90999985    2.25000000
   15.34527779  142.04899597    4.90999985    2.34999990
   15.34833336  132.97900391    4.90999985    2.36999989
   15.35166740  140.38600159    4.90999985    2.36999989
   15.35472298  136.58799744    4.90999985    2.32999992
   15.35805607  133.21600342    4.90999985    2.34999990
   15.35833359  134.39100647    4.90999985    2.36999989
   15.36166668  134.23500061    4.90999985    2.36999989
   15.36472225  133.53799438    4.90999985    2.34999990
   15.36805534  140.12199402    4.90999985    2.28999996
   15.37138939  134.09700012    4.90999985    2.28999996
   15.37444496  132.64100647    4.90999985    2.40000010
   15.37777805  132.73100281    4.90999985    2.40000010
   15.38388920  132.73100281    4.90999985    2.36999989
   15.38805580  140.95500183    4.90999985    2.19000006
   15.39138889  231.46099854    4.90999985    2.17000008
   15.39166641  212.51199341    4.90999985    2.17000008
   15.39499950  138.87500000    4.90999985    2.01999998
   15.39805508  111.12999725    4.90999985    2.32999992
   15.40138817  143.38900757    4.90999985    2.30999994
   15.40472221   -1.00000000    4.90999985    2.01999998
   15.40777779   -1.00000000    4.90999985    1.69000006
   15.41111088   23.57019997    4.90999985    1.34000003
   15.41416645  163.30799866    4.90999985    1.78999996
   15.41750050  176.00599670    4.90999985    2.07999992
   15.42083359  162.69500732    4.90999985    2.28999996
   15.42666721  162.69500732    4.90999985    2.17000008
   15.43083382   95.15519714    4.90999985    1.96000004
   15.43416691  267.29699707    4.90999985    1.75000000
   15.43722248  249.97099304    4.90999985    2.03999996
   15.44055557  152.18400574    4.90999985    1.98000002
   15.44388866  154.12699890    4.90999985    2.26999998
   15.44722271  151.58200073    4.90999985    2.23000002
   15.45027733  155.58099365    4.90999985    2.23000002
   15.45361137  163.98199463    4.90999985    2.26999998
   15.45666695  171.04800415    4.90999985    2.26999998
   15.45805550  155.89500427    4.90999985    2.25000000
   15.46027756  163.82600403    4.90999985    2.26999998
   15.46361065  138.28100586    4.90999985    2.32999992
   15.46944427  138.28100586    4.90999985    2.32999992
   15.47361088  143.36000061    4.90999985    2.46000004
   15.47694397  127.68399811    4.90999985    2.48000002
   15.48027706  144.05900574    4.90999985    2.50000000
   15.48333359  120.16500092    4.90999985    2.50000000
   15.48666668  123.26100159    4.90999985    2.44000006
   15.48972225  151.40299988    4.90999985    2.46000004
   15.49138927  118.83399963    4.90999985    2.40000010
   15.49333382  140.63299561    4.90999985    2.44000006
   15.49666691  134.16900635    4.90999985    2.51999998
   15.49972248  130.47700500    4.90999985    2.55999994
   15.50305557  125.91000366    4.90999985    2.50000000
   15.50638866  137.89500427    4.90999985    2.36999989
   15.51249981  137.89500427    4.90999985    2.50000000
   15.51666641  113.11499786    4.90999985    2.51999998
   15.51972198  122.81800079    4.90999985    2.51999998
   15.52305508  117.52100372    4.90999985    2.51999998
   15.52472210  116.15200043    4.90999985    2.53999996
   15.52666664  108.32900238    4.90999985    2.51999998
   15.52999973  124.36599731    4.90999985    2.50000000
   15.53305531  117.25199890    4.90999985    2.50000000
   15.53638935  118.69400024    4.90999985    2.50000000
   15.53972244  121.23899841    4.90999985    2.51999998
   15.54277802  118.51399994    4.90999985    2.51999998
   15.54611111  121.77100372    4.90999985    2.55999994
   15.54916668  120.64299774    4.90999985    2.55999994
   15.55527782  120.64299774    4.90999985    2.46000004
   15.55944443  110.03299713    4.90999985    2.50000000
   15.56250000  113.73100281    4.90999985    2.44000006
   15.56583309  113.86100006    4.90999985    2.46000004
   15.56916618  118.01499939    4.90999985    2.48000002
   15.57222176  113.48799896    4.90999985    2.46000004
   15.57555580  118.77100372    4.90999985    2.44000006
   15.57888889  122.25900269    4.90999985    2.26999998
   15.58194447  117.21099854    4.90999985    2.30999994
   15.58527756  112.55400085    4.90999985    2.32999992
   15.58833313  122.49600220    4.90999985    2.36999989
   15.59138870  126.20500183    4.90999985    2.36999989
   15.59194374  122.79299927    4.90999985    2.36999989
   15.59805489  122.79299927    4.90999985    2.40000010
   15.60222244  129.76100159    4.90999985    2.39000010
   15.60555553  117.21499634    4.90999985    2.32999992
   15.60861111  115.59999847    4.90999985    2.42000008
   15.61194515  124.48899841    4.90999985    2.42000008
   15.61527824  127.50499725    4.90999985    2.46000004
   15.61833382  123.60299683    4.90999985    2.46000004
   15.62166691  121.34600067    4.90999985    2.51999998
   15.62472248  117.40799713    4.90999985    2.51999998
   15.62527752  122.36199951    4.90999985    2.53999996
   15.62861156  117.57499695    4.90999985    2.53999996
   15.63166714  116.85500336    4.90999985    2.55999994
   15.63500023  114.87599945    4.90999985    2.59999990
   15.64083290  114.87599945    4.90999985    2.59999990
   15.64499950  115.00000000    4.90999985    2.61999989
   15.64833355  113.07299805    4.90999985    2.64000010
   15.65166664  112.52200317    4.90999985    2.61999989
   15.65472221  110.99400330    4.90999985    2.66000009
   15.65805531  108.98999786    4.84999990    2.66000009
   15.65861034  111.03700256    4.84999990    2.66000009
   15.66166592  114.52999878    4.09999990    2.67000008
   15.66499996  111.01399994    3.99000001    2.67000008
   15.66805553  112.81099701    4.80999994    2.66000009
   15.67138958  111.95500183    4.90999985    2.64000010
   15.67472267  113.97799683    4.90999985    2.61999989
   15.67777824  113.58000183    4.90999985    2.59999990
   15.68388939  113.58000183    4.90999985    2.55999994
   15.68805599  117.31800079    4.90999985    2.53999996
   15.69111156  110.81700134    4.90999985    2.61999989
   15.69194412  115.84200287    4.90999985    2.55999994
   15.69472218  113.51999664    4.90999985    2.59999990
   15.69805527  116.19499969    4.90999985    2.53999996
   15.70111084  121.65000153    4.90999985    2.48000002
   15.70444393  120.32700348    4.90999985    2.51999998
   15.70777798  117.73400116    4.90999985    2.48000002
   15.71083355  119.69999695    4.90999985    2.44000006
   15.71416664  115.92199707    4.90999985    2.50000000
   15.71749973  129.61300659    4.90999985    2.51999998
   15.72055531  117.51799774    4.90999985    2.44000006
   15.72666645  117.51799774    4.90999985    2.57999992
   15.73083305  117.47899628    4.90999985    2.48000002
   15.73388958  121.29100037    4.90999985    2.50000000
   15.73722267  119.23000336    4.90999985    2.51999998
   15.74055576  124.84700012    4.90999985    2.46000004
   15.74361134  123.71399689    4.90999985    2.46000004
   15.74694443  110.78199768    4.90999985    2.51999998
   15.75027752  118.01000214    4.90999985    2.48000002
   15.75333309  124.41500092    4.90999985    2.44000006
   15.75666714  120.78399658    4.90999985    2.48000002
   15.75861073  113.78500366    4.90999985    2.51999998
   15.76027775  121.52600098    4.90999985    2.53999996
   15.76361084  112.80899811    4.90999985    2.57999992
   15.76944447  112.80899811    4.90999985    2.55999994
   15.77361107  116.36499786    4.90999985    2.57999992
   15.77694416  117.74500275    4.90999985    2.57999992
   15.77999973  117.53399658    4.90999985    2.55999994
   15.78333378  104.92199707    4.90999985    2.55999994
   15.78666687  116.93800354    4.90999985    2.51999998
   15.78972244  112.90000153    4.90999985    2.59999990
   15.79194450  105.27899933    4.90999985    2.59999990
   15.79333401  114.15100098    4.90999985    2.59999990
   15.79666710  110.01799774    4.90999985    2.61999989
   15.80000019  120.07599640    4.90999985    2.57999992
   15.80305576  121.09400177    4.90999985    2.55999994
   15.80638885  118.26200104    4.90999985    2.51999998
   15.81222248  118.26200104    4.90999985    2.57999992
   15.81638908  110.78500366    4.42999983    2.64000010
   15.81972218  110.66999817    3.41000009    2.67000008
   15.82277775  115.56300354    3.20000005    2.67000008
   15.84000015  114.37699890    3.16000009    2.66000009
   15.84277725  139.90199280    3.45000005    2.67000008
   15.84611034  117.99900055    2.30999994    2.67000008
   15.84916592  116.58699799    1.51999998    2.69000006
   15.85527802  116.58699799    2.01999998    2.67000008
   15.85944462   91.29949951    2.44000006    2.66000009
   15.86277771   88.63610077    2.73000002    2.66000009
   15.86583328  118.03299713    2.71000004    2.66000009
   15.86916637  124.41400146    2.86999989    2.67000008
   15.87222195  103.87000275    2.89000010    2.66000009
   15.87333393  129.74899292    2.89000010    2.66000009
   15.87611103  113.46499634    2.21000004    2.67000008
   15.87944412  101.32199860    1.80999994    2.67000008
   15.88249969  113.73600006    1.34000003    2.69000006
   15.88583279   93.91329956    1.13000000    2.69000006
   15.88916683  124.79900360    1.07000005    2.67000008
   15.89222240  125.33399963    0.80000001    2.69000006
   15.89805508  125.33399963    0.98000002    2.69000006
   15.90222168  118.44200134    1.21000004    2.69000006
   15.90555477  121.46600342    1.60000002    2.67000008
   15.90666676  119.89600372    1.53999996    2.67000008
   15.90916634  101.75000000    1.51999998    2.69000006
   15.91222191  117.93599701    1.55999994    2.67000008
   15.91555500  115.95899963    1.71000004    2.69000006
   15.91888905  127.83000183    1.75000000    2.69000006
   15.92194462  104.62100220    1.71000004    2.67000008
   15.92527771  111.81199646    1.13000000    2.71000004
   15.92861176  101.45899963    1.07000005    2.69000006
   15.93166733  109.47599792    1.21000004    2.69000006
   15.93500042  116.38400269    1.44000006    2.69000006
   15.94111156  116.38400269    2.66000009    2.67000008
   15.94499969  113.28500366    2.34999990    2.67000008
   15.94833374  103.10900116    2.17000008    2.67000008
   15.95166683  101.35800171    2.32999992    2.67000008
   15.95472240  106.18699646    2.78999996    2.67000008
   15.95805550  103.96299744    3.25000000    2.67000008
   15.96138859  121.91000366    3.28999996    2.66000009
   15.96444416  106.30599976    3.97000003    2.66000009
   15.96777725  120.60500336    4.90999985    2.64000010
   15.97083282  103.48500061    4.90999985    2.64000010
   15.97333336  114.67500305    4.90999985    2.64000010
   15.97472191  105.10500336    4.80000019    2.59999990
   15.97805500  105.36100006    4.90999985    2.64000010
   15.98388958  105.36100006    3.03999996    2.67000008
   15.98805618  114.84100342    2.71000004    2.67000008
   15.99111176  118.08000183    3.73000002    2.67000008
   15.99444485  104.77899933    4.59999990    2.61999989
   15.99777794  113.12200165    3.25000000    2.66000009
   16.00083351  108.20200348    2.42000008    2.67000008
   16.00416756  114.70200348    2.48000002    2.67000008
   16.00666618  104.03099823    2.66000009    2.66000009
   16.00777817  105.20400238    2.94000006    2.66000009
   16.01083374  107.65200043    3.34999990    2.66000009
   16.01416588  108.08899689    3.91000009    2.67000008
   16.01749992  109.10600281    3.48000002    2.61999989
   16.02055550  115.76000214    3.64000010    2.67000008
   16.02666664  115.76000214    4.90999985    2.61999989
   16.03083229  213.84300232    4.90999985    2.53999996
   16.03416634  121.41899872    4.90999985    2.51999998
   16.03722191  105.37899780    4.90999985    2.59999990
   16.03999901  113.10700226    4.00000000    2.67000008
   16.04083252  118.46499634    3.32999992    2.66000009
   16.04416656  123.41799927    3.01999998    2.67000008
   16.04722214  115.75599670    3.21000004    2.67000008
   16.05055428  121.75000000    2.25000000    2.67000008
   16.05388832  119.20999908    2.09999990    2.67000008
   16.05694389  103.09300232    1.71000004    2.69000006
   16.06027794  117.77100372    1.07000005    2.69000006
   16.06361008  120.59700012    1.14999998    2.69000006
   16.06944466  120.59700012    1.11000001    2.69000006
   16.07361221  122.53600311    1.61000001    2.69000006
   16.07694626  117.30899811    4.90999985    2.51999998
   16.08000183  110.76699829    4.90999985    2.55999994
   16.08333397  120.76699829    4.90999985    2.51999998
   16.08666801  116.17500305    4.90999985    2.59999990
   16.08972359  100.09300232    4.90999985    2.67000008
   16.09305573  108.94200134    2.82999992    2.67000008
   16.09638977  104.84700012    1.55999994    2.67000008
   16.09944534  107.18199921    1.41999996    2.69000006
   16.10277748  106.63999939    0.92000002    2.69000006
   16.10583305   99.54239655    1.03999996    2.69000006
   16.10666656  111.48899841    1.03999996    2.69000006
   16.11250114  111.48899841    4.90999985    2.55999994
   16.11638832  114.65299988    4.90999985    2.53999996
   16.11972237  109.55000305    4.90999985    2.66000009
   16.12305641  111.77300262    4.90999985    2.67000008
   16.12611198  107.96199799    4.90999985    2.69000006
   16.12944412  110.72499847    2.86999989    2.69000006
   16.13277817  105.58399963    2.66000009    2.69000006
   16.13583374  104.66799927    2.36999989    2.69000006
   16.13916588  112.44300079    1.91999996    2.69000006
   16.13999939  117.27400208    1.89999998    2.69000006
   16.14277840  108.88899994    1.83000004    2.69000006
   16.14611053  108.29499817    2.00000000    2.69000006
   16.14916611  114.76899719    2.25000000    2.69000006
   16.15527725  114.76899719    4.90999985    2.44000006
   16.15944481  116.13400269    4.90999985    2.32999992
   16.16250038  116.67400360    4.90999985    2.44000006
   16.16583252  115.37500000    4.90999985    2.57999992
   16.16916656  105.82700348    4.01999998    2.71000004
   16.17222214  109.15000153    1.21000004    2.71000004
   16.17333221  105.31099701    1.28999996    2.71000004
   16.17583275  109.88099670    1.69000006    2.69000006
   16.17916679  114.06500244    3.95000005    2.55999994
   16.18222237  110.30799866    3.70000005    2.64000010
   16.18555450  119.89800262    2.21000004    2.67000008
   16.18861008  108.86199951    1.55999994    2.71000004
   16.19194412  104.75900269    1.14999998    2.71000004
   16.19805527  104.75900269    0.61000001    2.71000004
   16.20222282  116.67500305    0.61000001    2.71000004
   16.20555687  116.18399811    0.63000000    2.71000004
   16.20666695  112.86000061    0.63000000    2.71000004
   16.20916748  112.98300171    1.71000004    2.69000006
   16.21250153  101.38200378    2.07999992    2.69000006
   16.21555710  105.71499634    1.61000001    2.69000006
   16.21888924  117.23100281    2.21000004    2.64000010
   16.22194481  102.23300171    2.53999996    2.64000010
   16.22527885  102.60199738    1.25000000    2.71000004
   16.22861099   82.85060120    1.26999998    2.69000006
   16.23166656   99.80940247    2.32999992    2.69000006
   16.23500061  109.40299988    4.36999989    2.66000009
   16.24083328  109.40299988    4.90999985    2.51999998
   16.24500084  105.83000183    4.90999985    2.50000000
   16.24833298  117.72299957    4.90999985    2.50000000
   16.25138855  116.44499969    4.90999985    2.50000000
   16.25472260  116.52100372    4.90999985    2.48000002
   16.25805473  119.00399780    4.90999985    2.44000006
   16.26111031  118.63600159    4.90999985    2.46000004
   16.26444435  116.29599762    4.90999985    2.46000004
   16.26777840  115.16500092    4.90999985    2.50000000
   16.27083397  124.72899628    4.90999985    2.46000004
   16.27333260  113.00599670    4.90999985    2.44000006
   16.27444458  116.80400085    4.90999985    2.44000006
   16.27777672  121.39800262    4.90999985    2.39000010
   16.28388786  121.39800262    4.90999985    2.51999998
   16.28777695   91.17340088    4.90999985    2.40000010
   16.29111099  101.46399689    4.90999985    2.48000002
   16.29444313   92.92620087    4.90999985    2.55999994
   16.29749870   97.20610046    4.90999985    2.51999998
   16.30083275  115.19300079    4.90999985    2.51999998
   16.30416679  109.87899780    4.90999985    2.55999994
   16.30666542  114.16000366    4.90999985    2.55999994
   16.30777740  108.15100098    4.90999985    2.61999989
   16.31110954  111.70999908    4.90999985    2.59999990
   16.31416512  106.00599670    4.90999985    2.57999992
   16.31750107  104.63200378    4.90999985    2.55999994
   16.32055664  104.99500275    4.90999985    2.59999990
   16.32666779  104.99500275    4.90999985    2.57999992
   16.33083344   97.49780273    4.90999985    2.61999989
   16.33388901  105.60500336    4.90999985    2.64000010
   16.33722305  110.89700317    4.90999985    2.67000008
   16.34000015  110.37100220    4.90999985    2.61999989
   16.34083366  106.73799896    4.90999985    2.59999990
   16.34416771  111.60099792    4.90999985    2.40000010
   16.34722328   98.65589905    4.90999985    2.44000006
   16.35055542   90.86979675    4.90999985    2.46000004
   16.35361099   91.48459625    4.90999985    2.55999994
   16.35694504  101.70999908    4.90999985    2.55999994
   16.36027908  103.82299805    4.90999985    2.55999994
   16.36333466  107.69400024    4.90999985    2.59999990
   16.36944389  107.69400024    4.90999985    2.61999989
   16.37361145  106.08599854    4.90999985    2.59999990
   16.37694550  100.64600372    4.90999985    2.61999989
   16.38000107   93.04450226    4.90999985    2.57999992
   16.38333321  106.33499908    4.90999985    2.64000010
   16.38666725  107.36100006    4.90999985    2.66000009
   16.38972282  101.30100250    4.55999994    2.67000008
   16.39305496  109.42199707    4.28999996    2.67000008
   16.39638901  110.01100159    4.90999985    2.67000008
   16.39944458  111.73400116    4.90999985    2.61999989
   16.40277672  102.34300232    4.90999985    2.59999990
   16.40583229   97.30000305    4.90999985    2.67000008
   16.40666580  114.26599884    4.90999985    2.67000008
   16.41222191  114.26599884    4.57999992    2.64000010
   16.41638756  108.58699799    4.90999985    2.67000008
   16.41972160  107.39800262    4.90999985    2.66000009
   16.42277718  111.79399872    4.90999985    2.61999989
   16.42611122  104.20899963    4.90999985    2.61999989
   16.42944336  110.38400269    4.90999985    2.64000010
   16.43249893  116.28500366    4.90999985    2.64000010
   16.43583298  114.15599823    4.90999985    2.61999989
   16.43916512  109.76100159    4.90999985    2.53999996
   16.43999863  107.96099854    4.90999985    2.50000000
   16.44249916  116.11499786    4.90999985    2.61999989
   16.44583321  108.53700256    4.88999987    2.67000008
   16.44888878  102.26000214    3.20000005    2.67000008
   16.45527840  102.26000214    2.55999994    2.67000008
   16.45916748   90.80580139    2.21000004    2.69000006
   16.46250153  106.81300354    2.17000008    2.69000006
   16.46583366  107.25099945    1.75000000    2.69000006
   16.46888924  105.32199860    1.64999998    2.69000006
   16.47222328   82.74389648    1.39999998    2.67000008
   16.47333336   96.54759979    1.51999998    2.69000006
   16.47583389   98.45839691    1.76999998    2.67000008
   16.47916794  101.91100311    2.17000008    2.69000006
   16.48222351   96.85350037    2.53999996    2.67000008
   16.48555565  110.58599854    3.00000000    2.67000008
   16.48888969  102.14099884    4.48999977    2.67000008
   16.49194527  101.88899994    4.90999985    2.66000009
   16.49805641  101.88899994    4.90999985    2.61999989
   16.50222206  110.80999756    4.90999985    2.59999990
   16.50527763   89.92369843    4.90999985    2.61999989
   16.50666618  101.12100220    4.90999985    2.59999990
   16.50888824  117.00199890    4.90999985    2.55999994
   16.51222229  110.85800171    4.90999985    2.44000006
   16.51527786   88.19409943    4.90999985    2.50000000
   16.51861000  114.66100311    4.90999985    2.53999996
   16.52194405  115.25700378    4.90999985    2.64000010
   16.52499962   89.55000305    4.51000023    2.64000010
   16.52833366   77.11969757    4.38999987    2.66000009
   16.53138924   95.80950165    4.90999985    2.64000010
   16.53472137  100.85199738    4.90999985    2.61999989
   16.54083252  100.85199738    4.90999985    2.61999989
   16.54500008  103.53299713    4.90999985    2.36999989
   16.54833221  107.50800323    4.90999985    2.51999998
   16.55138779  105.71700287    4.90999985    2.61999989
   16.55472183  108.74500275    4.90999985    2.57999992
   16.55777740  104.35500336    4.90999985    2.61999989
   16.56110954  110.65000153    4.90999985    2.53999996
   16.56444359  101.43900299    4.90999985    2.59999990
   16.56750107   99.96140289    4.90999985    2.55999994
   16.57083511  114.11499786    4.90999985    2.55999994
   16.57333374   87.39849854    4.90999985    2.50000000
   16.57444572   91.95919800    4.90999985    2.53999996
   16.57777786   90.98249817    4.90999985    2.50000000
   16.58361244   90.98249817    4.90999985    2.59999990
   16.58777809   98.48280334    4.90999985    2.59999990
   16.59111214  112.86199951    4.90999985    2.53999996
   16.59416771   93.19969940    4.90999985    2.51999998
   16.59749985  116.82299805    4.90999985    2.40000010
   16.60083389   99.29709625    4.90999985    2.55999994
   16.60388947  105.97699738    4.90999985    2.51999998
   16.60666656  101.47599792    4.90999985    2.55999994
   16.60750008  106.88200378    4.90999985    2.57999992
   16.61083412  120.36000061    4.90999985    2.59999990
   16.61388969  107.42099762    4.90999985    2.59999990
   16.61722183   85.56680298    4.90999985    2.61999989
   16.62055588  104.72499847    4.90999985    2.57999992
   16.62666702  104.72499847    4.90999985    2.57999992
   16.63055611   99.24669647    4.90999985    2.51999998
   16.63388824  134.30200195    4.90999985    2.39000010
   16.63722229  140.99600220    4.90999985    2.36999989
   16.63999939  114.47299957    4.90999985    2.28999996
   16.64055634  118.49900055    4.90999985    2.28999996
   16.64388847  141.61199951    4.90999985    2.26999998
   16.64694405  113.04699707    4.90999985    2.19000006
   16.65027809  125.02100372    4.90999985    2.40000010
   16.65361023  106.63800049    4.90999985    2.36999989
   16.65666580  107.60700226    4.90999985    2.39000010
   16.65999985  125.94100189    4.90999985    2.44000006
   16.66333389  127.05799866    4.90999985    2.34999990
   16.66944313  127.05799866    4.90999985    2.32999992
   16.67361069   96.74770355    4.90999985    2.40000010
   16.67666626  121.83699799    4.90999985    2.44000006
   16.68000031   92.16899872    4.90999985    2.53999996
   16.68333244  100.27899933    4.90999985    2.57999992
   16.68638802  112.60600281    4.90999985    2.59999990
   16.68972206  115.35700226    4.90999985    2.57999992
   16.69277763  107.80400085    4.90999985    2.48000002
   16.69610977  113.94000244    4.90999985    2.44000006
   16.69944382  124.32900238    4.90999985    2.48000002
   16.70250130  123.58100128    4.90999985    2.39000010
   16.70583344  108.36599731    4.90999985    2.44000006
   16.70666695  117.55500031    4.90999985    2.46000004
   16.71222305  117.55500031    4.90999985    2.55999994
   16.71638870  104.41500092    4.90999985    2.64000010
   16.71972275   95.90830231    4.23999977    2.67000008
   16.72277832   92.85310364    3.50000000    2.67000008
   16.72611237   93.93340302    3.32999992    2.67000008
   16.72944450  117.78199768    3.32999992    2.67000008
   16.73250008   97.94319916    3.99000001    2.64000010
   16.73583412  115.84600067    3.48000002    2.67000008
   16.73916626   99.21469879    1.83000004    2.69000006
   16.74027824  111.40799713    1.55999994    2.69000006
   16.74250031  109.95800018    1.30999994    2.69000006
   16.74583435  106.25399780    1.13000000    2.69000006
   16.74916649  105.51599884    1.36000001    2.69000006
   16.75499916  105.51599884    1.41999996    2.71000004
   16.75916672  111.08399963    1.39999998    2.69000006
   16.76250076   92.83689880    2.19000006    2.69000006
   16.76555634   98.98940277    3.53999996    2.69000006
   16.76888847  122.04900360    4.90999985    2.67000008
   16.77222252  112.85299683    4.90999985    2.55999994
   16.77333260  112.86399841    4.90999985    2.55999994
   16.77555466  116.19300079    4.90999985    2.55999994
   16.77888870  142.29100037    4.90999985    2.34999990
   16.78194427  134.38800049    4.90999985    2.32999992
   16.78527641  136.53300476    4.90999985    2.36999989
   16.78861046  137.66099548    4.90999985    2.39000010
   16.79166603  110.26000214    4.90999985    2.32999992
   16.79805565  110.26000214    4.90999985    2.30999994
   16.80194283  121.37200165    4.90999985    2.40000010
   16.80527687  128.25999451    4.90999985    2.42000008
   16.80694389  131.11900330    4.90999985    2.39000010
   16.80888748  151.47099304    4.90999985    2.39000010
   16.81222153  141.37899780    4.90999985    2.32999992
   16.81555557  156.05200195    4.90999985    2.32999992
   16.81861115  138.81399536    4.90999985    2.34999990
   16.82194519  129.48399353    4.90999985    2.51999998
   16.82500076  131.32200623    4.90999985    2.46000004
   16.82833481  144.62899780    4.90999985    2.48000002
   16.83166695  109.68199921    4.90999985    2.57999992
   16.83472252  101.13899994    4.90999985    2.55999994
   16.85722351  128.78700256    4.90999985    2.42000008
   16.85777855  109.77899933    4.90999985    2.42000008
   16.86083412  101.57199860    4.90999985    2.51999998
   16.86416626  119.30500031    4.90999985    2.59999990
   16.86750031  114.62400055    4.90999985    2.61999989
   16.87055588  101.90399933    4.90999985    2.61999989
   16.87361145  114.70800018    4.90999985    2.67000008
   16.87416649  107.44499969    4.90999985    2.67000008
   16.87750053   97.22119904    4.90999985    2.64000010
   16.88361168   97.22119904    4.90999985    2.48000002
   16.88777733  114.98799896    4.90999985    2.46000004
   16.89111137  142.70399475    4.90999985    2.17000008
   16.89416695  142.99099731    4.90999985    2.15000010
   16.89749908  125.13999939    4.90999985    2.19000006
   16.90083313  140.45199585    4.90999985    2.32999992
   16.90388870  133.66400146    4.90999985    2.32999992
   16.90694427  130.53300476    4.90999985    2.42000008
   16.90749931  128.46400452    4.90999985    2.46000004
   16.91083336  116.04900360    4.90999985    2.46000004
   16.91388893  117.84300232    4.90999985    2.50000000
   16.91722107   95.55829620    4.90999985    2.59999990
   16.92055511   98.57820129    4.11999989    2.66000009
   16.92638779   98.57820129    4.26999998    2.67000008
   16.93055534   99.94670105    3.70000005    2.69000006
   16.93388748  110.98400116    3.43000007    2.69000006
   16.93722153  114.47499847    3.70000005    2.67000008
   16.94027710  113.38400269    4.90999985    2.64000010
   16.94055557  103.43800354    4.90999985    2.64000010
   16.94388771  115.41100311    4.90999985    2.40000010
   16.94694328  125.60800171    4.90999985    2.48000002
   16.95027924  115.39299774    4.90999985    2.50000000
   16.95361137  110.69100189    4.90999985    2.64000010
   16.95666695  109.59500122    2.84999990    2.67000008
   16.96000099  103.42900085    1.48000002    2.71000004
   16.96333504  121.51599884    1.28999996    2.69000006
   16.96944427  121.51599884    1.09000003    2.69000006
   16.97361183  110.01499939    0.86000001    2.71000004
   16.97389030  112.72799683    0.89999998    2.71000004
   16.97722244  120.96499634    1.07000005    2.69000006
   16.98055649  116.01000214    1.23000002    2.69000006
   16.98361206  117.39800262    1.16999996    2.71000004
   16.98694420  111.20600128    1.48000002    2.69000006
   16.98999977  106.35199738    2.89000010    2.69000006
   16.99333382  113.25800323    2.89000010    2.69000006
   16.99666786  117.26100159    2.59999990    2.69000006
   16.99972153  119.04699707    0.80000001    2.71000004
   17.00305557   87.57279968    0.83999997    2.71000004
   17.00638962  111.77999878    0.81999999    2.71000004
   17.00694466  100.70899963    0.81999999    2.71000004
   17.01222229  100.70899963    0.80000001    2.71000004
   17.01638794  110.76300049    0.83999997    2.71000004
   17.01944351  102.78399658    0.83999997    2.71000004
   17.02277756   88.57759857    0.76999998    2.71000004
   17.02611160   95.34899902    3.99000001    2.67000008
   17.02916718  108.99500275    4.90999985    2.61999989
   17.03249931  123.59100342    4.90999985    2.64000010
   17.03583336   98.48719788    4.90999985    2.53999996
   17.03888893  103.88300323    4.90999985    2.46000004
   17.04027748  127.20400238    4.90999985    2.40000010
   17.04249954  143.83099365    4.90999985    2.32999992
   17.04583359  140.08799744    4.90999985    2.23000002
   17.04916573  110.77999878    4.90999985    2.30999994
   17.05499840  110.77999878    4.90999985    2.48000002
   17.05916595  130.18899536    4.90999985    2.48000002
   17.06250000  136.30499268    4.90999985    2.44000006
   17.06555557  185.18400574    4.90999985    2.26999998
   17.06888962  372.32800293    4.90999985    2.03999996
   17.07222366  384.15701294    4.90999985    1.83000004
   17.07361221  154.31900024    4.90999985    1.91999996
   17.07555580   -1.00000000    4.90999985    1.85000002
   17.07888985   -1.00000000    4.90999985    1.25000000
   17.08222389   -1.00000000    4.90999985    1.03999996
   17.08527756   -1.00000000    4.90999985    1.39999998
   17.08861160   -1.00000000    4.90999985    1.25000000
   17.09194565   -1.00000000    4.90999985    1.64999998
   17.09777832   -1.00000000    4.90999985    1.63000000
   17.10194397   -1.00000000    4.90999985    1.58000004
   17.10527802   -1.00000000    4.90999985    1.41999996
   17.10861206   -1.00000000    4.90999985    1.39999998
   17.11194420   -1.00000000    4.90999985    1.44000006
   17.11499977   -1.00000000    4.90999985    1.36000001
   17.11833382  118.82099915    4.90999985    1.60000002
   17.12166595  299.80700684    4.90999985    1.85000002
   17.12472153  201.02000427    4.90999985    1.96000004
   17.12805557  261.75601196    4.90999985    1.94000006
   17.13138962  239.44700623    4.90999985    1.83000004
   17.13444519  320.34600830    4.90999985    1.85000002
   17.14083290  320.34600830    4.90999985    1.66999996
   17.14500046  166.38400269    4.90999985    1.86000001
   17.14805603  141.86599731    4.90999985    2.25000000
   17.15138817  146.24000549    4.90999985    2.26999998
   17.15444374   90.04530334    4.90999985    2.32999992
   17.15777779  104.97699738    4.90999985    2.50000000
   17.16110992  108.80100250    4.90999985    2.53999996
   17.16416550  120.68699646    4.90999985    2.40000010
   17.16749954  117.23400116    4.90999985    2.32999992
   17.17083359  119.11799622    4.90999985    2.36999989
   17.17361069  128.48599243    4.90999985    2.34999990
   17.17416573  130.89999390    4.90999985    2.36999989
   17.17749977  109.66300201    4.90999985    2.44000006
   17.18361092  109.66300201    4.90999985    2.40000010
   17.18777657  122.03700256    4.90999985    2.48000002
   17.19111061  123.19200134    4.90999985    2.46000004
   17.19444275  116.48000336    4.90999985    2.48000002
   17.19777679  128.24099731    4.90999985    2.48000002
   17.20083427  131.17100525    4.90999985    2.40000010
   17.20416832  132.62899780    4.90999985    2.39000010
   17.20694542  116.30599976    4.90999985    2.44000006
   17.20750046  135.21600342    4.90999985    2.46000004
   17.21083450  116.27100372    4.90999985    2.48000002
   17.21416664  104.94499969    4.90999985    2.55999994
   17.21722221  125.36900330    4.90999985    2.55999994
   17.22055626  104.52100372    4.90999985    2.59999990
   17.22638893  104.52100372    4.90999985    2.64000010
   17.23055649  102.35700226    3.39000010    2.67000008
   17.23361206  116.63400269    2.78999996    2.67000008
   17.23694420  112.70999908    2.32999992    2.67000008
   17.24027824  118.30699921    2.11999989    2.69000006
   17.24055672  122.26599884    2.03999996    2.69000006
   17.24388885  120.61499786    1.88000000    2.69000006
   17.24722290  116.20300293    2.26999998    2.69000006
   17.25027847  107.64399719    2.23000002    2.69000006
   17.25361061   92.20429993    2.13000011    2.69000006
   17.25694466  107.51399994    1.71000004    2.69000006
   17.26000023  108.72100067    1.50000000    2.69000006
   17.26333427  104.00000000    1.46000004    2.71000004
   17.26916695  104.00000000    1.44000006    2.69000006
   17.27333260  106.73000336    1.41999996    2.69000006
   17.27388954  102.16200256    1.41999996    2.69000006
   17.27722168  104.95500183    1.39999998    2.71000004
   17.28027725   95.95410156    1.25000000    2.69000006
   17.28361130   92.99880219    1.25000000    2.69000006
   17.28694344   98.14730072    1.26999998    2.71000004
   17.28999901  103.66400146    1.36000001    2.69000006
   17.29333305  104.94300079    1.39999998    2.69000006
   17.29638863   99.06590271    1.53999996    2.69000006
   17.29972076   97.47679901    2.00000000    2.69000006
   17.30305481   93.91500092    3.32999992    2.69000006
   17.30611038  103.91999817    2.82999992    2.69000006
   17.30722237  102.49199677    2.91000009    2.69000006
   17.31222153  102.49199677    4.90999985    2.64000010
   17.31611061  111.13099670    4.90999985    2.61999989
   17.31944466   93.52729797    4.90999985    2.59999990
   17.32277870  100.67299652    4.90999985    2.61999989
   17.32583427  109.28099823    4.90999985    2.55999994
   17.32916832  117.10600281    4.90999985    2.59999990
   17.33250046  119.55100250    4.90999985    2.57999992
   17.33555603  116.05200195    4.90999985    2.61999989
   17.33889008  110.69799805    4.90999985    2.55999994
   17.34055710  116.79599762    4.90999985    2.51999998
   17.34250069  126.31400299    4.90999985    2.53999996
   17.34555626  110.11699677    4.90999985    2.57999992
   17.34889030  112.71600342    4.90999985    2.55999994
   17.35499954  112.71600342    4.90999985    2.51999998
   17.35916710  105.26000214    4.90999985    2.64000010
   17.36222267  103.84899902    3.99000001    2.66000009
   17.36555672  109.40000153    4.48999977    2.67000008
   17.36888885  106.71099854    4.51000023    2.67000008
   17.37194443   82.12590027    3.70000005    2.67000008
   17.37388992  103.67900085    3.84999990    2.67000008
   17.37583351  117.76399994    3.97000003    2.67000008
   17.37888908   84.07160187    3.57999992    2.67000008
   17.38222313  118.36900330    3.00000000    2.67000008
   17.38555527  109.61699677    2.71000004    2.69000006
   17.38861084  119.05000305    3.07999992    2.67000008
   17.39194489  113.60500336    3.34999990    2.67000008
   17.39777756  113.60500336    3.21000004    2.69000006
   17.40194321   98.95559692    3.34999990    2.67000008
   17.40527725  110.06500244    3.93000007    2.66000009
   17.40722275   94.49980164    4.51000023    2.66000009
   17.40888786  115.40699768    4.90999985    2.66000009
   17.41222191   88.13330078    4.90999985    2.64000010
   17.41527748   98.72619629    4.90999985    2.66000009
   17.41860962  101.12699890    4.90999985    2.66000009
   17.42166519  103.80999756    4.90999985    2.66000009
   17.42499924  110.80599976    4.90999985    2.64000010
   17.42833328  104.01100159    4.90999985    2.66000009
   17.43138885  112.39499664    4.90999985    2.66000009
   17.43472099  104.44699860    4.90999985    2.66000009
   17.44055557  104.44699860    4.90999985    2.66000009
   17.44472122   99.60169983    4.90999985    2.55999994
   17.44805527  112.44599915    4.90999985    2.61999989
   17.45138931  108.19100189    4.90999985    2.64000010
   17.45444489  112.06999969    4.90999985    2.64000010
   17.45777893  118.79000092    4.90999985    2.66000009
   17.46083450  119.28399658    4.90999985    2.66000009
   17.46416664  122.24900055    4.90999985    2.51999998
   17.46750069  112.22599792    4.90999985    2.61999989
   17.47055626  112.04299927    4.90999985    2.61999989
   17.47389030  101.07700348    4.90999985    2.55999994
   17.47444534  117.15699768    4.90999985    2.53999996
   17.47750092  116.15599823    4.90999985    2.57999992
   17.48361206  116.15599823    4.90999985    2.64000010
   17.48777771   95.16570282    4.90999985    2.57999992
   17.49083328   93.03690338    4.90999985    2.61999989
   17.49416733  107.22299957    4.90999985    2.59999990
   17.49749947  105.82499695    4.90999985    2.61999989
   17.50055504   92.44290161    4.90999985    2.61999989
   17.50388908   99.92489624    4.90999985    2.64000010
   17.50694466  109.98600006    4.90999985    2.64000010
   17.50749969  103.10600281    4.90999985    2.64000010
   17.51083374  111.37200165    4.90999985    2.44000006
   17.51388931  122.78299713    4.90999985    2.01999998
   17.51722145  116.26200104    4.90999985    2.42000008
   17.52055550  115.35099792    4.90999985    2.50000000
   17.52638817  115.35099792    4.90999985    2.25000000
   17.53055573  136.73300171    4.90999985    2.42000008
   17.53361130  166.44900513    4.90999985    2.17000008
   17.53694344  123.30300140    4.90999985    2.01999998
   17.54027748  130.49299622    4.90999985    2.23000002
   17.54083252  129.30200195    4.90999985    2.26999998
   17.54388809  127.76100159    4.90999985    2.28999996
   17.54694366  142.68499756    4.90999985    2.32999992
   17.55027771  108.49700165    4.90999985    2.23000002
   17.55360985  122.60700226    4.90999985    2.19000006
   17.55666542  137.45500183    4.90999985    2.25000000
   17.55999947  148.46499634    4.90999985    2.17000008
   17.56333351  159.15199280    4.90999985    2.17000008
   17.56916809  159.15199280    4.90999985    2.13000011
   17.57333374  117.95200348    4.90999985    2.53999996
   17.57416725  122.22399902    4.90999985    2.51999998
   17.57694626  119.30400085    4.90999985    2.55999994
   17.58000183  128.75399780    4.90999985    2.55999994
   17.58333397  123.52100372    4.90999985    2.48000002
   17.58666801  149.16499329    4.90999985    2.40000010
   17.58972359   93.23000336    4.90999985    2.28999996
   17.59305573   96.75039673    4.90999985    2.48000002
   17.59638977  113.29299927    4.90999985    2.55999994
   17.59944534   97.09889984    4.90999985    2.66000009
   17.60277748   96.06620026    4.90999985    2.66000009
   17.60583305   82.21150208    4.90999985    2.66000009
   17.60750008  101.46900177    4.90999985    2.67000008
   17.61194420  101.46900177    4.90999985    2.66000009
   17.61611176   95.90730286    4.90999985    2.66000009
   17.61944389  105.55200195    4.90999985    2.66000009
   17.62277794  111.17600250    4.90999985    2.66000009
   17.62583351  105.40299988    4.63999987    2.67000008
   17.62916756  110.62300110    3.78999996    2.67000008
   17.63222313  112.92099762    3.59999990    2.67000008
   17.63555527  101.28900146    4.30999994    2.67000008
   17.63888931  106.55500031    4.69999981    2.67000008
   17.64083290   99.80200195    4.80000019    2.67000008
   17.64249992  117.88300323    4.90999985    2.66000009
   17.64583397  112.84600067    4.90999985    2.64000010
   17.64888954  108.33000183    4.90999985    2.57999992
   17.65499878  108.33000183    4.90999985    2.36999989
   17.65916634  104.66400146    4.90999985    2.17000008
   17.66222191  140.52900696    4.90999985    2.11999989
   17.66555595   98.03600311    4.90999985    2.17000008
   17.66888809  130.58099365    4.90999985    2.15000010
   17.67194366  108.10099792    4.90999985    2.25000000
   17.67416573  122.43199921    4.90999985    2.26999998
   17.67555428  111.40599823    4.90999985    2.23000002
   17.67888832  134.09199524    4.90999985    2.30999994
   17.68194389  118.24500275    4.90999985    2.32999992
   17.68527603  136.28599548    4.90999985    2.42000008
   17.68833160  125.82700348    4.90999985    2.46000004
   17.69166565  113.52600098    4.90999985    2.48000002
   17.69777679  113.52600098    4.90999985    2.46000004
   17.70194435  116.31300354    4.90999985    2.59999990
   17.70499992   94.18199921    4.90999985    2.61999989
   17.70750046   86.15889740    4.90999985    2.61999989
   17.70861244   82.24359894    4.90999985    2.64000010
   17.71194458   80.99109650    4.90999985    2.61999989
   17.71500015  103.76499939    4.90999985    2.64000010
   17.71833420   78.33679962    4.90999985    2.57999992
   17.72138977   82.62090302    4.90999985    2.57999992
   17.72472191   83.63849640    4.90999985    2.57999992
   17.72805595  127.63800049    4.90999985    2.51999998
   17.73111153  103.40599823    4.90999985    2.53999996
   17.73444557  103.93800354    4.90999985    2.55999994
   17.74055672  103.93800354    4.90999985    2.50000000
   17.74472237  100.05999756    4.90999985    2.57999992
   17.74805641  113.00199890    4.90999985    2.51999998
   17.75111198  126.83399963    4.90999985    2.42000008
   17.75444412  127.83000183    4.90999985    2.40000010
   17.75749969  128.84500122    4.90999985    2.40000010
   17.76083374  116.97100067    4.90999985    2.40000010
   17.76416588  134.13600159    4.90999985    2.36999989
   17.76722145  139.67900085    4.90999985    2.42000008
   17.77055550  108.00700378    4.90999985    2.40000010
   17.77388954  148.08500671    4.90999985    2.32999992
   17.77555466  134.59500122    4.90999985    2.26999998
   17.77750015  147.37800598    4.90999985    2.32999992
   17.78333282  147.37800598    4.90999985    2.26999998
   17.78750038  118.45700073    4.90999985    2.32999992
   17.79083252  147.77299500    4.90999985    2.26999998
   17.79388809  161.84300232    4.90999985    2.13000011
   17.79722214  178.92199707    4.90999985    2.03999996
   17.80055428  219.91099548    4.90999985    1.96000004
   17.80360985  299.53601074    4.90999985    1.89999998
   17.80694389  334.60699463    4.90999985    1.88000000
   17.80888748  310.92700195    4.90999985    1.83000004
   17.81055450  198.87699890    4.90999985    1.85000002
   17.81361008  324.84899902    4.90999985    1.80999994
   17.81694603  216.41900635    4.90999985    1.96000004
   17.82027817  188.33299255    4.90999985    2.03999996
   17.82638931  188.33299255    4.90999985    2.11999989
   17.83027840  221.78199768    4.90999985    2.05999994
   17.83361244  199.44000244    4.90999985    2.01999998
   17.83694458  148.92199707    4.90999985    2.13000011
   17.84000015  130.44900513    4.90999985    2.25000000
   17.84250069  151.11999512    4.90999985    2.25000000
   17.84388924  175.26499939    4.90999985    2.19000006
   17.84694481  176.28900146    4.90999985    2.13000011
   17.85027885  225.69000244    4.90999985    2.05999994
   17.85333443  282.97100830    4.90999985    1.98000002
   17.85666656  261.64599609    4.90999985    1.94000006
   17.87833405  261.64599609    4.90999985    1.75000000
   17.88222313  160.43400574    4.90999985    1.89999998
   17.88555527  256.14599609    4.90999985    2.17000008
   17.88888931  239.79499817    4.90999985    1.86000001
   17.89194489  207.88900757    4.90999985    1.86000001
   17.89527702  209.27400208    4.90999985    2.05999994
   17.89861107  185.40400696    4.90999985    2.07999992
   17.90166664  131.33599854    4.90999985    2.05999994
   17.90499878  137.68099976    4.90999985    2.13000011
   17.90805435  145.28900146    4.90999985    2.21000004
   17.90916634  143.47099304    4.90999985    2.23000002
   17.91166687  124.90599823    4.90999985    2.28999996
   17.91499901  103.62300110    4.90999985    2.25000000
   17.92111015  103.62300110    4.90999985    2.19000006
   17.92499924  142.73300171    4.90999985    2.21000004
   17.92833328  211.87899780    4.90999985    2.05999994
   17.93166542  188.33599854    4.90999985    2.03999996
   17.93472099  145.10600281    4.90999985    2.05999994
   17.93805504  140.80999756    4.90999985    2.23000002
   17.94138718  169.77600098    4.90999985    2.11999989
   17.94249916  177.29100037    4.90999985    2.05999994
   17.94499969  175.36799622    4.90999985    2.03999996
   17.94833183  169.79699707    4.90999985    2.09999990
   17.95138931  176.93400574    4.90999985    2.07999992
   17.95472336  287.06799316    4.90999985    2.15000010
   17.95777893  156.51699829    4.90999985    1.96000004
   17.96389008  156.51699829    4.90999985    2.01999998
   17.96805573  321.00299072    4.90999985    2.11999989
   17.97111130  277.14199829    4.90999985    1.96000004
   17.97444534  102.50299835    4.90999985    1.94000006
   17.97583389   23.57019997    4.90999985    1.83000004
   17.97805595   -1.00000000    4.90999985    1.75000000
   17.98139000   -1.00000000    4.90999985    1.51999998
   17.98444557   -1.00000000    4.90999985    1.58000004
   17.98777771   -1.00000000    4.90999985    1.33000004
   17.99083328   -1.00000000    4.90999985    1.30999994
   17.99416733   -1.00000000    4.90999985    1.38000000
   17.99749947   -1.00000000    4.90999985    1.46000004
   18.00055504   -1.00000000    4.90999985    1.53999996
   18.00666618   -1.00000000    4.90999985    1.39999998
   18.01083374   -1.00000000    4.90999985    1.39999998
   18.01416588   -1.00000000    4.90999985    1.30999994
   18.01722145   -1.00000000    4.90999985    1.11000001
   18.02055550   -1.00000000    4.90999985    1.21000004
   18.02361107   -1.00000000    4.90999985    1.36000001
   18.02694511   -1.00000000    4.90999985    1.30999994
   18.03027725   -1.00000000    4.90999985    1.38000000
   18.03333282   -1.00000000    4.90999985    1.39999998
   18.03666687  151.63299561    4.90999985    1.55999994
   18.03999901  257.60299683    4.90999985    1.83000004
   18.04249954  178.88999939    4.90999985    1.91999996
   18.04361153  294.24899292    4.90999985    1.91999996
   18.04944420  294.24899292    4.90999985    2.11999989
   18.05360985  142.14599609    4.90999985    2.32999992
   18.05694389  131.29400635    4.90999985    2.36999989
   18.05999947  138.66000366    4.90999985    2.30999994
   18.06333351  127.25199890    4.90999985    2.30999994
   18.06666756  142.96899414    4.90999985    2.32999992
   18.06972313  126.29900360    4.90999985    2.40000010
   18.07305717  124.24700165    4.90999985    2.48000002
   18.07583427  124.73699951    4.90999985    2.51999998
   18.07666779  136.01499939    4.90999985    2.51999998
   18.08000183  128.63699341    4.90999985    2.51999998
   18.08305550  130.93400574    4.90999985    2.48000002
   18.08638954  137.05799866    4.90999985    2.46000004
   18.09250069  137.05799866    4.90999985    2.44000006
   18.09638977  129.35099792    4.90999985    2.42000008
   18.09972191  105.31300354    4.90999985    2.40000010
   18.10305595  128.89500427    4.90999985    2.32999992
   18.10611153  137.67500305    4.90999985    2.21000004
   18.10916710  153.04100037    4.90999985    2.15000010
   18.11000061  145.10499573    4.90999985    2.11999989
   18.11333466  133.46400452    4.90999985    2.15000010
   18.11638832  107.40899658    4.90999985    2.21000004
   18.11972237  131.55700684    4.90999985    2.15000010
   18.12305641  167.60400391    4.90999985    2.15000010
   18.12611198  261.21600342    4.90999985    2.00000000
   18.12944412  230.49699402    4.90999985    1.96000004
   18.13527679  230.49699402    4.90999985    2.13000011
   18.13944435  150.77099609    4.90999985    2.36999989
   18.14249992  121.01300049    4.90999985    2.44000006
   18.14305496  122.55699921    4.90999985    2.44000006
   18.14638901  133.42199707    4.90999985    2.44000006
   18.14944458  139.93099976    4.90999985    2.39000010
   18.15277672  129.18800354    4.90999985    2.32999992
   18.15611076  157.81700134    4.90999985    2.25000000
   18.15916634  230.20300293    4.90999985    1.98000002
   18.16250038  386.94198608    4.90999985    1.91999996
   18.16555595  328.85101318    4.90999985    1.85000002
   18.16888809   -1.00000000    4.90999985    1.88000000
   18.17222214   -1.00000000    4.90999985    1.61000001
   18.17805481   -1.00000000    4.90999985    1.58000004
   18.18222237  108.49900055    4.90999985    1.80999994
   18.18555450   34.49700165    4.90999985    1.75000000
   18.18861008   -1.00000000    4.90999985    1.60000002
   18.19194412   -1.00000000    4.90999985    1.39999998
   18.19527626   -1.00000000    4.90999985    1.36000001
   18.19833183   -1.00000000    4.90999985    1.51999998
   18.20166779   -1.00000000    4.90999985    1.23000002
   18.20499992   -1.00000000    4.90999985    1.05999994
   18.20805550   -1.00000000    4.90999985    1.39999998
   18.20916748   70.19270325    4.90999985    1.51999998
   18.21166801  105.50800323    4.90999985    1.66999996
   18.21500015  214.05999756    4.90999985    1.71000004
   18.22083473  214.05999756    4.90999985    1.83000004
   18.22500038  160.74299622    4.90999985    1.96000004
   18.22833443  168.31300354    4.90999985    2.07999992
   18.23139000  170.41700745    4.90999985    2.05999994
   18.23472214  197.03300476    4.90999985    2.01999998
   18.23805618  162.53199768    4.90999985    2.03999996
   18.24111176  168.02600098    4.90999985    2.13000011
   18.24250031  154.10499573    4.90999985    2.11999989
   18.24472237  203.68299866    4.90999985    2.09999990
   18.24805641  236.34199524    4.90999985    1.98000002
   18.25111198  187.22200012    4.90999985    2.09999990
   18.25444412  259.29199219    4.90999985    2.07999992
   18.25777817  342.77200317    4.90999985    1.94000006
   18.26388931  342.77200317    4.90999985    1.73000002
   18.26777840   -1.00000000    4.90999985    1.78999996
   18.27111053   61.36449814    4.90999985    1.71000004
   18.27444458   94.27169800    4.90999985    1.63000000
   18.27611160  199.44999695    4.90999985    1.66999996
   18.27805519  301.75201416    4.90999985    1.75000000
   18.28138924  410.51599121    4.90999985    1.88000000
   18.28333282  203.20100403    4.90999985    1.83000004
   18.28333282   94.27169800    4.90999985    1.63000000
   18.28333282  301.75201416    4.90999985    1.75000000
   18.28333282  410.51599121    4.90999985    1.88000000
   18.28333282  236.34199524    4.90999985    1.98000002
   18.28361130  187.22200012    4.90999985    2.09999990
   18.28361130  259.29199219    4.90999985    2.07999992
   18.28361130  342.77200317    4.90999985    1.94000006
   18.28361130   -1.00000000    4.90999985    1.78999996
   18.28361130   61.36449814    4.90999985    1.71000004
   18.28555489   94.76219940    4.90999985    1.80999994
   18.28888893   76.81109619    4.90999985    1.71000004
   18.29222107   38.67879868    4.90999985    1.73000002
   18.29527664   95.40460205    4.90999985    1.69000006
   18.29861069   -1.00000000    4.90999985    1.75000000
   18.30416679   -1.00000000    4.90999985    1.30999994
   18.30805397   -1.00000000    4.90999985    1.28999996
   18.31138802   -1.00000000    4.90999985    1.28999996
   18.31472206   -1.00000000    4.90999985    1.34000003
   18.31722260  101.36100006    4.90999985    1.50000000
   18.31805611  150.11900330    4.90999985    1.64999998
   18.32139015  323.50100708    4.90999985    1.83000004
   18.32444572   23.57019997    4.90999985    1.91999996
   18.32777786   49.24689865    4.90999985    1.69000006
   18.33111191   -1.00000000    4.90999985    1.69000006
   18.33416748   -1.00000000    4.90999985    1.25000000
   18.33750153   -1.00000000    4.90999985    1.46000004
   18.34055710   -1.00000000    4.90999985    1.41999996
   18.34694481   -1.00000000    4.90999985    1.55999994
   18.35111237   -1.00000000    4.90999985    1.58000004
   18.35416794   -1.00000000    4.90999985    1.51999998
   18.35750008   -1.00000000    4.90999985    1.46000004
   18.36083412   -1.00000000    4.90999985    1.28999996
   18.36388969   -1.00000000    4.90999985    1.05999994
   18.36722183   -1.00000000    4.90999985    0.86000001
   18.37055588   -1.00000000    4.90999985    0.70999998
   18.37361145   -1.00000000    4.90999985    0.38000000
   18.37694550   -1.00000000    4.90999985    0.46000001
   18.38000107   -1.00000000    4.90999985    0.58999997
   18.38333321   -1.00000000    4.90999985    0.80000001
   18.39388847   -1.00000000    4.90999985    1.28999996
   18.39694405   -1.00000000    4.90999985    1.50000000
   18.40027809   -1.00000000    4.90999985    1.44000006
   18.40361023   -1.00000000    4.90999985    1.44000006
   18.40666580   95.64350128    4.90999985    1.61000001
   18.40999985  358.76599121    4.90999985    1.73000002
   18.41305542  366.05499268    4.90999985    1.86000001
   18.41638756  234.05299377    4.90999985    1.85000002
   18.41722107  229.80999756    4.90999985    1.88000000
   18.41972160  214.39199829    4.90999985    1.94000006
   18.42305565  281.81399536    4.90999985    2.01999998
   18.42638779  139.80900574    4.90999985    1.85000002
   18.43666649   -1.00000000    4.90999985    1.36000001
   18.43999863   -1.00000000    4.90999985    1.33000004
   18.44305420   46.44889832    4.90999985    1.48000002
   18.44638824   23.57019997    4.90999985    1.64999998
   18.44944382   -1.00000000    4.90999985    1.50000000
   18.45305634  182.47599792    4.90999985    1.60000002
   18.45639038   -1.00000000    4.90999985    1.76999998
   18.45972252   -1.00000000    4.90999985    1.53999996
   18.46277809   -1.00000000    4.90999985    1.38000000
   18.46611214   -1.00000000    4.90999985    1.73000002
   18.46916771   -1.00000000    4.90999985    1.34000003
   18.47944450   -1.00000000    4.90999985    1.14999998
   18.48277855   -1.00000000    4.90999985    1.30999994
   18.48611069   -1.00000000    4.90999985    1.33000004
   18.48944473   -1.00000000    4.90999985    1.25000000
   18.49277878   -1.00000000    4.90999985    1.34000003
   18.49583435   -1.00000000    4.90999985    1.46000004
   18.49916649   -1.00000000    4.90999985    1.41999996
   18.50222206   -1.00000000    4.90999985    1.09000003
   18.50555611   -1.00000000    4.90999985    1.39999998
   18.50888824   -1.00000000    4.90999985    1.36000001
   18.51194382   -1.00000000    4.90999985    1.30999994
   18.52222252   -1.00000000    4.90999985    1.16999996
   18.52555466   -1.00000000    4.90999985    1.11000001
   18.52888870   -1.00000000    4.90999985    1.13000000
   18.53194427   -1.00000000    4.90999985    1.16999996
   18.53527641   -1.00000000    4.90999985    1.33000004
   18.53861046   -1.00000000    4.90999985    1.46000004
   18.54166603   36.58829880    4.90999985    1.61000001
   18.54500008   88.42949677    4.90999985    1.73000002
   18.54805565   97.46060181    4.90999985    1.71000004
   18.55055428   57.27669907    4.90999985    1.71000004
   18.55166626   -1.00000000    4.90999985    1.66999996
   18.55499840   -1.00000000    4.90999985    1.55999994
   18.56110954   -1.00000000    4.90999985    1.63000000
   18.56527710  295.95498657    4.90999985    1.75000000
   18.56833458  147.06300354    4.90999985    1.78999996
   18.57166672   -1.00000000    4.90999985    1.73000002
   18.57500076   -1.00000000    4.90999985    1.60000002
   18.57805634   -1.00000000    4.90999985    1.34000003
   18.58139038   -1.00000000    4.90999985    1.16999996
   18.58472252   -1.00000000    4.90999985    1.19000006
   18.58805656   -1.00000000    4.90999985    1.28999996
   18.59138870   -1.00000000    4.90999985    1.28999996
   18.59444427   -1.00000000    4.90999985    1.28999996
   18.59777832   -1.00000000    4.90999985    1.16999996
   18.60805511   -1.00000000    4.90999985    1.00000000
   18.61138916   -1.00000000    4.90999985    0.95999998
   18.61444473   -1.00000000    4.90999985    0.89999998
   18.61805534   -1.00000000    4.90999985    1.09000003
   18.62138939   -1.00000000    4.90999985    1.25000000
   18.62472153   -1.00000000    4.90999985    1.30999994
   18.62777710   -1.00000000    4.90999985    1.30999994
   18.63111115   -1.00000000    4.90999985    1.41999996
   18.63416672   -1.00000000    4.90999985    1.48000002
   18.63750076   -1.00000000    4.90999985    1.48000002
   18.64083290   -1.00000000   -1.00000000   -1.00000000
   18.64666748   -1.00000000   -1.00000000   -1.00000000
   18.65083313   -1.00000000    4.90999985    1.48000002
   18.65416718   -1.00000000    4.90999985    1.53999996
   18.65749931   -1.00000000    4.90999985    1.33000004
   18.66055489   -1.00000000    4.90999985    1.46000004
   18.66388893   -1.00000000    4.90999985    1.44000006
   18.66694450   -1.00000000    4.90999985    1.41999996
   18.67027664   -1.00000000    4.90999985    1.25000000
   18.67361069   -1.00000000    4.90999985    1.14999998
   18.67666626   -1.00000000    4.90999985    1.14999998
   18.68000031   -1.00000000    4.90999985    1.09000003
   18.68333244   -1.00000000    4.90999985    1.09000003
   18.69361115   -1.00000000    4.90999985    1.30999994
   18.69694328   -1.00000000    4.90999985    1.33000004
   18.70027924   -1.00000000    4.90999985    1.26999998
   18.70333481   -1.00000000    4.90999985    1.14999998
   18.70666695   -1.00000000    4.90999985    1.21000004
   18.71000099   -1.00000000    4.90999985    1.34000003
   18.71305656   -1.00000000    4.90999985    1.33000004
   18.71638870   -1.00000000    4.90999985    1.14999998
   18.71972275   -1.00000000    4.90999985    1.11000001
   18.72305679   -1.00000000    4.90999985    1.13000000
   18.72638893   -1.00000000    4.90999985    1.03999996
   18.73666763   -1.00000000    4.90999985    0.76999998
   18.73972321   -1.00000000    4.90999985    0.81999999
   18.74305534   -1.00000000    4.90999985    0.80000001
   18.74638939   -1.00000000    4.90999985    0.76999998
   18.74944496   -1.00000000    4.90999985    0.80000001
   18.75277710   -1.00000000    4.90999985    0.73000002
   18.75611115   -1.00000000    4.90999985    0.83999997
   18.75944519   -1.00000000    4.90999985    1.00000000
   18.76250076   -1.00000000    4.90999985    1.03999996
   18.76583290   -1.00000000    4.90999985    1.14999998
   18.76916695   -1.00000000    4.90999985    1.13000000
   18.77944374   -1.00000000    4.90999985    1.09000003
   18.78277779   -1.00000000    4.90999985    1.11000001
   18.78610992   -1.00000000    4.90999985    1.14999998
   18.78944397   -1.00000000    4.90999985    1.30999994
   18.79277802   -1.00000000    4.90999985    1.25000000
   18.79583359   -1.00000000    4.90999985    1.21000004
   18.79916573   -1.00000000    4.90999985    1.21000004
   18.80249977   -1.00000000    4.90999985    1.16999996
   18.80555534   -1.00000000    4.90999985    1.14999998
   18.80888748   -1.00000000    4.90999985    1.13000000
   18.81194305   -1.00000000    4.90999985    1.23000002
   18.81805611   -1.00000000    4.90999985    1.23000002
   18.82222366   -1.00000000    4.90999985    1.38000000
   18.82555580   -1.00000000    4.90999985    1.51999998
   18.82888985   -1.00000000    4.90999985    1.53999996
   18.83194542  109.79000092    4.90999985    1.60000002
   18.83527756   79.08180237    4.90999985    1.64999998
   18.83833313   -1.00000000    4.90999985    1.66999996
   18.84166718   -1.00000000    4.90999985    1.48000002
   18.84500122   -1.00000000    4.90999985    1.36000001
   18.84805679   -1.00000000    4.90999985    1.41999996
   18.85194397   33.99420166    4.90999985    1.53999996
   18.85499954   -1.00000000    4.90999985    1.60000002
   18.86111069   -1.00000000    4.90999985    1.60000002
   18.86527824   -1.00000000    4.90999985    1.51999998
   18.86833382   -1.00000000    4.90999985    1.41999996
   18.87166595   -1.00000000    4.90999985    1.44000006
   18.87472153   -1.00000000    4.90999985    1.44000006
   18.89444351   -1.00000000    4.90999985    1.03999996
   18.89777756   -1.00000000    4.90999985    1.00000000
   18.90388870   -1.00000000    4.90999985    1.30999994
   18.90805435   -1.00000000    4.90999985    1.33000004
   18.91138840   -1.00000000    4.90999985    1.30999994
   18.91444397   -1.00000000   -1.00000000   -1.00000000
   18.91777802  347.09600830    4.90999985    1.60000002
   18.92111015  216.49499512    4.90999985    1.78999996
   18.92416573  287.41900635    4.90999985    1.85000002
   18.92499924  344.83599854    4.90999985    1.85000002
   18.92777634  225.58099365    4.90999985    1.89999998
   18.93083191  162.33200073    4.90999985    1.89999998
   18.93416595  244.09300232    4.90999985    2.09999990
   18.93750000   64.61650085    4.90999985    1.71000004
   18.94055557  235.78199768    4.90999985    1.80999994
   18.94666672  235.78199768    4.90999985    1.39999998
   18.95083427  113.89600372    4.90999985    2.25000000
   18.95416832  138.14500427    4.90999985    2.23000002
   18.95750046  142.97000122    4.90999985    2.15000010
   18.95861244  148.22500610    4.90999985    2.19000006
   18.96111107  139.32200623    4.90999985    2.05999994
   18.96416664  141.38400269    4.90999985    2.17000008
   18.96750069  130.37100220    4.90999985    2.07999992
   18.97055626  162.83200073    4.90999985    2.00000000
   18.97389030  170.59100342    4.90999985    2.09999990
   18.97722244   -1.00000000    4.90999985    1.88000000
   18.98027802  308.29098511    4.90999985    1.58000004
   18.98361206  179.42999268    4.90999985    1.89999998
   18.98972321  179.42999268    4.90999985    1.89999998
   18.99388885  131.57600403    4.90999985    2.01999998
   18.99694443  125.91999817    4.90999985    2.21000004
   19.00027847  128.93200684    4.90999985    2.28999996
   19.00333405  131.68499756    4.90999985    2.28999996
   19.00666618  146.15100098    4.90999985    2.23000002
   19.01000023  157.83099365    4.90999985    2.09999990
   19.01305580  153.08000183    4.90999985    2.00000000
   19.01638794  159.92399597    4.90999985    1.94000006
   19.01972198  176.22599792    4.90999985    2.00000000
   19.02277756  165.49299622    4.90999985    2.00000000
   19.02527809  153.01199341    4.90999985    2.00000000
   19.02666664  152.75100708    4.90999985    2.05999994
   19.03249931  152.75100708    4.90999985    2.05999994
   19.03666687  154.27000427    4.90999985    2.19000006
   19.03972244   -1.00000000    4.90999985    2.03999996
   19.04305458   -1.00000000    4.90999985    1.58000004
   19.04638863   -1.00000000    4.90999985    1.61000001
   19.04944420  198.90100098    4.90999985    1.80999994
   19.05277634  126.63899994    4.90999985    2.07999992
   19.05611038  115.12200165    4.90999985    2.46000004
   19.05861092  124.86000061    4.90999985    2.44000006
   19.05972099  117.19000244    4.90999985    2.25000000
   19.06277657  113.52999878    4.90999985    2.48000002
   19.06611061  118.28199768    4.90999985    2.46000004
   19.06916809  106.32900238    4.90999985    2.36999989
   19.07527924  106.32900238    4.90999985    2.13000011
   19.07944489  133.95399475    4.90999985    2.25000000
   19.08277893  125.46499634    4.90999985    2.23000002
   19.08583450  170.22399902    4.90999985    2.19000006
   19.08916664  168.11500549    4.90999985    2.13000011
   19.09250069  166.11199951    4.90999985    2.05999994
   19.09305573  103.18299866    4.90999985    1.98000002
   19.09638977   -1.00000000    4.90999985    1.66999996
   19.09972191   -1.00000000    4.90999985    1.51999998
   19.10277748   -1.00000000    4.90999985    1.33000004
   19.10611153   -1.00000000    4.90999985    1.14999998
   19.10916710   -1.00000000    4.90999985    1.33000004
   19.11250114   -1.00000000    4.90999985    1.16999996
   19.12222290   -1.00000000    4.90999985    0.75000000
   19.12583351   -1.00000000    4.90999985    0.51999998
   19.12916756   -1.00000000    4.90999985    0.38000000
   19.13222313   -1.00000000    4.90999985    0.25999999
   19.13555527   -1.00000000    4.90999985    0.23000000
   19.13861084   -1.00000000    4.90999985    0.19000000
   19.14194489   -1.00000000    4.90999985    0.13000000
   19.14527702   -1.00000000    4.90999985    0.13000000
   19.14833260   -1.00000000    4.90999985    0.17000000
   19.15166664   -1.00000000    4.90999985    0.40000001
   19.15499878   -1.00000000    4.90999985    0.56999999
   19.16499901   -1.00000000    4.90999985    0.28000000
   19.16833305   -1.00000000    4.90999985    0.47999999
   19.17166519   -1.00000000    4.90999985    0.55000001
   19.17472076   -1.00000000    4.90999985    0.46000001
   19.17805481   -1.00000000    4.90999985    0.52999997
   19.18111038   -1.00000000    4.90999985    0.58999997
   19.18444443   -1.00000000    4.90999985    0.75000000
   19.18777657   -1.00000000    4.90999985    0.86000001
   19.19083214   -1.00000000    4.90999985    0.80000001
   19.19444275   -1.00000000    4.90999985    0.51999998
   19.19777679   -1.00000000    4.90999985    0.41999999
   19.20805550   -1.00000000    4.90999985    0.61000001
   19.21111107   -1.00000000    4.90999985    0.67000002
   19.21444511   -1.00000000    4.90999985    0.69000000
   19.21750069   -1.00000000    4.90999985    0.75000000
   19.22083473   -1.00000000    4.90999985    0.75000000
   19.22416687   -1.00000000    4.90999985    0.58999997
   19.22750092   -1.00000000    4.90999985    0.56999999
   19.23083305   -1.00000000    4.90999985    0.52999997
   19.23388863   -1.00000000    4.90999985    0.46000001
   19.23722267   -1.00000000    4.90999985    0.40000001
   19.24055672   -1.00000000    4.90999985    0.31999999
   19.25083351   -1.00000000    4.90999985    0.44000000
   19.25388908   -1.00000000    4.90999985    0.44000000
   19.25722313   -1.00000000    4.90999985    0.41999999
   19.26083374   -1.00000000    4.90999985    0.38000000
   19.26416588   -1.00000000    4.90999985    0.36000001
   19.26749992   -1.00000000    4.90999985    0.25999999
   19.27055550   -1.00000000    4.90999985    0.17000000
   19.27388954   -1.00000000    4.90999985    0.20999999
   19.27694511   -1.00000000    4.90999985    0.25000000
   19.28027725   -1.00000000    4.90999985    0.28000000
   19.28361130   -1.00000000    4.90999985    0.28000000
   19.29361153   -1.00000000    4.90999985    0.28000000
   19.29694366   -1.00000000    4.90999985    0.25999999
   19.29999924   -1.00000000    4.90999985    0.36000001
   19.30333328   -1.00000000    4.90999985    0.40000001
   19.30666542   -1.00000000    4.90999985    0.40000001
   19.30972099   -1.00000000    4.90999985    0.44000000
   19.31305504   -1.00000000    4.90999985    0.44000000
   19.31611061   -1.00000000    4.90999985    0.47999999
   19.31944466   -1.00000000    4.90999985    0.56999999
   19.32277870   -1.00000000    4.90999985    0.56999999
   19.32611275   -1.00000000    4.90999985    0.73000002
   19.33638954   -1.00000000    4.90999985    0.80000001
   19.33972359   -1.00000000    4.90999985    0.81999999
   19.34305573   -1.00000000    4.90999985    0.75000000
   19.34611130   -1.00000000    4.90999985    0.75000000
   19.34944534   -1.00000000    4.90999985    0.75000000
   19.35250092   -1.00000000    4.90999985    0.79000002
   19.35583305   -1.00000000    4.90999985    0.86000001
   19.35944557   -1.00000000    4.90999985    0.95999998
   19.36277771   -1.00000000    4.90999985    0.61000001
   19.36611176   -1.00000000    4.90999985    0.55000001
   19.36916733   -1.00000000    4.90999985    0.52999997
   19.37944412   -1.00000000    4.90999985    0.51999998
   19.38249969   -1.00000000    4.90999985    0.51999998
   19.38583374   -1.00000000    4.90999985    0.50000000
   19.38888931   -1.00000000    4.90999985    0.34000000
   19.39249992   -1.00000000    4.90999985    0.25000000
   19.39583397   -1.00000000    4.90999985    0.25000000
   19.39916611   -1.00000000    4.90999985    0.19000000
   19.40222168   -1.00000000    4.90999985    0.15000001
   19.40555573   -1.00000000    4.90999985    0.17000000
   19.40861130   -1.00000000    4.90999985    0.23000000
   19.41194344   -1.00000000    4.90999985    0.19000000
   19.42222214   -1.00000000    4.90999985    0.52999997
   19.42527771   -1.00000000    4.90999985    0.70999998
   19.42916679   -1.00000000    4.90999985    0.83999997
   19.43222237   -1.00000000    4.90999985    0.86000001
   19.43555450   -1.00000000    4.90999985    0.94000000
   19.43888855   -1.00000000    4.90999985    1.16999996
   19.44194412   -1.00000000    4.90999985    1.38000000
   19.44527626   -1.00000000    4.90999985    1.39999998
   19.44833183   -1.00000000    4.90999985    1.36000001
   19.45166779   -1.00000000    4.90999985    1.33000004
   19.45499992   -1.00000000    4.90999985    1.26999998
   19.46500015   -1.00000000    4.90999985    1.16999996
   19.46833420   -1.00000000    4.90999985    1.16999996
   19.47138977   -1.00000000    4.90999985    1.21000004
   19.47472191   -1.00000000    4.90999985    1.33000004
   19.47805595   -1.00000000    4.90999985    1.34000003
   19.48111153   -1.00000000    4.90999985    1.28999996
   19.48444557   -1.00000000    4.90999985    1.19000006
   19.48750114   -1.00000000    4.90999985    1.16999996
   19.49083328   -1.00000000    4.90999985    1.16999996
   19.49444389   -1.00000000    4.90999985    1.03999996
   19.49749947   -1.00000000    4.90999985    1.03999996
   19.50777817   -1.00000000    4.90999985    0.80000001
   19.51111031   -1.00000000    4.90999985    0.83999997
   19.51444435   -1.00000000    4.90999985    0.89999998
   19.51749992   -1.00000000    4.90999985    0.92000002
   19.52083397   -1.00000000    4.90999985    0.95999998
   19.52388954   -1.00000000    4.90999985    0.95999998
   19.52777672   -1.00000000    4.90999985    1.14999998
   19.53083229   -1.00000000    4.90999985    1.14999998
   19.53416634   -1.00000000    4.90999985    1.16999996
   19.53750038   -1.00000000    4.90999985    1.21000004
   19.54055595   -1.00000000    4.90999985    1.23000002
   19.55083275   -1.00000000    4.90999985    1.13000000
   19.55388832   -1.00000000    4.90999985    1.01999998
   19.55722237   -1.00000000    4.90999985    1.00000000
   19.56083298   -1.00000000    4.90999985    1.03999996
   19.56416512   -1.00000000    4.90999985    1.14999998
   19.56722260   -1.00000000    4.90999985    1.14999998
   19.57055664   -1.00000000    4.90999985    1.23000002
   19.57361221   -1.00000000    4.90999985    1.28999996
   19.57694626   -1.00000000    4.90999985    1.26999998
   19.58027840   -1.00000000    4.90999985    1.33000004
   19.58333397   -1.00000000    4.90999985    1.26999998
   19.58944511   -1.00000000    4.90999985    1.30999994
   19.59361267   -1.00000000    4.90999985    1.36000001
   19.59694481   67.64710236    4.90999985    1.41999996
   19.60000038  258.46099854    4.90999985    1.75000000
   19.60333443   95.35060120    4.90999985    1.76999998
   19.60639000   69.52860260    4.90999985    1.64999998
   19.60972214   -1.00000000    4.90999985    1.60000002
   19.61305618   -1.00000000    4.90999985    1.60000002
   19.61611176   -1.00000000    4.90999985    1.33000004
   19.61944389   -1.00000000    4.90999985    1.26999998
   19.62277794   -1.00000000    4.90999985    1.25000000
   19.62583351   -1.00000000    4.90999985    1.21000004
   19.63638878   -1.00000000    4.90999985    0.79000002
   19.63972282   -1.00000000    4.90999985    0.81999999
   19.64277840   -1.00000000    4.90999985    0.75000000
   19.64611053   -1.00000000    4.90999985    0.56999999
   19.64944458   -1.00000000    4.90999985    0.55000001
   19.65250015   -1.00000000    4.90999985    0.56999999
   19.65583229   -1.00000000    4.90999985    0.55000001
   19.65888786   -1.00000000    4.90999985    0.67000002
   19.66250038   -1.00000000    4.90999985    0.86000001
   19.66583252   -1.00000000    4.90999985    1.19000006
   19.66916656   -1.00000000    4.90999985    1.38000000
   19.67527771   -1.00000000    4.90999985    1.83000004
   19.67916679  132.65299988    4.90999985    2.00000000
   19.68249893  142.80599976    4.90999985    2.15000010
   19.68583298  152.55000305    4.90999985    2.13000011
   19.68888855  155.35499573    4.90999985    2.13000011
   19.69222069  153.67100525    4.90999985    2.13000011
   19.69305420  145.82200623    4.90999985    2.05999994
   19.69583321  220.27699280    4.90999985    2.07999992
   19.69888878   -1.00000000    4.90999985    1.69000006
   19.70222282   -1.00000000    4.90999985    1.16999996
   19.70527840   -1.00000000    4.90999985    0.98000002
   19.70861244   -1.00000000    4.90999985    0.89999998
   19.71194458   -1.00000000    4.90999985    0.67000002
   19.72222328   -1.00000000    4.90999985    0.20999999
   19.72527885   -1.00000000    4.90999985    0.25000000
   19.72861099   -1.00000000    4.90999985    0.28000000
   19.73194504   -1.00000000    4.90999985    0.25000000
   19.73527718   -1.00000000    4.90999985    0.23000000
   19.73833275   -1.00000000    4.90999985    0.17000000
   19.74166679   -1.00000000    4.90999985    0.20999999
   19.74500084   -1.00000000    4.90999985    0.25000000
   19.74805641   -1.00000000    4.90999985    0.20999999
   19.75138855   -1.00000000    4.90999985    0.15000001
   19.75444412   -1.00000000    4.90999985    0.13000000
   19.76499939   -1.00000000    4.90999985    0.11000000
   19.76805496   -1.00000000    4.90999985    0.07000000
   19.77138901   -1.00000000    4.90999985    0.07000000
   19.77472115   -1.00000000    4.90999985    0.07000000
   19.77777672   -1.00000000    4.90999985    0.05000000
   19.78111076   -1.00000000    4.90999985    0.03000000
   19.78416634   -1.00000000    4.90999985    0.05000000
   19.78750038   -1.00000000    4.90999985    0.09000000
   19.79083252   -1.00000000    4.90999985    0.25000000
   19.79416656   -1.00000000    4.90999985    0.36000001
   19.79749870   -1.00000000    4.90999985    0.47999999
   19.80777740   -1.00000000    4.90999985    0.67000002
   19.81110954   -1.00000000    4.90999985    0.89999998
   19.81416512   -1.00000000    4.90999985    1.09000003
   19.81750107   -1.00000000    4.90999985    1.09000003
   19.82055664   -1.00000000    4.90999985    1.21000004
   19.82389069   -1.00000000    4.90999985    1.41999996
   19.82722282   -1.00000000    4.90999985    1.44000006
   19.83055687   69.62799835    4.90999985    1.58000004
   19.83388901  239.13999939    4.90999985    1.71000004
   19.83694458  299.75201416    4.90999985    1.78999996
   19.84027863  221.42500305    4.90999985    1.83000004
   19.84638977  221.42500305    4.90999985    1.98000002
   19.85055542   -1.00000000    4.90999985    1.80999994
   19.85388947   -1.00000000    4.90999985    1.51999998
   19.85722351   -1.00000000    4.90999985    1.50000000
   19.86055565   -1.00000000    4.90999985    1.46000004
   19.86388969   -1.00000000    4.90999985    1.34000003
   19.86722183   -1.00000000    4.90999985    1.19000006
   19.87027740   -1.00000000    4.90999985    1.09000003
   19.87361145   -1.00000000    4.90999985    1.14999998
   19.87666702   -1.00000000    4.90999985    1.11000001
   19.88000107   -1.00000000    4.90999985    1.05999994
   19.88333321   -1.00000000    4.90999985    0.95999998
   19.90916634   -1.00000000    4.90999985    0.56999999
   19.91222191   -1.00000000    4.90999985    0.63000000
   19.91555595   -1.00000000    4.90999985    0.55000001
   19.91860962   -1.00000000    4.90999985    0.50000000
   19.92194366   -1.00000000    4.90999985    0.51999998
   19.92527771   -1.00000000    4.90999985    0.47999999
   19.92833328   -1.00000000    4.90999985    0.40000001
   19.93666649   -1.00000000    4.90999985    0.41999999
   19.93972206   -1.00000000    4.90999985    0.40000001
   19.94333267   -1.00000000    4.90999985    0.36000001
   19.94638824   -1.00000000    4.90999985    0.31999999
   19.94972038   -1.00000000    4.90999985    0.17000000
   19.95305634   -1.00000000    4.90999985    0.19000000
   19.95611191   -1.00000000    4.90999985    0.25000000
   19.95944595   -1.00000000    4.90999985    0.36000001
   19.96277809   -1.00000000    4.90999985    0.47999999
   19.96583366   -1.00000000    4.90999985    0.44000000
   19.96916771   -1.00000000    4.90999985    0.55000001
   19.97527885   -1.00000000    4.90999985    1.63000000
   19.97944450   -1.00000000    4.90999985    1.25000000
   19.98277855   -1.00000000    4.90999985    1.00000000
   19.98583412   -1.00000000    4.90999985    1.09000003
   19.98916626   -1.00000000    4.90999985    1.25000000
   19.99250031   -1.00000000    4.90999985    1.34000003
   19.99555588   -1.00000000    4.90999985    1.19000006
   19.99888992   -1.00000000    4.90999985    0.94000000
   20.00222206   -1.00000000    4.90999985    1.07000005
   20.00527763   94.10269928    4.90999985    1.71000004
   20.00861168   78.07369995    4.90999985    1.94000006
   20.01027870   38.47610092    4.90999985    2.01999998
   20.01222229   -1.00000000    4.90999985    1.91999996
   20.01805496   -1.00000000    4.90999985    1.85000002
   20.02222252   -1.00000000    4.90999985    2.00000000
   20.02555466   -1.00000000    4.90999985    1.91999996
   20.02888870   -1.00000000    4.90999985    1.78999996
   20.03194427   -1.00000000    4.90999985    1.69000006
   20.03527641   -1.00000000    4.90999985    1.50000000
   20.03833199   -1.00000000    4.90999985    1.78999996
   20.04166603   -1.00000000    4.90999985    1.89999998
   20.04527664   -1.00000000    4.90999985    2.01999998
   20.04833221   -1.00000000    4.90999985    1.96000004
   20.05166626   -1.00000000    4.90999985    2.00000000
   20.05499840   -1.00000000    4.90999985    2.23000002
   20.06499863   -1.00000000    4.90999985    1.83000004
   20.06833458   -1.00000000    4.90999985    1.80999994
   20.07166672   -1.00000000    4.90999985    1.85000002
   20.07472229   -1.00000000    4.90999985    1.89999998
   20.07833481   -1.00000000    4.90999985    1.75000000
   20.08166695   -1.00000000    4.90999985    1.71000004
   20.08472252   -1.00000000    4.90999985    1.66999996
   20.08805656   -1.00000000    4.90999985    1.71000004
   20.09138870   -1.00000000    4.90999985    1.73000002
   20.09444427   -1.00000000    4.90999985    1.75000000
   20.09777832   -1.00000000    4.90999985    1.50000000
   20.10805511   -1.00000000    4.90999985    0.86000001
   20.11138916   -1.00000000    4.90999985    0.40000001
   20.11472321   -1.00000000    4.90999985    0.19000000
   20.11777878   -1.00000000    4.90999985    0.23000000
   20.12111092   -1.00000000    4.90999985    0.20999999
   20.12444496   -1.00000000    4.90999985    0.19000000
   20.12750053   -1.00000000    4.90999985    0.17000000
   20.13083267   -1.00000000    4.90999985    0.17000000
   20.13416672   -1.00000000    4.90999985    0.17000000
   20.13722229   -1.00000000    4.90999985    0.31999999
   20.14055634   -1.00000000    4.90999985    0.51999998
   20.15083313   -1.00000000    4.90999985    0.46000001
   20.15416718   -1.00000000    4.90999985    0.47999999
   20.15722275   -1.00000000    4.90999985    0.52999997
   20.16055489   -1.00000000    4.90999985    0.55000001
   20.16361046   -1.00000000    4.90999985    0.67000002
   20.16694450   -1.00000000    4.90999985    0.75000000
   20.17027664   -1.00000000    4.90999985    0.75000000
   20.17333221   -1.00000000    4.90999985    0.94000000
   20.17666626   -1.00000000    4.90999985    1.09000003
   20.18027687   -1.00000000    4.90999985    1.09000003
   20.18361092   -1.00000000    4.90999985    1.03999996
   20.19361115   -1.00000000    4.90999985    1.28999996
   20.19694328   -1.00000000    4.90999985    1.21000004
   20.20000076   -1.00000000    4.90999985    1.05999994
   20.20333481   -1.00000000    4.90999985    1.00000000
   20.20666695   -1.00000000    4.90999985    0.88000000
   20.20972252   -1.00000000    4.90999985    0.86000001
   20.21333504   -1.00000000    4.90999985    1.00000000
   20.21666718   -1.00000000    4.90999985    1.19000006
   20.21972275   -1.00000000    4.90999985    1.25000000
   20.22305679   -1.00000000    4.90999985    1.05999994
   20.22611237   -1.00000000    4.90999985    0.88000000
   20.23638916   -1.00000000    4.90999985    0.30000001
   20.23972321   -1.00000000    4.90999985    0.23000000
   20.24305534   -1.00000000    4.90999985    0.20999999
   20.24666786   -1.00000000    4.90999985    0.20999999
   20.24972153   -1.00000000    4.90999985    0.09000000
   20.25305557   -1.00000000    4.90999985    0.05000000
   20.25638962   -1.00000000    4.90999985    0.07000000
   20.25944519   -1.00000000    4.90999985    0.07000000
   20.26277733   -1.00000000    4.90999985    0.09000000
   20.26583290   -1.00000000    4.90999985    0.11000000
   20.26916695   -1.00000000    4.90999985    0.17000000
   20.27944374   -1.00000000    4.90999985    0.55000001
   20.28249931   -1.00000000    4.90999985    0.64999998
   20.28583336   -1.00000000    4.90999985    0.70999998
   20.28916550   -1.00000000    4.90999985    0.70999998
   20.29222107   -1.00000000    4.90999985    0.67000002
   20.29555511   -1.00000000    4.90999985    0.67000002
   20.29861069   -1.00000000    4.90999985    0.79000002
   20.30194283   -1.00000000    4.90999985    0.79000002
   20.30527687   -1.00000000    4.90999985    0.79000002
   20.30833244   -1.00000000    4.90999985    0.80000001
   20.31194305   -1.00000000    4.90999985    1.03999996
   20.32222366   -1.00000000    4.90999985    0.89999998
   20.32555580   -1.00000000    4.90999985    0.81999999
   20.32861137   -1.00000000    4.90999985    0.76999998
   20.33194542   -1.00000000    4.90999985    0.79000002
   20.33500099   -1.00000000    4.90999985    0.92000002
   20.33833313   -1.00000000    4.90999985    1.07000005
   20.34166718   -1.00000000    4.90999985    1.21000004
   20.34527779   -1.00000000    4.90999985    1.33000004
   20.34833336   -1.00000000    4.90999985    1.26999998
   20.35166740   -1.00000000    4.90999985    1.16999996
   20.35499954   -1.00000000    4.90999985    0.81999999
   20.36499977   -1.00000000    4.90999985    0.40000001
   20.36833382   -1.00000000    4.90999985    0.28000000
   20.37138939   -1.00000000    4.90999985    0.23000000
   20.37472153   -1.00000000    4.90999985    0.25000000
   20.37833405   -1.00000000    4.90999985    0.28000000
   20.38138962   -1.00000000    4.90999985    0.34000000
   20.38472176   -1.00000000    4.90999985    0.38000000
   20.38777733   -1.00000000    4.90999985    0.50000000
   20.39111137   -1.00000000    4.90999985    0.58999997
   20.39444351   -1.00000000    4.90999985    0.67000002
   20.39749908   -1.00000000    4.90999985    0.67000002
   20.40777779   -1.00000000    4.90999985    0.75000000
   20.41110992   -1.00000000    4.90999985    0.75000000
   20.41472244   -1.00000000    4.90999985    0.79000002
   20.41805458   -1.00000000    4.90999985    0.80000001
   20.42111015   -1.00000000    4.90999985    0.70999998
   20.42444420   -1.00000000    4.90999985    0.67000002
   20.42777634   -1.00000000    4.90999985    0.70999998
   20.43083191   -1.00000000    4.90999985    0.83999997
   20.43416595   -1.00000000    4.90999985    0.88000000
   20.43750000   -1.00000000    4.90999985    0.98000002
   20.44055557   -1.00000000    4.90999985    1.11000001
   20.45083427   -1.00000000    4.90999985    1.30999994
   20.45388985   -1.00000000    4.90999985    1.34000003
   20.45722389   -1.00000000    4.90999985    1.19000006
   20.46055603   -1.00000000    4.90999985    1.21000004
   20.46361160   -1.00000000    4.90999985    1.23000002
   20.46694565   -1.00000000    4.90999985    1.00000000
   20.47000122   -1.00000000    4.90999985    0.81999999
   20.47333336   -1.00000000    4.90999985    0.64999998
   20.47666740   -1.00000000    4.90999985    0.75000000
   20.48000145   -1.00000000    4.90999985    0.86000001
   20.48333359   -1.00000000    4.90999985    0.73000002
   20.49361229   -1.00000000    4.90999985    0.89999998
   20.49694443   -1.00000000    4.90999985    1.01999998
   20.50000000   -1.00000000    4.90999985    1.07000005
   20.50333405   -1.00000000    4.90999985    1.11000001
   20.50638962   -1.00000000    4.90999985    1.14999998
   20.50972176   -1.00000000    4.90999985    1.28999996
   20.51333427   -1.00000000    4.90999985    1.28999996
   20.51666641   -1.00000000    4.90999985    1.28999996
   20.52000046   -1.00000000    4.90999985    1.13000000
   20.52305603   -1.00000000    4.90999985    1.01999998
   20.52638817   -1.00000000    4.90999985    1.09000003
   20.53638840   -1.00000000    4.90999985    1.01999998
   20.53972244   -1.00000000    4.90999985    0.69000000
   20.54277802   -1.00000000    4.90999985    0.58999997
   20.54666710   -1.00000000    4.90999985    0.63000000
   20.54972076   -1.00000000    4.90999985    0.56999999
   20.55305481   -1.00000000    4.90999985    0.47999999
   20.55638885   -1.00000000    4.90999985    0.36000001
   20.55944443   -1.00000000    4.90999985    0.36000001
   20.56277657   -1.00000000    4.90999985    0.38000000
   20.56583214   -1.00000000    4.90999985    0.34000000
   20.56916809   -1.00000000    4.90999985    0.34000000
   20.57916832   -1.00000000    4.90999985    0.51999998
   20.58250046   -1.00000000    4.90999985    0.46000001
   20.58583450   -1.00000000    4.90999985    0.36000001
   20.58889008   -1.00000000    4.90999985    0.25000000
   20.59222221   -1.00000000    4.90999985    0.25000000
   20.59555626   -1.00000000    4.90999985    0.23000000
   20.59861183   -1.00000000    4.90999985    0.17000000
   20.60194397   -1.00000000    4.90999985    0.11000000
   20.60499954   -1.00000000    4.90999985    0.05000000
   20.60833359   -1.00000000    4.90999985    0.03000000
   20.61166763   -1.00000000    4.90999985    0.03000000
   20.62222290   -1.00000000    4.90999985    0.07000000
   20.62527847   -1.00000000    4.90999985    0.09000000
   20.62861061   -1.00000000    4.90999985    0.11000000
   20.63166618   -1.00000000    4.90999985    0.15000001
   20.63500023   -1.00000000    4.90999985    0.19000000
   20.63833237   -1.00000000    4.90999985    0.28000000
   20.64138794   -1.00000000    4.90999985    0.40000001
   20.64472198   -1.00000000    4.90999985    0.44000000
   20.64833260   -1.00000000    4.90999985    0.51999998
   20.65138817   -1.00000000    4.90999985    0.44000000
   20.65472221   -1.00000000    4.90999985    0.38000000
   20.66499901   -1.00000000    4.90999985    0.28000000
   20.66805458   -1.00000000    4.90999985    0.23000000
   20.67138863   -1.00000000    4.90999985    0.20999999
   20.67472076   -1.00000000    4.90999985    0.17000000
   20.67777634   -1.00000000    4.90999985    0.07000000
   20.68138885   -1.00000000    4.90999985    0.05000000
   20.68444443   -1.00000000    4.90999985    0.05000000
   20.68777657   -1.00000000    4.90999985    0.05000000
   20.69111061   -1.00000000    4.90999985    0.05000000
   20.69416618   -1.00000000    4.90999985    0.05000000
   20.69749832   -1.00000000    4.90999985    0.05000000
   20.70777893   -1.00000000    4.90999985    0.05000000
   20.71111107   -1.00000000    4.90999985    0.05000000
   20.71472359   -1.00000000    4.90999985    0.05000000
   20.71777916   -1.00000000    4.90999985    0.05000000
