    HOUR (UT)   FLARE FACTOR    SKY TESTER    SUN TESTER
   10.98666668   -1.00000000   -1.00000000   -1.00000000
   11.01166630  173.98899841    4.69999981    1.83000004
   11.01500034   -1.00000000    4.01999998    1.83000004
   11.01805496   -1.00000000    3.39000010    1.83000004
   11.02138901  212.61999512    2.86999989    1.80999994
   11.02472210  239.20500183    2.44000006    1.78999996
   11.03166676  239.20500183    1.96000004    1.80999994
   11.03555584  212.45100403    1.98000002    1.86000001
   11.03888893  219.64700317    2.17000008    1.85000002
   11.04222298  208.16700745    2.30999994    1.85000002
   11.04472256  210.98500061    2.40000010    1.86000001
   11.04555607  219.08399963    2.40000010    1.86000001
   11.04888916  211.16299438    2.44000006    1.86000001
   11.05194473  209.62600708    2.36999989    1.86000001
   11.05527782  211.41999817    2.28999996    1.86000001
   11.05861092  211.88800049    2.26999998    1.88000000
   11.06166649  231.40899658    2.25000000    1.88000000
   11.06500053  263.93099976    2.19000006    1.75000000
   11.06833363  317.20001221    2.11999989    1.63000000
   11.07444477  317.20001221    1.88000000    1.85000002
   11.07861137  208.55200195    1.85000002    1.89999998
   11.08166695  209.03100586    1.75000000    1.88000000
   11.08500004  214.56900024    1.73000002    1.86000001
   11.08805561  209.87899780    1.75000000    1.86000001
   11.09138870  203.83500671    1.78999996    1.86000001
   11.09472179  209.59199524    1.86000001    1.88000000
   11.09777737  201.52799988    1.98000002    1.89999998
   11.10111141  218.72900391    2.21000004    1.89999998
   11.10444450  196.82899475    2.36999989    1.91999996
   11.10750008  198.86999512    2.61999989    1.91999996
   11.11083412  202.65100098    2.78999996    1.91999996
   11.11138916  196.14399719    2.82999992    1.91999996
   11.11722279  196.14399719    3.00000000    1.91999996
   11.12138939  237.06900024    3.01999998    1.83000004
   11.12444496  199.32299805    3.03999996    1.86000001
   11.12777805  207.16600037    3.11999989    1.91999996
   11.13111115  206.46499634    3.21000004    1.94000006
   11.13416672  228.26100159    3.43000007    1.89999998
   11.13749981  199.12399292    3.72000003    1.89999998
   11.14083290  226.06199646    4.21999979    1.91999996
   11.14388847  201.82699585    4.88999987    1.91999996
   11.14472198  197.80200195    4.90999985    1.94000006
   11.14750004  202.37800598    4.90999985    1.98000002
   11.15083313  196.28300476    4.90999985    1.96000004
   11.15388870  192.79899597    4.90999985    1.96000004
   11.15999985  192.79899597    4.90999985    1.96000004
   11.16416645  239.98199463    4.90999985    1.94000006
   11.16750050  228.07299805    4.90999985    1.78999996
   11.17055607   96.98179626    4.90999985    1.55999994
   11.17388916   -1.00000000    4.90999985    1.30999994
   11.17722225   -1.00000000    4.90999985    1.23000002
   11.18083382  114.09200287    4.90999985    1.26999998
   11.18416691   52.93429947    4.90999985    1.36000001
   11.18750000   43.50839996    4.90999985    1.26999998
   11.19055557   54.88119888    4.90999985    1.19000006
   11.19388866  241.08700562    4.90999985    1.33000004
   11.19694424  211.06799316    4.90999985    1.71000004
   11.20305538  211.06799316    4.90999985    1.71000004
   11.20694447  241.61000061    4.90999985    1.66999996
   11.21027756  272.03799438    4.90999985    1.83000004
   11.21138859  250.19700623    4.90999985    1.85000002
   11.21388912  295.64599609    4.90999985    1.76999998
   11.21722221  112.11299896    4.90999985    1.63000000
   11.22055531   94.46779633    4.90999985    1.26999998
   11.22361088  137.79899597    4.90999985    1.34000003
   11.22694397   -1.00000000    4.90999985    1.41999996
   11.22999954   -1.00000000    4.90999985    1.03999996
   11.23333359   -1.00000000    4.90999985    0.89999998
   11.23666668  128.31300354    4.90999985    1.01999998
   11.23972225  313.59500122    4.90999985    1.36000001
   11.24583340  313.59500122    4.90999985    1.80999994
   11.25000000  191.99499512    4.90999985    1.80999994
   11.25305557  193.21499634    4.90999985    2.00000000
   11.25638866  186.92999268    4.90999985    2.03999996
   11.25944424  192.06100464    4.90999985    2.05999994
   11.26277733  195.73800659    4.90999985    2.01999998
   11.26611137  236.05200195    4.90999985    1.86000001
   11.26916599  186.75000000    4.90999985    1.86000001
   11.27250004  190.84899902    4.90999985    2.03999996
   11.27583313  185.25300598    4.90999985    2.01999998
   11.27805519  197.49099731    4.90999985    2.01999998
   11.27916622  207.74800110    4.90999985    2.00000000
   11.28249931  256.69000244    4.90999985    1.80999994
   11.28861141  256.69000244    4.90999985    1.76999998
   11.29277802  184.54699707    4.90999985    2.09999990
   11.29611111  186.36900330    4.90999985    2.09999990
   11.29916668  201.68299866    4.90999985    2.01999998
   11.30249977  337.14199829    4.90999985    1.88000000
   11.30555534  105.44799805    4.90999985    1.64999998
   11.30888939   90.77680206    4.90999985    1.39999998
   11.31138897  236.55799866    4.90999985    1.46000004
   11.31250000  267.70199585    4.90999985    1.58000004
   11.31583309  211.46099854    4.90999985    1.85000002
   11.31916618  185.43699646    4.90999985    2.01999998
   11.32222176  210.67599487    4.90999985    2.03999996
   11.32555580  256.20599365    4.90999985    1.89999998
   11.33138847  256.20599365    4.90999985    1.48000002
   11.33555508  290.08499146    4.90999985    1.71000004
   11.33888817  182.79800415    4.90999985    1.64999998
   11.34194374  209.04899597    4.90999985    1.66999996
   11.34472179  210.77900696    4.90999985    1.98000002
   11.34555531  200.61599731    4.90999985    2.00000000
   11.34888840  199.56199646    4.90999985    2.00000000
   11.35222244  185.41600037    4.90999985    2.03999996
   11.35527802  247.58799744    4.90999985    1.96000004
   11.35861111  171.52900696    4.90999985    1.89999998
   11.36166668  172.46000671    4.90999985    2.09999990
   11.36500072  179.00900269    4.90999985    2.13000011
   11.36833382  175.90800476    4.90999985    2.13000011
   11.37416649  175.90800476    4.90999985    2.15000010
   11.37833309  180.91999817    4.90999985    2.13000011
   11.38166714  236.24499512    4.90999985    2.11999989
   11.38500023  119.03399658    4.90999985    1.83000004
   11.38805580  134.57099915    4.90999985    1.48000002
   11.39138889   87.55619812    4.90999985    1.41999996
   11.39444447   92.09590149    4.90999985    1.58000004
   11.39777756   -1.00000000    4.90999985    1.41999996
   11.40111065   -1.00000000    4.90999985    1.09000003
   11.40416622   -1.00000000    4.90999985    0.98000002
   11.40749931   -1.00000000    4.90999985    1.09000003
   11.41083336   -1.00000000    4.90999985    1.21000004
   11.42111111   -1.00000000    4.90999985    0.70999998
   11.42444515   -1.00000000    4.90999985    0.92000002
   11.42777824  104.47799683    4.90999985    1.03999996
   11.43083382   -1.00000000    4.90999985    1.46000004
   11.43416691   -1.00000000    4.90999985    1.26999998
   11.43750000   -1.00000000    4.90999985    1.19000006
   11.44055557   -1.00000000    4.90999985    1.09000003
   11.44388866  236.52000427    4.90999985    1.33000004
   11.44472218  208.36700439    4.90999985    1.48000002
   11.44722271  216.49099731    4.90999985    1.98000002
   11.45055580  181.57099915    4.90999985    2.21000004
   11.45388889  219.70799255    4.90999985    2.19000006
   11.46000004  219.70799255    4.90999985    1.58000004
   11.46416664  263.73001099    4.90999985    1.41999996
   11.46722221   -1.00000000    4.90999985    1.73000002
   11.47055531   -1.00000000    4.90999985    1.34000003
   11.47388840   -1.00000000    4.90999985    1.14999998
   11.47694397   -1.00000000    4.90999985    1.16999996
   11.48055553   -1.00000000    4.90999985    1.25000000
   11.48388958   -1.00000000    4.90999985    1.26999998
   11.48694515   -1.00000000    4.90999985    1.26999998
   11.49027824   -1.00000000    4.90999985    1.16999996
   11.49361134   -1.00000000    4.90999985    1.03999996
   11.49666691   -1.00000000    4.90999985    1.09000003
   11.50277805   -1.00000000    4.90999985    1.30999994
   11.50694466   -1.00000000    4.90999985    1.30999994
   11.51027775  106.35199738    4.90999985    1.44000006
   11.51138878  178.84500122    4.90999985    1.50000000
   11.51361084  127.75000000    4.90999985    1.66999996
   11.51694393   -1.00000000    4.90999985    1.51999998
   11.52027798   -1.00000000    4.90999985    1.11000001
   11.52333355   -1.00000000    4.90999985    0.81999999
   11.52666664   -1.00000000    4.90999985    0.88000000
   11.52999973   -1.00000000    4.90999985    1.11000001
   11.53305531   -1.00000000    4.90999985    0.98000002
   11.53638935   -1.00000000    4.90999985    1.01999998
   11.53944492   -1.00000000    4.90999985    1.13000000
   11.54972267   -1.00000000    4.90999985    0.63000000
   11.55305576   -1.00000000    4.90999985    0.61000001
   11.55611134   -1.00000000    4.90999985    0.51999998
   11.55944443   -1.00000000    4.90999985    0.80000001
   11.56277752   -1.00000000    4.90999985    0.79000002
   11.56583309   -1.00000000    4.90999985    0.70999998
   11.56916618   -1.00000000    4.90999985    1.05999994
   11.57250023   -1.00000000    4.90999985    1.28999996
   11.57555580  104.54799652    4.90999985    1.23000002
   11.57805538  337.67401123    4.90999985    1.51999998
   11.57916641  226.68600464    4.90999985    1.58000004
   11.58249950  248.44599915    4.90999985    2.19000006
   11.58861065  248.44599915    4.90999985    2.07999992
   11.59277725   -1.00000000   -1.00000000   -1.00000000
   11.59583282   -1.00000000    4.90999985    0.80000001
   11.59916592   95.79039764    4.90999985    1.05999994
   11.60222244  253.50199890    4.90999985    1.60000002
   11.60555553   -1.00000000   -1.00000000   -1.00000000
   11.60888958  118.49099731    4.90999985    1.39999998
   11.61222267   -1.00000000    4.90999985    1.53999996
   11.61555576   -1.00000000    4.90999985    0.89999998
   11.61861134   -1.00000000    4.90999985    0.63000000
   11.62194443   -1.00000000    4.90999985    0.63000000
   11.62527752   -1.00000000    4.90999985    0.92000002
   11.63555527   -1.00000000    4.90999985    0.69000000
   11.63861084   -1.00000000    4.90999985    0.67000002
   11.64194393   -1.00000000    4.90999985    0.47999999
   11.64527798   -1.00000000    4.90999985    0.41999999
   11.64861107   -1.00000000    4.90999985    0.50000000
   11.65166664   -1.00000000    4.90999985    0.50000000
   11.65499973   -1.00000000    4.90999985    0.40000001
   11.65833282   -1.00000000    4.90999985    0.38000000
   11.66138840   -1.00000000    4.90999985    0.44000000
   11.66472149   -1.00000000    4.90999985    0.76999998
   11.66805553   -1.00000000    4.90999985    0.56999999
   11.67833328   -1.00000000    4.90999985    1.09000003
   11.68166733   -1.00000000    4.90999985    1.00000000
   11.68472195   -1.00000000    4.90999985    0.79000002
   11.68805599   -1.00000000    4.90999985    0.61000001
   11.69111156   -1.00000000    4.90999985    0.73000002
   11.69444466   -1.00000000    4.90999985    0.76999998
   11.69777775   -1.00000000    4.90999985    0.69000000
   11.70083332   -1.00000000    4.90999985    0.41999999
   11.70416641   -1.00000000    4.90999985    0.63000000
   11.70749950   -1.00000000    4.90999985    1.01999998
   11.71055508   -1.00000000    4.90999985    0.98000002
   11.72111034   -1.00000000    4.90999985    0.25999999
   11.72444439   -1.00000000    4.90999985    0.50000000
   11.72749996   -1.00000000    4.90999985    1.19000006
   11.73083305   -1.00000000    4.90999985    0.80000001
   11.73416710   -1.00000000    4.90999985    0.75000000
   11.73722267   -1.00000000    4.90999985    1.33000004
   11.74055576   -1.00000000    4.90999985    1.36000001
   11.74388885   -1.00000000    4.90999985    1.05999994
   11.74722290   -1.00000000    4.90999985    0.64999998
   11.75055599   -1.00000000    4.90999985    0.47999999
   11.75388908   -1.00000000    4.90999985    0.40000001
   11.76388931   -1.00000000    4.90999985    0.13000000
   11.76722240   -1.00000000    4.90999985    0.15000001
   11.77055550   -1.00000000    4.90999985    0.40000001
   11.77361107   -1.00000000    4.90999985    0.63000000
   11.77694416   -1.00000000    4.90999985    0.52999997
   11.78027725   -1.00000000    4.90999985    1.36000001
   11.78361130   -1.00000000    4.90999985    1.03999996
   11.78694534   -1.00000000    4.90999985    0.51999998
   11.79000092   -1.00000000    4.90999985    0.23000000
   11.79333401   -1.00000000    4.90999985    0.17000000
   11.79638958   -1.00000000    4.90999985    0.20999999
   11.80694485   -1.00000000    4.90999985    0.38000000
   11.81000042   -1.00000000    4.90999985    0.47999999
   11.81361103   -1.00000000    4.90999985    0.81999999
   11.81694412   -1.00000000    4.90999985    1.13000000
   11.82027817   -1.00000000    4.90999985    1.00000000
   11.82333374   -1.00000000    4.90999985    0.94000000
   11.82666683   -1.00000000    4.90999985    1.00000000
   11.82999992   -1.00000000    4.90999985    0.89999998
   11.83305550   -1.00000000    4.90999985    0.46000001
   11.83638859   -1.00000000    4.90999985    0.31999999
   11.83944416   -1.00000000    4.90999985    0.63000000
   11.84972191   -1.00000000    4.90999985    0.28000000
   11.85277843   -1.00000000    4.90999985    0.36000001
   11.85611153   -1.00000000    4.90999985    0.25000000
   11.85944462   -1.00000000    4.90999985    0.13000000
   11.86250019   -1.00000000    4.90999985    0.31999999
   11.86583328  224.42500305    4.90999985    1.48000002
   11.86916637   -1.00000000    4.90999985    1.66999996
   11.87222195   -1.00000000    4.90999985    0.88000000
   11.87555599   -1.00000000    4.90999985    0.25000000
   11.87888908   -1.00000000    4.90999985    0.17000000
   11.88222218   -1.00000000    4.90999985    0.13000000
   11.89249992   -1.00000000    4.90999985    0.23000000
   11.89583302   -1.00000000    4.90999985    1.09000003
   11.89888859   -1.00000000    4.90999985    0.86000001
   11.90222168   -1.00000000    4.90999985    0.76999998
   11.90555477   -1.00000000    4.90999985    0.64999998
   11.90861034   -1.00000000    4.90999985    0.50000000
   11.91222191   -1.00000000    4.90999985    0.28000000
   11.91555500   -1.00000000    4.90999985    0.40000001
   11.91888905   -1.00000000    4.90999985    0.70999998
   11.92194462   -1.00000000    4.90999985    1.14999998
   11.92527771   -1.00000000    4.90999985    0.86000001
   11.93527794   -1.00000000    4.90999985    0.19000000
   11.93861103  204.54299927    4.90999985    1.03999996
   11.94194412  246.69799805    4.90999985    1.86000001
   11.94472218  114.89399719    4.90999985    1.98000002
   11.94555569   -1.00000000    4.90999985    1.98000002
   11.94861126   -1.00000000    4.90999985    0.67000002
   11.95194435   -1.00000000    4.90999985    0.81999999
   11.95499992   -1.00000000    4.90999985    1.07000005
   11.95833302   -1.00000000    4.90999985    0.83999997
   11.96166611   -1.00000000    4.90999985    0.56999999
   11.96472168   -1.00000000    4.90999985    1.00000000
   11.96805477   -1.00000000    4.90999985    0.92000002
   11.97416592   -1.00000000    4.90999985    0.69000000
   11.97833252   -1.00000000    4.90999985    1.39999998
   11.98138809   -1.00000000    4.90999985    1.21000004
   11.98472214   -1.00000000    4.90999985    0.80000001
   11.98805618   -1.00000000    4.90999985    0.64999998
   11.99111176  113.22100067    4.90999985    1.33000004
   11.99444485   -1.00000000    4.90999985    1.55999994
   11.99777794   -1.00000000    4.90999985    1.01999998
   12.00083351   -1.00000000    4.90999985    0.80000001
   12.00416660   -1.00000000    4.90999985    0.64999998
   12.00749969   -1.00000000    4.90999985    0.47999999
   12.01055527   -1.00000000    4.90999985    0.80000001
   12.03611183   -1.00000000    4.90999985    0.34000000
   12.03944492   -1.00000000    4.90999985    0.44000000
   12.04250050   -1.00000000    4.90999985    0.81999999
   12.04611111  153.78799438    4.90999985    1.01999998
   12.04944515  209.28900146    4.90999985    1.76999998
   12.05277824  261.75100708    4.90999985    2.09999990
   12.05583382  311.98901367    4.90999985    1.85000002
   12.05916691   -1.00000000    4.90999985    1.53999996
   12.06250000   -1.00000000    4.90999985    0.92000002
   12.06555557   -1.00000000    4.90999985    1.03999996
   12.06888866   -1.00000000    4.90999985    1.19000006
   12.07472229   -1.00000000    4.90999985    0.92000002
   12.07888889   -1.00000000    4.90999985    1.28999996
   12.08222198   -1.00000000    4.90999985    1.25000000
   12.08527756  188.48399353    4.90999985    1.39999998
   12.08861065  106.08599854    4.90999985    1.94000006
   12.09194374  265.14199829    4.90999985    1.44000006
   12.09499931  203.67399597    4.90999985    1.91999996
   12.09833336  213.66000366    4.90999985    1.96000004
   12.10166740  169.82899475    4.90999985    2.05999994
   12.10472298   -1.00000000    4.90999985    1.75000000
   12.10805607   -1.00000000    4.90999985    0.95999998
   12.11111164   -1.00000000    4.90999985    1.07000005
   12.11777782   -1.00000000    4.90999985    1.09000003
   12.12166691   -1.00000000    4.90999985    1.61000001
   12.12500000   -1.00000000    4.90999985    1.30999994
   12.12833309  110.91100311    4.90999985    1.44000006
   12.13138866  123.54799652    4.90999985    1.66999996
   12.13472176  286.86801147    4.90999985    1.63000000
   12.13777733  252.63900757    4.90999985    1.73000002
   12.14111137  212.68800354    4.90999985    1.91999996
   12.14444447  297.79998779    4.90999985    1.94000006
   12.14499950  267.96701050    4.90999985    1.94000006
   12.14805508   -1.00000000    4.90999985    1.75000000
   12.15111065   -1.00000000    4.90999985    1.16999996
   12.15444374   -1.00000000    4.90999985    0.56999999
   12.16055489   -1.00000000    4.90999985    1.46000004
   12.16472149  201.99800110    4.90999985    2.05999994
   12.16777802  179.08900452    4.90999985    2.07999992
   12.17111111  282.42199707    4.90999985    2.13000011
   12.17416668  146.65100098    4.90999985    1.58000004
   12.17750072  190.89900208    4.90999985    1.60000002
   12.17833328  160.04299927    4.90999985    1.60000002
   12.18111134  141.14999390    4.90999985    1.71000004
   12.18444443   -1.00000000    4.90999985    1.48000002
   12.18750000   -1.00000000    4.90999985    1.23000002
   12.19083309   -1.00000000    4.90999985    1.01999998
   12.19388866   59.74229813    4.90999985    1.39999998
   12.19722271   -1.00000000    4.90999985    1.28999996
   12.20333290   -1.00000000    4.90999985    1.19000006
   12.20749950   -1.00000000    4.90999985    1.00000000
   12.21055508   -1.00000000    4.90999985    0.70999998
   12.21416664   -1.00000000    4.90999985    0.70999998
   12.21722221   -1.00000000    4.90999985    0.86000001
   12.22055531   -1.00000000    4.90999985    0.89999998
   12.22388840   -1.00000000    4.90999985    1.11000001
   12.22694397   -1.00000000    4.90999985    0.86000001
   12.23027706   -1.00000000    4.90999985    0.46000001
   12.23333359  172.55000305    4.90999985    1.51999998
   12.23666668   83.88480377    4.90999985    1.61000001
   12.24000072  215.37199402    4.90999985    1.25000000
   12.24611092  215.37199402    4.90999985    1.94000006
   12.25027752  221.87600708    4.90999985    1.76999998
   12.25361156  258.67300415    4.90999985    2.00000000
   12.25666714  168.64100647    4.90999985    1.89999998
   12.26000023  176.87899780    4.90999985    2.17000008
   12.26333332  181.51899719    4.90999985    2.23000002
   12.26638889  173.57099915    4.90999985    2.28999996
   12.26972198  209.61799622    4.90999985    2.23000002
   12.27277756   -1.00000000    4.90999985    1.61000001
   12.27611065   -1.00000000    4.90999985    1.25000000
   12.27972221  242.62800598    4.90999985    1.00000000
   12.28277779  249.63000488    4.90999985    1.85000002
   12.28888893  249.63000488    4.90999985    1.75000000
   12.29305553   -1.00000000    4.90999985    1.63000000
   12.29638958   -1.00000000    4.90999985    1.46000004
   12.29972267   -1.00000000    4.90999985    1.11000001
   12.30277824   -1.00000000    4.90999985    0.92000002
   12.30611134   -1.00000000    4.90999985    0.69000000
   12.30916691   -1.00000000    4.90999985    0.56999999
   12.31277752   -1.00000000    4.90999985    0.50000000
   12.31583309   -1.00000000    4.90999985    0.40000001
   12.31916618   -1.00000000    4.90999985    0.25999999
   12.32250023   -1.00000000    4.90999985    0.38000000
   12.32555580   -1.00000000    4.90999985    0.83999997
   12.33583260  173.70500183    4.90999985    1.50000000
   12.33916664   83.90630341    4.90999985    1.61000001
   12.34249973   -1.00000000    4.90999985    1.36000001
   12.34611034   -1.00000000    4.90999985    1.38000000
   12.34916592   -1.00000000    4.90999985    1.01999998
   12.35249996   -1.00000000    4.90999985    0.94000000
   12.35583401   -1.00000000    4.90999985    0.98000002
   12.35888958   -1.00000000    4.90999985    1.00000000
   12.36222267   77.79599762    4.90999985    1.50000000
   12.36555576   -1.00000000    4.90999985    1.55999994
   12.36861134   -1.00000000    4.90999985    1.13000000
   12.37888908  113.10199738    4.90999985    1.41999996
   12.38194466   -1.00000000    4.90999985    1.44000006
   12.38527775   -1.00000000    4.90999985    1.46000004
   12.38861084   -1.00000000    4.90999985    1.48000002
   12.39166641   -1.00000000    4.90999985    1.21000004
   12.39499950   -1.00000000    4.90999985    1.01999998
   12.39805508   -1.00000000    4.90999985    0.86000001
   12.40138817   -1.00000000    4.90999985    0.89999998
   12.40472221   -1.00000000    4.90999985    0.81999999
   12.40777779   -1.00000000    4.90999985    0.89999998
   12.41111088   -1.00000000    4.90999985    0.92000002
   12.42166710   -1.00000000    4.90999985    0.75000000
   12.42500019   -1.00000000    4.90999985    0.67000002
   12.42805576   -1.00000000    4.90999985    0.64999998
   12.43138885   -1.00000000    4.90999985    0.64999998
   12.43444443   -1.00000000    4.90999985    1.05999994
   12.43777752   -1.00000000    4.90999985    1.23000002
   12.44111156   -1.00000000    4.90999985    1.46000004
   12.44416714   -1.00000000    4.90999985    0.86000001
   12.44777775   -1.00000000    4.90999985    0.76999998
   12.45083332   -1.00000000    4.90999985    0.58999997
   12.45416641   -1.00000000    4.90999985    0.73000002
   12.46444416   -1.00000000    4.90999985    0.88000000
   12.46777725   -1.00000000    4.90999985    0.63000000
   12.47083282   -1.00000000    4.90999985    0.94000000
   12.47416592   -1.00000000    4.90999985    1.33000004
   12.47749996   -1.00000000    4.90999985    1.46000004
   12.48111057   -1.00000000    4.90999985    1.26999998
   12.48416710   -1.00000000    4.90999985    0.88000000
   12.48750019   94.76519775    4.90999985    1.21000004
   12.49083328  274.79699707    4.90999985    1.58000004
   12.49388885  255.99699402    4.90999985    1.75000000
   12.49722290  210.29200745    4.90999985    1.60000002
   12.50333309  210.29200745    4.90999985    2.01999998
   12.50749969  159.64599609    4.90999985    1.61000001
   12.51055527  112.56900024    4.90999985    1.63000000
   12.51416683  242.18699646    4.90999985    1.55999994
   12.51749992  171.30700684    4.90999985    1.76999998
   12.52055550   -1.00000000    4.90999985    1.51999998
   12.52388859   -1.00000000    4.90999985    1.26999998
   12.52694416   -1.00000000    4.90999985    1.23000002
   12.53027725   -1.00000000    4.90999985    1.21000004
   12.53361130   -1.00000000    4.90999985    1.21000004
   12.53666687   -1.00000000    4.90999985    1.41999996
   12.54000092   -1.00000000    4.90999985    1.30999994
   12.55027771   -1.00000000    4.90999985    1.09000003
   12.55333328   -1.00000000    4.90999985    0.83999997
   12.55666733   -1.00000000    4.90999985    0.95999998
   12.56000042   -1.00000000    4.90999985    1.23000002
   12.56305599   -1.00000000    4.90999985    1.34000003
   12.56638908   -1.00000000    4.90999985    1.39999998
   12.56944466   -1.00000000    4.90999985    1.19000006
   12.57277775   -1.00000000    4.90999985    0.94000000
   12.57611084   -1.00000000    4.90999985    1.03999996
   12.57972240   -1.00000000    4.90999985    0.89999998
   12.58305550   -1.00000000    4.90999985    0.76999998
   12.59305477   -1.00000000    4.90999985    0.50000000
   12.59638882   -1.00000000    4.90999985    0.67000002
   12.59944439   -1.00000000    4.90999985    0.52999997
   12.60277843   -1.00000000    4.90999985    0.63000000
   12.60583401   -1.00000000    4.90999985    1.00000000
   12.60916710   -1.00000000    4.90999985    1.09000003
   12.61277771   -1.00000000    4.90999985    1.28999996
   12.61583328   -1.00000000    4.90999985    1.25000000
   12.61916637   -1.00000000    4.90999985    1.14999998
   12.62250042   -1.00000000    4.90999985    1.16999996
   12.62555599   -1.00000000    4.90999985    1.26999998
   12.63166714   -1.00000000    4.90999985    1.38000000
   12.63583279   -1.00000000    4.90999985    0.92000002
   12.63916683   -1.00000000    4.90999985    0.95999998
   12.64249992   -1.00000000    4.90999985    1.23000002
   12.64583302   -1.00000000    4.90999985    1.28999996
   12.64916611   -1.00000000    4.90999985    1.05999994
   12.65222168   -1.00000000    4.90999985    0.95999998
   12.65555477   -1.00000000    4.90999985    1.03999996
   12.65861034   -1.00000000    4.90999985    1.00000000
   12.66194439   -1.00000000    4.90999985    1.34000003
   12.66527748   -1.00000000    4.90999985    1.23000002
   12.66833401   80.25289917    4.90999985    1.55999994
   12.67472267   80.25289917    4.90999985    2.03999996
   12.67888927  253.74499512    4.90999985    1.83000004
   12.68194485  154.73599243    4.90999985    1.75000000
   12.68527794  293.63598633    4.90999985    1.69000006
   12.68833351  114.82900238    4.90999985    1.88000000
   12.69166660   -1.00000000    4.90999985    1.61000001
   12.69499969   -1.00000000    4.90999985    1.51999998
   12.69805527   -1.00000000    4.90999985    1.41999996
   12.70138836   -1.00000000    4.90999985    1.25000000
   12.70472240   -1.00000000    4.90999985    1.26999998
   12.70777798   -1.00000000    4.90999985    1.38000000
   12.71111107   -1.00000000    4.90999985    1.23000002
   12.71749973   -1.00000000    4.90999985    1.63000000
   12.72166634   -1.00000000    4.90999985    1.38000000
   12.72472191   -1.00000000    4.90999985    1.23000002
   12.72805500   -1.00000000    4.90999985    1.46000004
   12.73138809  301.11199951    4.90999985    1.76999998
   12.73472214  288.86401367    4.90999985    1.91999996
   12.73777771  347.87298584    4.90999985    1.89999998
   12.74111176   -1.00000000    4.90999985    1.73000002
   12.74416733   -1.00000000    4.90999985    1.55999994
   12.74777794   -1.00000000    4.90999985    1.41999996
   12.75111103   -1.00000000    4.90999985    1.48000002
   12.75416660  252.79699707    4.90999985    1.80999994
   12.76027775  252.79699707    4.90999985    2.11999989
   12.76444435  358.42300415    4.90999985    1.98000002
   12.76777744  109.83899689    4.90999985    1.98000002
   12.77083302  263.90798950    4.90999985    1.73000002
   12.77416611  252.76699829    4.90999985    1.88000000
   12.77750015  291.45098877    4.90999985    2.05999994
   12.77861118  280.77398682    4.90999985    2.01999998
   12.78083324   19.24460030    4.90999985    1.88000000
   12.78416729  125.34100342    4.90999985    1.60000002
   12.78722286  157.93699646    4.90999985    1.73000002
   12.79055595   79.64099884    4.90999985    1.88000000
   12.79388905   -1.00000000    4.90999985    1.61000001
   12.79694462   -1.00000000    4.90999985    1.33000004
   12.80722237   -1.00000000    4.90999985    1.51999998
   12.81055546   -1.00000000    4.90999985    1.55999994
   12.81416702  112.88300323    4.90999985    1.44000006
   12.81750011  164.39199829    4.90999985    1.63000000
   12.82083321  100.31300354    4.90999985    1.88000000
   12.82388878   35.52460098    4.90999985    1.64999998
   12.82722187  115.69300079    4.90999985    1.76999998
   12.83027744  243.49400330    4.90999985    1.80999994
   12.83361053  178.75500488    4.90999985    1.94000006
   12.83694458  148.13499451    4.90999985    2.11999989
   12.84000015  150.92399597    4.90999985    2.30999994
   12.84611034  150.92399597    4.90999985    2.11999989
   12.85027790  157.95399475    4.90999985    2.42000008
   12.85333347  152.09899902    4.90999985    2.17000008
   12.85666752  152.34199524    4.90999985    2.30999994
   12.85972214  145.83999634    4.90999985    2.36999989
   12.86305618  156.75300598    4.90999985    2.50000000
   12.86638927  145.46899414    4.90999985    2.23000002
   12.86944485  148.58200073    4.90999985    2.48000002
   12.87277794  142.06199646    4.90999985    2.51999998
   12.87611103  141.79600525    3.80999994    2.51999998
   12.87861156  140.33099365    3.20000005    2.57999992
   12.87944412  143.06199646    2.86999989    2.57999992
   12.88277817  150.08900452    1.69000006    2.57999992
   12.88888836  150.08900452    1.33000004    2.55999994
   12.89305496  140.72300720    1.09000003    2.55999994
   12.89611053  145.20500183    0.86000001    2.55999994
   12.89944458  144.72599792    0.80000001    2.57999992
   12.90277767  142.47900391    0.67000002    2.59999990
   12.90611076  152.31599426    0.52999997    2.59999990
   12.90916634  135.30299377    0.47999999    2.59999990
   12.91194439  139.58399963    0.44000000    2.57999992
   12.91277695  132.10699463    0.44000000    2.59999990
   12.91611099  135.02099609    0.44000000    2.59999990
   12.91944504  139.41700745    0.41999999    2.59999990
   12.92250061  137.61399841    0.41999999    2.59999990
   12.92583370  133.74299622    0.41999999    2.59999990
   12.93166733  133.74299622    0.41999999    2.59999990
   12.93583298  156.33700562    0.41999999    2.59999990
   12.93916702  146.13999939    0.44000000    2.59999990
   12.94222260  136.60800171    0.44000000    2.59999990
   12.94527817  144.65199280    0.41999999    2.59999990
   12.94583321  139.47099304    0.44000000    2.59999990
   12.94916630  136.02499390    0.41999999    2.59999990
   12.95249939  135.97099304    0.41999999    2.59999990
   12.95555496  152.91600037    0.41999999    2.59999990
   12.95888901  133.89399719    0.44000000    2.59999990
   12.96194458  149.65800476    0.44000000    2.59999990
   12.96527767  139.24099731    0.44000000    2.59999990
   12.96861076  134.34800720    0.41999999    2.59999990
   12.97444439  134.34800720    0.41999999    2.59999990
   12.97861099  142.83299255    0.44000000    2.59999990
   12.98194408  148.11900330    0.41999999    2.59999990
   12.98527813  143.13800049    0.41999999    2.59999990
   12.98833370  138.44200134    0.41999999    2.59999990
   12.99166679  145.18400574    0.41999999    2.61999989
   12.99472237  148.04800415    0.40000001    2.59999990
   12.99805546  134.41499329    0.41999999    2.61999989
   13.00138855  165.15800476    0.41999999    2.59999990
   13.00444412  142.21200562    0.41999999    2.61999989
   13.00777817  132.39300537    0.41999999    2.61999989
   13.01111126  142.34199524    0.41999999    2.61999989
   13.01194477  148.75399780    0.41999999    2.59999990
   13.01749992  148.75399780    0.40000001    2.61999989
   13.02166653  132.30700684    0.41999999    2.59999990
   13.02472210  136.56300354    0.40000001    2.59999990
   13.02805519  134.80499268    0.40000001    2.59999990
   13.04555607  137.90400696    0.40000001    2.61999989
   13.04777813  139.50999451    0.40000001    2.61999989
   13.05111122  140.33999634    0.40000001    2.61999989
   13.05444431  142.18299866    0.40000001    2.61999989
   13.06027794  142.18299866    0.40000001    2.61999989
   13.06444454  143.42300415    0.40000001    2.61999989
   13.06777763  136.33399963    0.40000001    2.61999989
   13.07111073  138.11000061    0.40000001    2.61999989
   13.07416630  137.83599854    0.40000001    2.61999989
   13.07750034  135.47099304    0.40000001    2.61999989
   13.07888889  138.00599670    0.40000001    2.61999989
   13.08111095  140.64799500    0.40000001    2.61999989
   13.08444405  132.87699890    0.41999999    2.59999990
   13.08777714  136.77200317    0.41999999    2.61999989
   13.09083271  137.44500732    0.41999999    2.61999989
   13.09416676  135.30700684    0.41999999    2.61999989
   13.09749985  132.49299622    0.44000000    2.61999989
   13.10333347  132.49299622    0.51999998    2.61999989
   13.10750008  138.69500732    0.61000001    2.61999989
   13.11055565  142.46200562    0.52999997    2.61999989
   13.11222267  135.95399475    0.52999997    2.61999989
   13.11416721  139.07099915    0.44000000    2.64000010
   13.11750031  132.02099609    0.79000002    2.61999989
   13.12083340  134.25799561    2.61999989    2.59999990
   13.12388897  139.34100342    4.90999985    2.55999994
   13.12722206  141.09700012    4.90999985    2.51999998
   13.13055611  133.56500244    4.90999985    2.53999996
   13.13361073  139.31199646    4.90999985    2.55999994
   13.13694477  144.26400757    4.90999985    2.42000008
   13.14000034  138.96499634    4.90999985    2.42000008
   13.14611053  138.96499634    4.90999985    2.55999994
   13.15027714  143.22099304    4.90999985    2.51999998
   13.15333271  164.36500549    4.90999985    2.05999994
   13.15666676  230.81500244    4.90999985    1.75000000
   13.15999985  243.44000244    4.90999985    2.03999996
   13.16305542  164.34899902    4.90999985    1.41999996
   13.16638851  168.37699890    4.90999985    1.64999998
   13.16944504  164.85400391    4.90999985    1.96000004
   13.17277813  155.48199463    4.90999985    2.42000008
   13.17611122  152.68699646    4.90999985    2.40000010
   13.17888927  149.76899719    4.90999985    2.40000010
   13.17944431  170.49400330    4.90999985    2.36999989
   13.18277836  196.61000061    4.90999985    2.23000002
   13.18888855  196.61000061    4.90999985    1.96000004
   13.19305515  301.98199463    4.90999985    1.71000004
   13.19638920  295.90499878    4.90999985    1.83000004
   13.19944477  307.39001465    4.90999985    1.88000000
   13.20277786  290.18200684    4.90999985    1.69000006
   13.20583344  151.76899719    4.90999985    1.94000006
   13.20916653  179.85299683    4.90999985    2.01999998
   13.21222210  177.72599792    4.90999985    2.21000004
   13.21277714  147.67300415    4.90999985    2.21000004
   13.21611118  139.30799866    4.90999985    2.48000002
   13.21944427  154.10299683    4.90999985    2.03999996
   13.22249985  158.36999512    4.90999985    2.25000000
   13.22583294  184.72599792    4.90999985    2.17000008
   13.23166656  184.72599792    4.90999985    2.42000008
   13.23583317  157.81900024    4.90999985    2.36999989
   13.23916721  152.75900269    4.90999985    2.26999998
   13.24250031  255.97000122    4.90999985    2.09999990
   13.24555588  272.99600220    4.90999985    1.98000002
   13.24583340  177.65899658    4.90999985    1.98000002
   13.24916649  202.36999512    4.90999985    1.75000000
   13.25249958  160.50100708    4.90999985    1.98000002
   13.25583363  164.86999512    4.90999985    2.25000000
   13.25888920  172.44099426    4.90999985    2.42000008
   13.26222229  254.19299316    4.90999985    2.17000008
   13.26527786   -1.00000000    4.90999985    1.86000001
   13.26861095  254.41600037    4.90999985    1.83000004
   13.27472210  254.41600037    4.90999985    2.13000011
   13.27861118  312.68701172    4.90999985    1.66999996
   13.27916622  171.10200500    4.90999985    1.73000002
   13.28249931  109.59300232    4.90999985    1.80999994
   13.28555584   89.22460175    4.90999985    1.63000000
   13.28888893  152.19400024    4.90999985    1.61000001
   13.29222298  239.67799377    4.90999985    2.13000011
   13.29527855  190.72799683    4.90999985    1.88000000
   13.29861164  235.19500732    4.90999985    2.21000004
   13.30194473   -1.00000000    4.90999985    1.85000002
   13.30500031   -1.00000000    4.90999985    1.09000003
   13.30833340  108.32299805    4.90999985    1.39999998
   13.31138897  188.81700134    4.90999985    1.73000002
   13.31250000  265.51199341    4.90999985    1.73000002
   13.31750011  265.51199341    4.90999985    1.78999996
   13.32166672  350.08999634    4.90999985    1.46000004
   13.32472229   -1.00000000    4.90999985    1.53999996
   13.32805538   -1.00000000    4.90999985    1.38000000
   13.33111095   -1.00000000    4.90999985    1.28999996
   13.33444405   -1.00000000    4.90999985    0.88000000
   13.33777714  156.78500366    4.90999985    2.01999998
   13.34083271   -1.00000000   -1.00000000   -1.00000000
   13.34416676   -1.00000000    4.90999985    1.21000004
   13.34583282  108.04599762    4.90999985    1.39999998
   13.34777737  318.86499023    4.90999985    1.61000001
   13.35083389   91.96949768    4.90999985    1.44000006
   13.35416698   -1.00000000    4.90999985    1.44000006
   13.36027813   -1.00000000    4.90999985    0.86000001
   13.36444473  236.40299988    4.90999985    1.19000006
   13.36777782   -1.00000000    4.90999985    1.73000002
   13.37083340   -1.00000000    4.90999985    1.23000002
   13.37416649   -1.00000000    4.90999985    0.70999998
   13.37750053   -1.00000000    4.90999985    1.30999994
   13.38111115   -1.00000000    4.90999985    1.01999998
   13.38416672   -1.00000000    4.90999985    1.28999996
   13.38749981   -1.00000000    4.90999985    1.19000006
   13.39055538   -1.00000000    4.90999985    1.71000004
   13.39388847   -1.00000000    4.90999985    1.00000000
   13.39722252   -1.00000000    4.90999985    0.92000002
   13.40305519   -1.00000000    4.90999985    1.26999998
   13.40722179   29.72319984    4.90999985    1.23000002
   13.41055489   -1.00000000    4.90999985    1.66999996
   13.41416645  139.83000183    4.90999985    1.38000000
   13.41722298   -1.00000000    4.90999985    1.73000002
   13.42055607   -1.00000000    4.90999985    1.55999994
   13.42388916   23.57019997    4.90999985    1.55999994
   13.42694473   -1.00000000    4.90999985    1.60000002
   13.43027782   -1.00000000    4.90999985    1.50000000
   13.43333340  272.18301392    4.90999985    1.71000004
   13.43666649   65.30709839    4.90999985    1.63000000
   13.44000053  157.00599670    4.90999985    1.86000001
   13.44611073  157.00599670    4.90999985    2.05999994
   13.44999981  188.68400574    4.90999985    2.39000010
   13.45333290  158.12100220    4.90999985    2.25000000
   13.45666695  142.60000610    4.90999985    2.66000009
   13.45972157  136.56599426    4.63999987    2.50000000
   13.46305561  136.04499817    2.78999996    2.67000008
   13.46638870  142.95100403    2.13000011    2.64000010
   13.46944427  138.42399597    2.50000000    2.64000010
   13.47277737  133.43499756    1.58000004    2.64000010
   13.47583294  130.09800720    1.63000000    2.66000009
   13.47916603  133.98899841    1.69000006    2.64000010
   13.47972202  131.28500366    1.63000000    2.66000009
   13.48277760  132.69099426    2.64000010    2.66000009
   13.48888874  132.69099426    3.89000010    2.66000009
   13.49305534  140.41600037    4.90999985    2.48000002
   13.49611092  138.20399475    4.90999985    2.39000010
   13.49944496  149.49299622    4.90999985    2.40000010
   13.50277805  127.50099945    4.90999985    2.55999994
   13.50583363  140.49499512    4.90999985    2.71000004
   13.50916672  130.38600159    4.15999985    2.66000009
   13.51222229  133.25900269    4.90999985    2.67000008
   13.51277733  142.66700745    4.90999985    2.67000008
   13.51611137  139.40899658    4.53999996    2.64000010
   13.51944447  131.67799377    3.73000002    2.55999994
   13.52250004  148.83500671    3.68000007    2.64000010
   13.52583313  135.21899414    3.59999990    2.59999990
   13.53166676  135.21899414    2.39000010    2.67000008
   13.53583336  130.47399902    0.92000002    2.67000008
   13.53916740  129.89999390    0.40000001    2.67000008
   13.54222298  128.34500122    0.34000000    2.67000008
   13.54555607  133.52900696    0.34000000    2.67000008
   13.54611111  132.58299255    0.34000000    2.67000008
   13.54916668  127.96499634    0.34000000    2.67000008
   13.55222225  130.53599548    0.38000000    2.67000008
   13.55555534  130.38900757    0.38000000    2.66000009
   13.55888939  135.90199280    0.34000000    2.67000008
   13.56194496  132.24000549    0.34000000    2.67000008
   13.56527805  132.46699524    0.34000000    2.67000008
   13.56861115  133.41400146    0.34000000    2.66000009
   13.57444477  133.41400146    0.34000000    2.67000008
   13.57861137  134.70899963    0.34000000    2.67000008
   13.57944393  130.31900024    0.34000000    2.67000008
   13.58222198  133.49400330    0.34000000    2.67000008
   13.58555508  126.48500061    0.34000000    2.67000008
   13.58888817  132.55900574    0.34000000    2.67000008
   13.59194374  132.78599548    0.34000000    2.67000008
   13.59527779  127.94499969    0.34000000    2.67000008
   13.59833336  130.82800293    0.34000000    2.67000008
   13.60166740  133.27499390    0.34000000    2.67000008
   13.60500050  130.58900452    0.34000000    2.67000008
   13.60805607  130.52099609    0.34000000    2.67000008
   13.61138916  130.73500061    0.34000000    2.67000008
   13.61277771  134.55200195    0.31999999    2.67000008
   13.61750031  134.55200195    0.31999999    2.67000008
   13.62138939  132.86500549    0.31999999    2.67000008
   13.62472248  132.57400513    0.31999999    2.67000008
   13.62805557  135.67999268    0.31999999    2.69000006
   13.63111115  133.44500732    0.31999999    2.69000006
   13.63444424  133.03799438    0.31999999    2.67000008
   13.63777733  133.57899475    0.31999999    2.67000008
   13.64083290  133.33500671    0.31999999    2.69000006
   13.64416695  137.14500427    0.31999999    2.69000006
   13.64638901  139.91999817    0.34000000    2.67000008
   13.64777756  137.32400513    0.34000000    2.67000008
   13.65111065  138.53300476    0.31999999    2.69000006
   13.65444374  134.16400146    0.31999999    2.69000006
   13.66027737  134.16400146    0.31999999    2.69000006
   13.66444397  138.88000488    0.31999999    2.69000006
   13.66750050  136.76800537    0.31999999    2.69000006
   13.67083359  138.59500122    0.31999999    2.67000008
   13.67416668  134.15499878    0.31999999    2.67000008
   13.67722225  140.04800415    0.31999999    2.69000006
   13.67972279  135.98899841    0.31999999    2.69000006
   13.68111134  133.56599426    0.31999999    2.69000006
   13.68416691  133.22799683    0.31999999    2.69000006
   13.68750000  136.13400269    0.31999999    2.69000006
   13.69055557  137.47300720    0.34000000    2.67000008
   13.69388866  140.97999573    0.31999999    2.67000008
   13.69722271  137.50399780    0.31999999    2.69000006
   13.70305538  137.50399780    0.31999999    2.69000006
   13.70722198  133.62899780    0.34000000    2.69000006
   13.71027756  137.08599854    0.31999999    2.69000006
   13.71277714  136.38600159    0.34000000    2.69000006
   13.71388912  137.06399536    0.34000000    2.69000006
   13.71722221  141.67199707    0.34000000    2.69000006
   13.72027779  144.49200439    0.34000000    2.69000006
   13.72361088  142.33500671    0.34000000    2.69000006
   13.72666645  134.96899414    0.34000000    2.67000008
   13.72999954  137.92700195    0.34000000    2.69000006
   13.73333359  134.54200745    0.34000000    2.69000006
   13.73638916  140.77299500    0.31999999    2.69000006
   13.73972225  136.24499512    0.34000000    2.69000006
   13.74583340  136.24499512    0.34000000    2.69000006
   13.75000000  138.22500610    0.31999999    2.67000008
   13.75333309  136.90100098    0.31999999    2.69000006
   13.75666714  133.03399658    0.31999999    2.69000006
   13.75972176  134.03599548    0.31999999    2.71000004
   13.76305580  132.05499268    0.31999999    2.69000006
   13.76611137  136.64399719    0.31999999    2.69000006
   13.76944447  135.27900696    0.31999999    2.69000006
   13.77277756  136.89500427    0.31999999    2.67000008
   13.77583313  135.93299866    0.31999999    2.69000006
   13.77916622  135.11700439    0.31999999    2.71000004
   13.78083324  137.05000305    0.31999999    2.71000004
   13.78277779  132.99400330    0.31999999    2.69000006
   13.78888893  132.99400330    0.31999999    2.69000006
   13.79277802  136.13299561    0.31999999    2.69000006
   13.79611111  133.82800293    0.31999999    2.69000006
   13.79944515  134.89500427    0.31999999    2.69000006
   13.80249977  133.77799988    0.31999999    2.69000006
   13.80583382  126.33100128    0.31999999    2.69000006
   13.80888939  154.68200684    0.31999999    2.69000006
   13.81222248  138.40400696    0.31999999    2.69000006
   13.81416702  134.80200195    0.31999999    2.69000006
   13.81583309  156.59100342    0.31999999    2.71000004
   13.81916618  133.67799377    0.31999999    2.71000004
   13.82250023  134.50000000    0.31999999    2.71000004
   13.82555580  132.51100159    0.31999999    2.71000004
   13.83166695  132.51100159    0.31999999    2.69000006
   13.83583260  145.64700317    0.31999999    2.69000006
   13.83888817  136.94900513    0.31999999    2.69000006
   13.84222221  136.01800537    0.31999999    2.69000006
   13.84527779  132.76100159    0.31999999    2.71000004
   13.84777737  137.79899597    0.31999999    2.69000006
   13.84916592  132.21000671    0.31999999    2.69000006
   13.85222244  130.61099243    0.31999999    2.69000006
   13.85555553  143.15600586    0.31999999    2.69000006
   13.85861111  140.75999451    0.31999999    2.69000006
   13.86194515  135.78300476    0.31999999    2.71000004
   13.86527824  133.07800293    0.31999999    2.71000004
   13.86833382  139.89999390    0.31999999    2.69000006
   13.87444496  139.89999390    0.31999999    2.69000006
   13.87861156  132.59300232    0.31999999    2.69000006
   13.88111115  143.52499390    0.31999999    2.69000006
   13.88222218  138.63600159    0.31999999    2.69000006
   13.88527775  134.72099304    0.31999999    2.71000004
   13.88861084  139.96499634    0.31999999    2.69000006
   13.89194393  139.71299744    0.31999999    2.71000004
   13.89499950  138.15499878    0.30000001    2.71000004
   13.89833355  134.78399658    0.30000001    2.71000004
   13.90166664  142.22099304    0.31999999    2.73000002
   13.90472221  137.77099609    0.31999999    2.71000004
   13.90805531  147.87199402    0.30000001    2.71000004
   13.91111088  137.93200684    0.31999999    2.71000004
   13.91722298  137.93200684    0.30000001    2.71000004
   13.92138958  136.64599609    0.31999999    2.71000004
   13.92472267  140.56399536    0.30000001    2.71000004
   13.92777824  136.23500061    0.30000001    2.71000004
   13.93111134  137.96499634    0.30000001    2.71000004
   13.93444443  137.75999451    0.31999999    2.71000004
   13.93777752  145.94299316    0.31999999    2.71000004
   13.94083309  135.79800415    0.31999999    2.71000004
   13.94416714  134.74299622    0.31999999    2.71000004
   13.94722271  138.05499268    0.31999999    2.73000002
   13.94833374  136.91400146    0.31999999    2.73000002
   13.95083332  140.67300415    0.31999999    2.71000004
   13.95416641  131.29699707    0.31999999    2.71000004
   13.96000004  131.29699707    0.30000001    2.71000004
   13.96416664  132.55099487    0.30000001    2.71000004
   13.96749973  134.13000488    0.30000001    2.71000004
   13.97083282  135.75399780    0.31999999    2.71000004
   13.97388840  134.79699707    0.30000001    2.69000006
   13.97722149  133.12699890    0.30000001    2.71000004
   13.98055553  132.46000671    0.30000001    2.71000004
   13.98166656  130.83500671    0.30000001    2.69000006
   13.98388958  135.91000366    0.30000001    2.69000006
   13.98722267  143.79499817    0.30000001    2.71000004
   13.99055576  132.01199341    0.30000001    2.73000002
   13.99361134  135.74400330    0.30000001    2.71000004
   13.99694443  139.44299316    0.30000001    2.71000004
   14.00305557  139.44299316    0.30000001    2.71000004
   14.00722218  141.41600037    0.30000001    2.71000004
   14.01027775  136.33399963    0.30000001    2.71000004
   14.01361084  136.58700562    0.30000001    2.71000004
   14.01500034  137.69000244    0.31999999    2.71000004
   14.01722240  134.02900696    0.31999999    2.71000004
   14.02055550  135.80000305    0.31999999    2.71000004
   14.02361107  137.82400513    0.30000001    2.71000004
   14.02694416  138.46800232    0.30000001    2.71000004
   14.03027725  134.93299866    0.30000001    2.73000002
   14.03333378  134.64999390    0.31999999    2.71000004
   14.03666687  137.22399902    0.30000001    2.73000002
   14.03972244  135.32099915    0.30000001    2.73000002
   14.04583359  135.32099915    0.30000001    2.71000004
   14.06416702  132.48199463    0.30000001    2.71000004
   14.06750011  130.44799805    0.30000001    2.71000004
   14.07083321  129.03399658    0.30000001    2.71000004
   14.07388878  134.22700500    0.30000001    2.71000004
   14.07722187  131.92999268    0.30000001    2.71000004
   14.08027744  132.60200500    0.30000001    2.71000004
   14.08361053  131.97399902    0.30000001    2.73000002
   14.08888817  131.97399902    0.30000001    2.73000002
   14.09305477  138.16700745    0.30000001    2.73000002
   14.09611034  135.93800354    0.31999999    2.71000004
   14.09722233  135.33099365    0.31999999    2.71000004
   14.10000038  147.39599609    0.31999999    2.71000004
   14.10305595  136.38400269    0.30000001    2.71000004
   14.10638905  135.48800659    0.31999999    2.71000004
   14.10972214  134.80700684    0.31999999    2.71000004
   14.11277771  137.64300537    0.31999999    2.73000002
   14.11611176  137.94599915    0.36000001    2.73000002
   14.11944485  137.54600525    0.31999999    2.71000004
   14.12250042  159.00599670    0.31999999    2.71000004
   14.12583351  128.46200562    0.31999999    2.71000004
   14.13166714  128.46200562    0.30000001    2.71000004
   14.13583279  134.44700623    0.30000001    2.73000002
   14.13916683  132.29400635    0.31999999    2.73000002
   14.14222240  132.74000549    0.30000001    2.71000004
   14.14555550  132.41400146    0.30000001    2.73000002
   14.14888859  130.81900024    0.30000001    2.71000004
   14.15194416  131.03900146    0.30000001    2.75000000
   14.15527725  130.07699585    0.31999999    2.71000004
   14.15833282  131.72500610    0.31999999    2.71000004
   14.16166592  133.02799988    0.30000001    2.73000002
   14.16388893  132.87800598    0.30000001    2.71000004
   14.16527748  137.14199829    0.30000001    2.71000004
   14.16833401  134.81700134    0.30000001    2.71000004
   14.17472267  134.81700134    0.30000001    2.73000002
   14.17861176  133.27499390    0.30000001    2.71000004
   14.18194485  134.32699585    0.30000001    2.73000002
   14.18527794  136.63600159    0.30000001    2.73000002
   14.18833351  135.73800659    0.31999999    2.71000004
   14.19166660  132.88400269    0.31999999    2.71000004
   14.19472218  131.42199707    0.30000001    2.73000002
   14.19722271  133.87500000    0.30000001    2.73000002
   14.19861126  138.13400269    0.30000001    2.73000002
   14.20166683  133.75700378    0.31999999    2.71000004
   14.20499992  135.02699280    0.31999999    2.71000004
   14.20833302  131.78700256    0.31999999    2.73000002
   14.21138859  139.69999695    0.31999999    2.71000004
   14.21749973  139.69999695    0.31999999    2.73000002
   14.22166634  130.04200745    0.31999999    2.73000002
   14.22472191  144.50300598    0.31999999    2.73000002
   14.22805500  138.03399658    0.31999999    2.71000004
   14.23055553  132.17599487    0.30000001    2.75000000
   14.23166656  132.42999268    0.30000001    2.75000000
   14.23472214  133.46800232    0.30000001    2.71000004
   14.23805618  132.91400146    0.30000001    2.71000004
   14.24138927  133.23800659    0.31999999    2.71000004
   14.24444485  136.47799683    0.31999999    2.73000002
   14.24777794  136.11799622    0.31999999    2.73000002
   14.25083351  130.47799683    0.30000001    2.73000002
   14.25416660  132.81900024    0.30000001    2.73000002
   14.26027775  132.81900024    0.30000001    2.71000004
   14.26444435  134.60400391    0.31999999    2.73000002
   14.26749992  138.23199463    0.30000001    2.73000002
   14.27083302  137.47999573    0.30000001    2.73000002
   14.27416611  136.57099915    0.30000001    2.75000000
   14.27722168  139.86500549    0.30000001    2.73000002
   14.28055573  137.42599487    0.30000001    2.73000002
   14.28388977  136.98599243    0.30000001    2.73000002
   14.28694534  138.65499878    0.30000001    2.73000002
   14.29027843  138.33299255    0.30000001    2.75000000
   14.29361153  129.84300232    0.31999999    2.73000002
   14.29666710  132.40400696    0.31999999    2.75000000
   14.29722309  135.81900024    0.30000001    2.73000002
   14.30305576  135.81900024    0.30000001    2.73000002
   14.30722237  134.43200684    0.30000001    2.75000000
   14.31055546  132.45799255    0.31999999    2.73000002
   14.31361103  135.81599426    0.31999999    2.73000002
   14.31694412  128.83799744    0.30000001    2.75000000
   14.32027817  133.89399719    0.31999999    2.73000002
   14.32333374  130.37899780    0.31999999    2.73000002
   14.32666683  134.72599792    0.31999999    2.73000002
   14.32972240  134.82099915    0.34000000    2.73000002
   14.33055592  139.92599487    0.34000000    2.73000002
   14.33333302  131.91600037    0.47999999    2.75000000
   14.33666611  131.72500610    0.31999999    2.75000000
   14.33972168  135.11399841    0.31999999    2.75000000
   14.34583282  135.11399841    0.31999999    2.73000002
   14.35000038  133.65499878    0.31999999    2.75000000
   14.35333347  134.14599609    0.31999999    2.73000002
   14.35666752  132.88299561    0.31999999    2.73000002
   14.35972214  137.18099976    0.30000001    2.73000002
   14.36305618  133.73899841    0.30000001    2.73000002
   14.36388969  130.16099548    0.30000001    2.73000002
   14.36666679  135.85000610    0.30000001    2.75000000
   14.36999989  132.29400635    0.30000001    2.75000000
   14.37305546  135.20199585    0.30000001    2.73000002
   14.37638855  133.48699951    0.30000001    2.73000002
   14.37972260  132.74699402    0.30000001    2.73000002
   14.38277817  129.60600281    0.30000001    2.73000002
   14.38888836  129.60600281    0.30000001    2.75000000
   14.39305496  132.80900574    0.30000001    2.73000002
   14.39611053  132.42300415    0.30000001    2.73000002
   14.39722252  130.54100037    0.30000001    2.73000002
   14.39972210  129.66499329    0.30000001    2.73000002
   14.40305519  130.07099915    0.30000001    2.75000000
   14.40611076  129.91600037    0.30000001    2.73000002
   14.40944386  130.43200684    0.30000001    2.75000000
   14.41277695  130.58500671    0.30000001    2.75000000
   14.41583252  131.57800293    0.30000001    2.75000000
   14.41916656  135.13400269    0.30000001    2.75000000
   14.42222214  134.12699890    0.30000001    2.73000002
   14.42555618  134.68299866    0.30000001    2.71000004
   14.43166733  134.68299866    0.30000001    2.73000002
   14.43583298  132.27299500    0.30000001    2.71000004
   14.43888855  132.90400696    0.30000001    2.75000000
   14.44222260  135.08700562    0.30000001    2.75000000
   14.44555569  135.55999756    0.30000001    2.75000000
   14.44861126  135.72599792    0.30000001    2.75000000
   14.45194435  133.15699768    0.30000001    2.75000000
   14.45527744  138.65800476    0.30000001    2.75000000
   14.45833302  133.02200317    0.30000001    2.73000002
   14.46166611  134.68299866    0.30000001    2.75000000
   14.46388912  134.28500366    0.30000001    2.75000000
   14.46527767  133.73300171    0.28000000    2.75000000
   14.46861076  133.51199341    0.28000000    2.75000000
   14.47444439  133.51199341    0.28000000    2.75000000
   14.47861099  130.22599792    0.28000000    2.73000002
   14.48194408  136.77200317    0.28000000    2.75000000
   14.48500061  135.80700684    0.28000000    2.73000002
   14.48833370  132.12800598    0.30000001    2.75000000
   14.49166679  135.31100464    0.28000000    2.75000000
   14.49472237  135.05299377    0.30000001    2.75000000
   14.49722290  133.82200623    0.30000001    2.75000000
   14.49833393  138.01600647    0.28000000    2.73000002
   14.50166702  134.68699646    0.28000000    2.73000002
   14.50472260  133.11199951    0.30000001    2.75000000
   14.50805569  137.90800476    0.28000000    2.75000000
   14.51111126  133.01199341    0.28000000    2.75000000
   14.51749992  133.01199341    0.28000000    2.73000002
   14.52138901  137.06199646    0.28000000    2.73000002
   14.52472210  132.71099854    0.30000001    2.75000000
   14.52805519  137.26199341    0.30000001    2.73000002
   14.53055573  132.69999695    0.30000001    2.73000002
   14.53166676  138.82000732    0.30000001    2.73000002
   14.53500080  137.68400574    0.30000001    2.75000000
   14.53805637  136.72200012    0.28000000    2.73000002
   14.54138947  137.17399597    0.28000000    2.73000002
   14.54444504  132.18200684    0.30000001    2.75000000
   14.54777813  132.19999695    0.30000001    2.75000000
   14.55111122  136.32899475    0.30000001    2.75000000
   14.55416679  131.85800171    0.30000001    2.75000000
   14.56027794  131.85800171    0.30000001    2.75000000
   14.56444454  133.66999817    0.30000001    2.75000000
   14.56750011  133.48100281    0.28000000    2.75000000
   14.57083321  134.64999390    0.28000000    2.75000000
   14.57388878  139.36500549    0.30000001    2.75000000
   14.57722187  135.38999939    0.28000000    2.73000002
   14.58055592  135.05200195    0.30000001    2.75000000
   14.58361053  139.64799500    0.28000000    2.73000002
   14.58694458  134.35600281    0.28000000    2.73000002
   14.59027767  134.85699463    0.28000000    2.75000000
   14.59333324  137.11999512    0.28000000    2.75000000
   14.59666634  138.41099548    0.28000000    2.73000002
   14.59722233  137.10099792    0.28000000    2.73000002
   14.60305595  137.10099792    0.28000000    2.73000002
   14.60722256  134.69599915    0.28000000    2.75000000
   14.61027813  140.33599854    0.28000000    2.75000000
   14.61361122  137.17700195    0.30000001    2.75000000
   14.61694431  138.04200745    0.30000001    2.75000000
   14.62027836  136.94099426    0.28000000    2.75000000
   14.62333393  135.00199890    0.28000000    2.75000000
   14.62666702  136.81799316    0.30000001    2.75000000
   14.62972260  131.63499451    0.28000000    2.75000000
   14.63055611  133.13499451    0.28000000    2.75000000
   14.63333321  136.06300354    0.30000001    2.76999998
   14.63666630  132.32200623    0.28000000    2.75000000
   14.63972187  135.36399841    0.28000000    2.75000000
   14.64583302  135.36399841    0.28000000    2.75000000
   14.64999962  134.31700134    0.30000001    2.75000000
   14.65333271  137.49800110    0.28000000    2.75000000
   14.65638828  138.11000061    0.28000000    2.76999998
   14.65972137  134.65400696    0.28000000    2.75000000
   14.66305542  143.30499268    0.30000001    2.75000000
   14.66388893  134.28599548    0.30000001    2.75000000
   14.66638851  140.45399475    0.30000001    2.73000002
   14.66972256  138.47500610    0.30000001    2.75000000
   14.67333412  137.07400513    0.30000001    2.75000000
   14.67638874  139.52799988    0.31999999    2.75000000
   14.67972279  138.23800659    0.30000001    2.75000000
   14.68305588  134.56199646    0.30000001    2.75000000
   14.68861103  134.56199646    0.30000001    2.75000000
   14.69277763  134.41099548    0.30000001    2.75000000
   14.69611073  134.42399597    0.30000001    2.75000000
   14.69722271  138.89300537    0.30000001    2.75000000
   14.69972229  138.99299622    0.30000001    2.75000000
   14.70305538  132.48800659    0.30000001    2.75000000
   14.70638847  138.57800293    0.28000000    2.76999998
   14.70944405  138.65100098    0.28000000    2.75000000
   14.71277714  137.79699707    0.28000000    2.76999998
   14.71583271  132.20799255    0.28000000    2.76999998
   14.71916580  135.27799988    0.28000000    2.76999998
   14.72249985  127.22200012    0.28000000    2.75000000
   14.72555542  140.83000183    0.28000000    2.75000000
   14.73166656  140.83000183    0.30000001    2.75000000
   14.73583317  136.71499634    0.28000000    2.76999998
   14.73888874  134.88999939    0.30000001    2.75000000
   14.74222279  138.45399475    0.30000001    2.75000000
   14.74527836  139.15199280    0.30000001    2.76999998
   14.74861145  135.71800232    0.30000001    2.76999998
   14.75194454  130.88299561    0.30000001    2.76999998
   14.75500011  138.36000061    0.28000000    2.76999998
   14.75833321  137.09899902    0.30000001    2.76999998
   14.76166630  134.37199402    0.28000000    2.75000000
   14.76416683  137.66700745    0.34000000    2.75000000
   14.76500034  140.53399658    0.34000000    2.75000000
   14.76833344  143.60600281    0.30000001    2.75000000
   14.77444458  143.60600281    0.30000001    2.75000000
   14.77861118  136.96000671    0.30000001    2.76999998
   14.78166676  135.70300293    0.30000001    2.76999998
   14.78500080  140.63999939    0.30000001    2.75000000
   14.78833389  141.96800232    0.31999999    2.75000000
   14.79166698  136.12500000    0.31999999    2.75000000
   14.79472256  137.80299377    0.30000001    2.75000000
   14.79750061  135.27499390    0.31999999    2.75000000
   14.79833412  134.03799438    0.31999999    2.75000000
   14.80166721  136.85899353    0.30000001    2.75000000
   14.80472279  144.35800171    0.30000001    2.75000000
   14.80805588  136.43899536    0.30000001    2.75000000
   14.81138897  140.54800415    0.30000001    2.75000000
   14.81722260  140.54800415    0.30000001    2.76999998
   14.82138920  140.60699463    0.30000001    2.75000000
   14.82472229  139.98699951    0.30000001    2.76999998
   14.82777786  142.31300354    0.30000001    2.75000000
   14.83083344  138.01699829    0.30000001    2.75000000
   14.83138847  135.23100281    0.30000001    2.75000000
   14.83472157  137.18699646    0.34000000    2.75000000
   14.83777714  135.18499756    0.40000001    2.75000000
   14.84111118  134.43699646    0.40000001    2.75000000
   14.84444427  138.03900146    0.38000000    2.75000000
   14.84749985  136.05400085    0.41999999    2.75000000
   14.85083389  140.78599548    0.46000001    2.75000000
   14.85416698  138.42999268    0.34000000    2.75000000
   14.86027813  138.42999268    0.31999999    2.76999998
   14.86416721  138.89799500    0.31999999    2.76999998
   14.86750031  140.44999695    0.31999999    2.76999998
   14.87083340  138.90199280    0.31999999    2.75000000
   14.87388897  134.05900574    0.31999999    2.75000000
   14.87722206  135.51199341    0.31999999    2.75000000
   14.88055611  141.94700623    0.34000000    2.76999998
   14.88361073  139.11999512    0.34000000    2.75000000
   14.88694477  127.11499786    0.36000001    2.76999998
   14.89000034  141.14900208    0.34000000    2.75000000
   14.89333344  137.44000244    0.34000000    2.75000000
   14.89666653  135.15800476    0.34000000    2.75000000
   14.89750004  137.74400330    0.34000000    2.75000000
   14.90305519  137.74400330    0.31999999    2.75000000
   14.90722179  139.82699585    0.31999999    2.75000000
   14.91027737  132.43200684    0.34000000    2.75000000
   14.91361046  130.25300598    0.34000000    2.76999998
   14.91666698  129.32000732    0.34000000    2.76999998
   14.92000008  136.50000000    0.34000000    2.76999998
   14.92333412  134.81799316    0.36000001    2.76999998
   14.92638874  136.62300110    0.40000001    2.75000000
   14.92972279  142.06399536    0.40000001    2.75000000
   14.93083382  137.78199768    0.40000001    2.76999998
   14.93333340  138.97999573    0.40000001    2.76999998
   14.93694496  138.94900513    0.38000000    2.76999998
   14.94000053  137.57400513    0.40000001    2.75000000
   14.94583321  137.57400513    0.36000001    2.76999998
   14.94999981  135.67100525    0.36000001    2.75000000
   14.95333290  134.43600464    0.36000001    2.75000000
   14.95638847  138.81599426    0.36000001    2.75000000
   14.95972157  131.83000183    0.36000001    2.75000000
   14.96305561  135.25399780    0.36000001    2.75000000
   14.96416664  135.55200195    0.36000001    2.75000000
   14.96638870  140.19500732    0.36000001    2.75000000
   14.96972179  139.80499268    0.36000001    2.75000000
   14.97305489  141.23500061    0.36000001    2.75000000
   14.97611046  138.28500366    0.31999999    2.76999998
   14.97944355  141.56599426    0.31999999    2.76999998
   14.98249912  140.17999268    0.34000000    2.76999998
   14.98861122  140.17999268    0.34000000    2.75000000
   14.99277782  136.56300354    0.34000000    2.76999998
   14.99611092  144.59199524    0.31999999    2.75000000
   14.99750042  140.58399963    0.31999999    2.75000000
   14.99944496  139.05700684    0.34000000    2.75000000
   15.00277805  135.47700500    0.34000000    2.76999998
   15.00583363  137.22099304    0.34000000    2.76999998
   15.00916672  134.99400330    0.31999999    2.75000000
   15.01249981  136.79499817    0.34000000    2.76999998
   15.01555538  137.75599670    0.34000000    2.76999998
   15.01888847  143.60000610    0.34000000    2.76999998
   15.02222157  137.48699951    0.34000000    2.76999998
   15.02527714  135.47200012    0.40000001    2.76999998
   15.03138828  135.47200012    0.36000001    2.75000000
   15.03555584  137.76600647    0.36000001    2.76999998
   15.03888893  138.80700684    0.34000000    2.75000000
   15.04194450  134.84199524    0.36000001    2.76999998
   15.04527855  135.72599792    0.36000001    2.76999998
   15.04861164  130.87500000    0.47999999    2.76999998
   15.05166721  136.98699951    0.64999998    2.75000000
   15.05500031  135.89100647    0.64999998    2.75000000
   15.05833340  133.27999878    0.69000000    2.75000000
   15.06138897  133.39900208    0.75000000    2.75000000
   15.06416702  139.56100464    0.52999997    2.75000000
   15.08472157  139.56100464    0.41999999    2.75000000
   15.08888817  132.88200378    0.40000001    2.76999998
   15.09194374  134.83099365    0.36000001    2.76999998
   15.09527779  128.43899536    0.38000000    2.76999998
   15.09749985  128.10000610    0.38000000    2.76999998
   15.09888840  133.25500488    0.40000001    2.76999998
   15.10222244  132.61700439    0.41999999    2.76999998
   15.10555553  131.47799683    0.41999999    2.76999998
   15.10861111  135.89599609    0.40000001    2.76999998
   15.11194515  131.55299377    0.46000001    2.73000002
   15.11500072  130.22999573    0.47999999    2.75000000
   15.11833382  132.83700562    0.51999998    2.76999998
   15.12166691  137.60800171    0.52999997    2.75000000
   15.12750053  137.60800171    0.50000000    2.76999998
   15.13166714  139.63800049    0.47999999    2.75000000
   15.13472176  134.46600342    0.46000001    2.75000000
   15.13805580  139.24099731    0.46000001    2.75000000
   15.14111137  134.16499329    0.44000000    2.76999998
   15.14444447  136.49200439    0.41999999    2.75000000
   15.14777756  138.70799255    0.51999998    2.75000000
   15.15083313  138.27900696    0.55000001    2.76999998
   15.15416622  135.48500061    0.67000002    2.75000000
   15.15749931  136.03500366    0.63000000    2.75000000
   15.16055489  135.08399963    0.70999998    2.75000000
   15.16388893  136.91000366    0.70999998    2.75000000
   15.16444397  132.16700745    0.70999998    2.75000000
   15.17027855  132.16700745    0.73000002    2.75000000
   15.17444515  130.19599915    0.75000000    2.75000000
   15.17777824  134.83900452    1.30999994    2.73000002
   15.18083382  133.36199951    1.94000006    2.75000000
   15.18416691  130.95599365    1.58000004    2.76999998
   15.18722248  134.87100220    1.44000006    2.75000000
   15.19055557  134.33099365    2.80999994    2.75000000
   15.19388866  134.12899780    2.21000004    2.73000002
   15.19694424  135.98399353    1.69000006    2.73000002
   15.19777775  137.61900330    1.69000006    2.73000002
   15.20055580  139.29499817    1.16999996    2.73000002
   15.20388889  138.81500244    1.11000001    2.75000000
   15.20722198  141.63499451    1.07000005    2.73000002
   15.21305561  141.63499451    0.88000000    2.75000000
   15.21722221  134.60200500    0.73000002    2.76999998
   15.22055531  135.05900574    0.70999998    2.75000000
   15.22361088  139.00999451    0.64999998    2.75000000
   15.22694397  131.70199585    0.63000000    2.76999998
   15.23027706  134.24099731    0.63000000    2.75000000
   15.23111057  135.33200073    0.63000000    2.75000000
   15.23361111  134.79400635    0.64999998    2.76999998
   15.23694515  132.79499817    0.63000000    2.75000000
   15.24000072  127.54199982    0.63000000    2.75000000
   15.24333382  131.53399658    0.61000001    2.75000000
   15.24666691  132.21600342    0.56999999    2.76999998
   15.24972248  135.91200256    0.56999999    2.76999998
   15.25583363  135.91200256    0.64999998    2.75000000
   15.26000023  137.07899475    0.64999998    2.75000000
   15.26333332  133.15800476    0.64999998    2.75000000
   15.26444435  135.40899658    0.64999998    2.75000000
   15.26694393  130.77699280    0.64999998    2.75000000
   15.27027798  129.43200684    0.64999998    2.75000000
   15.27361107  133.31199646    0.70999998    2.75000000
   15.27666664  134.35099792    0.50000000    2.76999998
   15.27999973  136.37699890    0.46000001    2.76999998
   15.28305531  131.81900024    0.50000000    2.76999998
   15.28638935  128.16200256    0.56999999    2.76999998
   15.28972244  136.74200439    0.76999998    2.76999998
   15.29277802  137.08000183    0.79000002    2.78999996
   15.29888916  137.08000183    0.61000001    2.76999998
   15.30305576  137.12800598    0.64999998    2.76999998
   15.30611134  129.59800720    0.75000000    2.75000000
   15.30944443  133.33700562    0.70999998    2.75000000
   15.31250000  132.58700562    0.50000000    2.76999998
   15.31583309  135.40299988    0.38000000    2.76999998
   15.31916618  136.92300415    0.38000000    2.76999998
   15.32222176  140.51800537    0.38000000    2.76999998
   15.32555580  135.10000610    0.38000000    2.78999996
   15.32888889  130.16099548    0.38000000    2.78999996
   15.33111095  129.66200256    0.38000000    2.78999996
   15.33222198  129.88600159    0.40000001    2.76999998
   15.33555508  127.89700317    0.38000000    2.76999998
   15.34166622  127.89700317    0.38000000    2.76999998
   15.34583282  128.69599915    0.46000001    2.76999998
   15.45138836   -1.00000000   -1.00000000   -1.00000000
   15.56750011   -1.00000000   -1.00000000   -1.00000000
   15.67750072   -1.00000000   -1.00000000   -1.00000000
   15.71527767  139.53799438    0.36000001    2.76999998
   15.71861076  139.83099365    0.38000000    2.76999998
   15.72166634  141.70599365    0.36000001    2.76999998
   15.72499943  137.64199829    0.36000001    2.78999996
   15.72805500  136.05700684    0.36000001    2.78999996
   15.73138809  133.28900146    0.38000000    2.78999996
   15.73555565  133.28900146    0.51999998    2.78999996
   15.73972225  130.80999756    0.36000001    2.78999996
   15.74277782  142.44099426    0.38000000    2.78999996
   15.74611092  131.90199280    0.36000001    2.76999998
   15.74861145  138.23899841    0.36000001    2.76999998
   15.74972248  135.94599915    0.36000001    2.76999998
   15.75305557  136.06199646    0.38000000    2.78999996
   15.75611115  140.15899658    0.38000000    2.76999998
   15.75944424  132.25500488    0.40000001    2.76999998
   15.76277733  141.23199463    0.40000001    2.76999998
   15.76583290  136.94500732    0.38000000    2.78999996
   15.76916599  139.99400330    0.38000000    2.76999998
   15.77250004  138.57400513    0.38000000    2.78999996
   15.77833271  138.57400513    0.81999999    2.76999998
   15.78249931  138.45100403    0.86000001    2.75000000
   15.78583336  132.43499756    1.05999994    2.75000000
   15.78888893  137.60400391    1.91999996    2.75000000
   15.79222298  137.12500000    1.66999996    2.75000000
   15.79555607  138.35600281    1.58000004    2.76999998
   15.79861164  133.35800171    1.09000003    2.78999996
   15.80194473  138.17399597    0.64999998    2.76999998
   15.80527782  134.41999817    0.67000002    2.76999998
   15.80833340  139.66900635    0.69000000    2.78999996
   15.81166649  134.52499390    0.69000000    2.78999996
   15.81472206  134.56799316    0.75000000    2.78999996
   15.81527805  136.35400391    0.75000000    2.78999996
   15.82111073  136.35400391    0.44000000    2.76999998
   15.82527733  135.24299622    0.41999999    2.76999998
   15.82861137  143.83500671    0.41999999    2.76999998
   15.83166695  143.12800598    0.41999999    2.76999998
   15.83500004  143.42500305    0.41999999    2.76999998
   15.83833313  137.18099976    0.44000000    2.76999998
   15.84138870  135.83299255    0.44000000    2.78999996
   15.84472179  136.58900452    0.44000000    2.78999996
   15.84805489  137.23800659    0.41999999    2.78999996
   15.84861088  131.55400085    0.44000000    2.78999996
   15.85166740  134.77999878    0.44000000    2.78999996
   15.85472298  134.26600647    0.44000000    2.76999998
   15.85805607  137.92999268    0.41999999    2.76999998
   15.86416721  137.92999268    0.41999999    2.78999996
   15.86805534  139.14500427    0.41999999    2.76999998
   15.87138939  133.65199280    0.41999999    2.78999996
   15.87472248  139.17500305    0.41999999    2.78999996
   15.87777805  136.85600281    0.41999999    2.78999996
   15.88111115  134.59800720    0.41999999    2.78999996
   15.88194466  134.45799255    0.41999999    2.76999998
   15.88472176  136.29100037    0.41999999    2.76999998
   15.88805580  134.67100525    0.41999999    2.78999996
   15.89111137  137.51100159    0.41999999    2.78999996
   15.89444447  135.94200134    0.41999999    2.78999996
   15.89750004  133.72300720    0.41999999    2.76999998
   15.90083313  136.67399597    0.41999999    2.76999998
   15.90694427  136.67399597    0.47999999    2.78999996
   15.91111088  134.18600464    0.63000000    2.78999996
   15.91416645  138.59100342    0.63000000    2.78999996
   15.91527748  138.67999268    0.51999998    2.78999996
   15.91777802  137.09899902    0.51999998    2.78999996
   15.92111111  138.42599487    0.40000001    2.78999996
   15.92416668  140.88900757    0.40000001    2.78999996
   15.92750072  136.46499634    0.40000001    2.78999996
   15.93055630  139.08000183    0.40000001    2.78999996
   15.93388939  140.46600342    0.40000001    2.78999996
   15.93722248  138.07699585    0.40000001    2.78999996
   15.94027805  139.93499756    0.41999999    2.78999996
   15.94361115  143.77499390    0.41999999    2.78999996
   15.94972229  143.77499390    1.25000000    2.76999998
   15.95388889  145.80599976    2.36999989    2.71000004
   15.95694447  136.18499756    3.89000010    2.69000006
   15.96027756  137.31599426    3.50000000    2.71000004
   15.96361065  137.53999329    3.57999992    2.71000004
   15.96666622  133.76600647    4.84999990    2.67000008
   15.96999931  135.31500244    4.90999985    2.66000009
   15.97333336  136.25500488    4.90999985    2.67000008
   15.97638798  137.73899841    4.40999985    2.67000008
   15.97972202  138.40699768    4.28999996    2.73000002
   15.98194408  140.10499573    3.23000002    2.71000004
   15.98333359  140.06900024    3.05999994    2.75000000
   15.98666668  118.23300171    4.90999985    2.78999996
   15.99666691  135.46600342    4.90999985    1.36000001
   16.00000000  131.71299744    4.90999985    2.86999989
   16.00305557  137.24800110    4.90999985    1.86000001
   16.00638962  169.12800598    4.90999985    2.78999996
   16.00944519  134.08299255    4.90999985    1.94000006
   16.01277733  142.09399414    4.90999985    2.71000004
   16.01527786  132.41099548    4.53999996    2.67000008
   16.01638794  138.24600220    4.44999981    2.59999990
   16.01972198  137.23800659    4.71999979    2.64000010
   16.02277756  133.93400574    4.90999985    2.71000004
   16.02611160  140.56700134    4.90999985    2.71000004
   16.02916718  142.33799744    4.71999979    2.75000000
   16.03527641  142.33799744    4.90999985    2.51999998
   16.03944397  136.84199524    3.39000010    2.69000006
   16.04277802  136.01300049    0.86000001    2.76999998
   16.04611015  139.55400085    0.61000001    2.76999998
   16.04861069  133.68800354    0.56999999    2.76999998
   16.04972076  136.65100098    0.52999997    2.76999998
   16.05305481  135.44900513    0.75000000    2.75000000
   16.05611038  137.19099426    0.76999998    2.76999998
   16.05944443  135.15899658    0.58999997    2.76999998
   16.06250000  136.54299927    0.58999997    2.76999998
   16.06583214  137.12399292    0.61000001    2.76999998
   16.06916809  136.56399536    0.70999998    2.78999996
   16.07222366  138.49499512    0.79000002    2.76999998
   16.07833481  138.49499512    0.80000001    2.76999998
   16.08250046  139.80299377    0.75000000    2.78999996
   16.08555603  138.46800232    0.61000001    2.76999998
   16.08889008  137.25900269    0.56999999    2.76999998
   16.09194565  141.11000061    1.05999994    2.78999996
   16.09527779  141.16000366    4.90999985    2.80999994
   16.09861183  133.35600281    2.03999996    2.80999994
   16.10166740   -1.00000000    4.90999985    2.80999994
   16.10499954  112.22599792    4.90999985    0.44000000
   16.10805511   -1.00000000    4.90999985    2.00000000
   16.11138916   -1.00000000    4.90999985    0.25999999
   16.11472321   -1.00000000    4.90999985    0.36000001
   16.12111092   -1.00000000    4.90999985    1.39999998
   16.12527847  144.17500305    4.90999985    2.82999992
   16.12833405  147.75000000    4.90999985    2.64000010
   16.13166618  143.49099731    4.90999985    2.73000002
   16.13500023  140.52499390    4.90999985    2.73000002
   16.13805580  143.73100281    4.40999985    2.78999996
   16.14138794  139.96000671    1.88000000    2.75000000
   16.14472198  141.08200073    1.00000000    2.76999998
   16.14777756  134.34800720    0.80000001    2.76999998
   16.14861107  139.47000122    0.75000000    2.76999998
   16.15138817  138.11099243    0.61000001    2.76999998
   16.15472221  134.78999329    0.69000000    2.76999998
   16.15777779  138.08000183    0.67000002    2.76999998
   16.16388893  138.08000183    0.67000002    2.76999998
   16.16805458  132.25900269    0.52999997    2.78999996
   16.17138863  139.48399353    0.52999997    2.76999998
   16.17444420  134.84500122    0.51999998    2.78999996
   16.17777634  131.20899963    0.52999997    2.78999996
   16.18111038  137.86000061    0.51999998    2.78999996
   16.18194389  135.43800354    0.51999998    2.78999996
   16.18472099  136.95100403    0.52999997    2.78999996
   16.18805504  131.86199951    0.52999997    2.78999996
   16.19111061  135.01400757    0.52999997    2.78999996
   16.19444275  135.61799622    0.51999998    2.76999998
   16.19749832  130.11300659    0.52999997    2.78999996
   16.20083427  127.15200043    0.56999999    2.76999998
   16.20694542  127.15200043    0.51999998    2.78999996
   16.21111107  133.80700684    0.50000000    2.78999996
   16.21416664  129.21400452    0.50000000    2.78999996
   16.21527863  135.74899292    0.50000000    2.76999998
   16.21777916  136.17100525    0.50000000    2.76999998
   16.22111130  136.89500427    0.47999999    2.78999996
   16.22416687  132.08599854    0.52999997    2.76999998
   16.22750092  136.91400146    0.55000001    2.78999996
   16.23083305  135.03599548    0.55000001    2.76999998
   16.23388863  133.08399963    0.50000000    2.76999998
   16.23722267  136.66700745    0.50000000    2.76999998
   16.24055672  134.27499390    0.50000000    2.78999996
   16.24361229  132.43299866    0.50000000    2.78999996
   16.24972153  132.43299866    0.47999999    2.78999996
   16.25388908  132.73500061    0.47999999    2.80999994
   16.25694466  137.72399902    0.47999999    2.78999996
   16.26027870  135.74499512    0.50000000    2.78999996
   16.26361084  135.57800293    0.52999997    2.78999996
   16.26666641  133.31399536    0.52999997    2.78999996
   16.27000046  140.36999512    0.52999997    2.78999996
   16.27305603  138.32499695    0.51999998    2.78999996
   16.27638817  142.13000488    0.51999998    2.78999996
   16.27972221  137.11099243    0.51999998    2.78999996
   16.28194427  138.10299683    0.51999998    2.78999996
   16.28333282  136.15699768    0.51999998    2.78999996
   16.28666687  133.65499878    0.55000001    2.78999996
   16.29249954  133.65499878    4.90999985    2.69000006
   16.29666710  134.08599854    0.75000000    2.78999996
   16.29999924  135.00000000    0.55000001    2.78999996
   16.30305481  135.36300659    0.55000001    2.78999996
   16.30638885  133.56500244    0.55000001    2.78999996
   16.30944443  132.26199341    1.09000003    2.80999994
   16.31277657  134.16200256    0.56999999    2.78999996
   16.31527710  128.69200134    0.56999999    2.78999996
   16.31638718  131.18899536    0.86000001    2.78999996
   16.31972313  132.33799744    1.38000000    2.80999994
   16.32277870  141.92100525    2.03999996    2.80999994
   16.32611275  135.16999817    4.21999979    2.80999994
   16.32916832   -1.00000000    4.90999985    0.38000000
   16.33527756   -1.00000000    4.90999985    0.40000001
   16.33944511  137.66099548    4.90999985    2.15000010
   16.34277916  135.09899902    0.55000001    2.78999996
   16.34583473  136.94799805    0.55000001    2.78999996
   16.34861183  136.70500183    0.52999997    2.78999996
   16.34944534  139.00999451    0.52999997    2.78999996
   16.35277748  137.66499329    0.52999997    2.78999996
   16.35583305  131.74699402    0.52999997    2.78999996
   16.35916710  137.85099792    0.52999997    2.76999998
   16.36222267  132.06300354    0.52999997    2.78999996
   16.36555672  136.52099609    0.51999998    2.78999996
   16.36888885  132.88000488    0.52999997    2.78999996
   16.37194443  133.71499634    0.52999997    2.78999996
   16.37833405  133.71499634    0.55000001    2.76999998
   16.38222313  124.64199829    0.58999997    2.78999996
   16.38555527  127.59899902    0.63000000    2.78999996
   16.38888931  132.36900330    0.61000001    2.78999996
   16.39194489  135.04299927    0.61000001    2.78999996
   16.39527702  129.44999695    0.61000001    2.78999996
   16.39861107  127.72599792    0.64999998    2.78999996
   16.40166664  136.40100098    0.76999998    2.78999996
   16.40499878  134.88600159    0.69000000    2.78999996
   16.40833282  134.68200684    0.75000000    2.76999998
   16.41138840  133.27499390    0.67000002    2.76999998
   16.41472244  132.97300720    0.63000000    2.78999996
   16.41527748  128.94700623    0.63000000    2.78999996
   16.42111015  128.94700623    0.61000001    2.78999996
   16.42527771  128.00700378    0.58999997    2.78999996
   16.42833328  124.79900360    0.58999997    2.78999996
   16.43166542  127.78299713    0.61000001    2.78999996
   16.43472099  133.89399719    0.67000002    2.78999996
   16.43805504  132.24800110    0.70999998    2.78999996
   16.44138718  128.38200378    1.23000002    2.75000000
   16.44444275  133.61900330    0.83999997    2.78999996
   16.44777679  139.64599609    0.83999997    2.76999998
   16.44861031  138.72399902    0.83999997    2.76999998
   16.45138931  133.55299377    0.81999999    2.78999996
   16.45472336  136.73599243    0.81999999    2.78999996
   16.45777893  137.39900208    0.80000001    2.78999996
   16.46389008  137.39900208    1.05999994    2.76999998
   16.46805573  137.69000244    2.67000008    2.75000000
   16.47111130  136.34800720    2.75000000    2.75000000
   16.47444534  138.24400330    1.73000002    2.76999998
   16.47777748  133.99499512    1.80999994    2.75000000
   16.48083305  138.10699463    1.71000004    2.76999998
   16.48194504  140.11199951    1.48000002    2.78999996
   16.48444557  137.98399353    1.34000003    2.75000000
   16.48777771  135.49299622    4.90999985    2.82999992
   16.49083328  155.42199707    4.90999985    1.73000002
   16.49416733   -1.00000000    4.90999985    1.73000002
   16.49749947  135.87399292    4.90999985    0.86000001
   16.50055504  139.99899292    4.90999985    2.73000002
   16.50666618  139.99899292    2.00000000    2.78999996
   16.51083374  140.30000305    1.50000000    2.76999998
   16.51416588  135.19200134    1.50000000    2.76999998
   16.51527786  135.35899353    0.89999998    2.78999996
   16.51777840  120.78399658    0.76999998    2.78999996
   16.52111053  130.79100037    0.79000002    2.78999996
   16.52416611  138.60499573    0.79000002    2.78999996
   16.52750015  138.91600037    0.80000001    2.78999996
   16.53083229  137.43099976    0.81999999    2.78999996
   16.53388786  130.84800720    0.80000001    2.78999996
   16.53722191  138.03100586    0.80000001    2.78999996
   16.54055595  138.80999756    0.81999999    2.76999998
   16.54361153  137.61700439    0.83999997    2.76999998
   16.54944420  137.61700439    0.89999998    2.78999996
   16.55360985  134.21899414    0.86000001    2.76999998
   16.55694389  135.39300537    0.89999998    2.78999996
   16.56027794  135.25300598    0.92000002    2.76999998
   16.56333351  139.90199280    0.94000000    2.78999996
   16.56666756  137.73300171    0.88000000    2.76999998
   16.56972313  138.12300110    0.86000001    2.76999998
   16.57305717  139.57899475    0.86000001    2.78999996
   16.57638931  135.18600464    0.86000001    2.78999996
   16.57944489  135.43600464    0.86000001    2.78999996
   16.58222389  139.17900085    0.86000001    2.76999998
   16.58305550  141.13900757    0.86000001    2.76999998
   16.58638954  140.67500305    0.86000001    2.76999998
   16.59250069  140.67500305    0.95999998    2.78999996
   16.59666824  134.33799744    0.94000000    2.76999998
   16.59972191  128.17599487    0.94000000    2.76999998
   16.60305595  136.72999573    0.94000000    2.78999996
   16.60611153  137.30200195    0.94000000    2.76999998
   16.60944557  130.01600647    0.92000002    2.76999998
   16.61277771  136.86799622    0.88000000    2.76999998
   16.61555672  134.46000671    0.88000000    2.78999996
   16.61638832  139.00100708    0.88000000    2.78999996
   16.61972237  126.77700043    0.86000001    2.78999996
   16.62277794  135.87199402    0.86000001    2.78999996
   16.62611198  136.00500488    0.89999998    2.78999996
   16.62944412  129.91600037    0.89999998    2.78999996
   16.63527679  129.91600037    0.92000002    2.78999996
   16.63944435  135.33700562    0.95999998    2.78999996
   16.64249992  133.01400757    1.01999998    2.76999998
   16.64583397  129.53799438    0.95999998    2.78999996
   16.64861107  134.42700195    0.89999998    2.76999998
   16.64944458  134.53599548    0.89999998    2.76999998
   16.65277672  138.81500244    0.88000000    2.76999998
   16.65583229  130.98699951    0.86000001    2.78999996
   16.65916634  134.21499634    0.86000001    2.78999996
   16.66250038  136.51499939    0.86000001    2.78999996
   16.66555595  141.33999634    0.81999999    2.78999996
   16.66888809  137.33999634    0.81999999    2.78999996
   16.67194366  133.44400024    0.81999999    2.78999996
   16.67805481  133.44400024    0.80000001    2.78999996
   16.68222237  135.14399719    0.80000001    2.76999998
   16.68555450  134.61199951    0.80000001    2.76999998
   16.68861008  138.38200378    0.83999997    2.78999996
   16.69194412  138.61799622    0.83999997    2.78999996
   16.69527626  139.50700378    0.83999997    2.78999996
   16.69833183  138.10000610    0.95999998    2.78999996
   16.70166779  139.35299683    1.05999994    2.78999996
   16.70472336  133.38999939    1.14999998    2.78999996
   16.70805550  131.72500610    1.21000004    2.78999996
   16.71138954  134.84700012    1.19000006    2.78999996
   16.71444511  137.98599243    1.19000006    2.78999996
   16.71555710  132.17399597    1.14999998    2.78999996
   16.73611069  132.17399597    1.21000004    2.78999996
   16.74027824  133.95399475    1.23000002    2.78999996
   16.74333382  130.91099548    1.26999998    2.78999996
   16.74666786  141.03999329    1.26999998    2.78999996
   16.74888992  128.63900757    1.26999998    2.78999996
   16.75027847  134.93200684    1.48000002    2.78999996
   16.75361061  137.48300171    1.48000002    2.78999996
   16.75694466  135.00799561    1.53999996    2.78999996
   16.76000023  136.23100281    1.53999996    2.78999996
   16.76333427  136.16999817    1.50000000    2.76999998
   16.76666641  131.78300476    1.21000004    2.78999996
   16.76972198  141.70399475    1.16999996    2.78999996
   16.77305603  139.01100159    1.16999996    2.78999996
   16.77888870  139.01100159    1.19000006    2.78999996
   16.78277779   -1.00000000    4.90999985    2.80999994
   16.78610992  130.03500366    4.90999985    1.94000006
   16.78944397  134.25900269    2.36999989    2.71000004
   16.79249954  140.71000671    2.30999994    2.76999998
   16.79583359  135.66400146    3.25000000    2.76999998
   16.79916573  138.54400635    1.60000002    2.78999996
   16.80222130  137.95399475    1.28999996    2.78999996
   16.80555534  137.40499878    1.03999996    2.78999996
   16.80861092  132.37600708    1.03999996    2.78999996
   16.81194305  138.07200623    1.05999994    2.78999996
   16.81527710  136.87100220    1.09000003    2.78999996
   16.81555557  139.44099426    1.09000003    2.78999996
   16.82166672  139.44099426    1.14999998    2.78999996
   16.82583427  127.65299988    1.33000004    2.78999996
   16.82888985  133.88000488    1.48000002    2.78999996
   16.83222389  130.64599609    1.48000002    2.78999996
   16.83555603  136.80200195    1.34000003    2.78999996
   16.83861160  133.56100464    1.14999998    2.78999996
   16.84194565  134.30200195    1.05999994    2.78999996
   16.84527779  135.15499878    1.14999998    2.76999998
   16.84833336  133.91600037    1.14999998    2.78999996
   16.84889030  134.97599792    1.14999998    2.78999996
   16.85194397  136.94500732    1.28999996    2.78999996
   16.85527802  130.29299927    1.34000003    2.78999996
   16.85833359  131.75599670    1.34000003    2.78999996
   16.86444473  131.75599670    1.28999996    2.78999996
   16.86861038  138.63900757    1.28999996    2.78999996
   16.87194443  135.12300110    1.33000004    2.78999996
   16.87500000  131.01499939    1.38000000    2.78999996
   16.87833405  137.90100098    1.30999994    2.78999996
   16.88138962  136.24800110    1.30999994    2.78999996
   16.88222313  136.83799744    1.30999994    2.78999996
   16.88500023  137.55000305    1.13000000    2.78999996
   16.88833237  139.40499878    1.13000000    2.78999996
   16.89138794  131.97799683    1.28999996    2.78999996
   16.89472198  140.91200256    1.33000004    2.78999996
   16.89805603  137.26300049    1.34000003    2.78999996
   16.90111160  139.80099487    1.34000003    2.78999996
   16.90722275  139.80099487    1.28999996    2.78999996
   16.91138840  132.22099304    1.19000006    2.78999996
   16.91472244  135.86599731    1.11000001    2.80999994
   16.91555595  130.74400330    1.11000001    2.80999994
   16.91833305  134.71699524    1.09000003    2.78999996
   16.92166519  134.91299438    1.07000005    2.78999996
   16.92472076  134.21699524    1.13000000    2.78999996
   16.92805481  131.12699890    1.19000006    2.80999994
   16.93138885  133.95799255    1.19000006    2.80999994
   16.93444443  128.26400757    1.14999998    2.78999996
   16.93777657  138.37699890    1.05999994    2.78999996
   16.94111061  132.99899292    1.23000002    2.78999996
   16.94416618  131.58099365    1.26999998    2.78999996
   16.95027924  131.58099365    1.41999996    2.78999996
   16.95416832  134.84199524    1.48000002    2.78999996
   16.95750046  136.43099976    1.53999996    2.78999996
   16.96083450  137.88200378    1.55999994    2.78999996
   16.96389008  134.91099548    1.55999994    2.78999996
   16.96722221  133.14599609    1.60000002    2.78999996
   16.97055626  134.58000183    1.44000006    2.78999996
   16.97361183  137.77999878    1.34000003    2.78999996
   16.97694588  137.80999756    1.16999996    2.78999996
   16.98000145  129.62699890    1.05999994    2.78999996
   16.98250008  136.54299927    1.05999994    2.78999996
   16.98361206  133.95199585    1.01999998    2.80999994
   16.98694420  135.97999573    0.98000002    2.80999994
   16.99305534  135.97999573    1.00000000    2.78999996
   16.99722290  135.37199402    0.98000002    2.78999996
   17.00027847  135.60499573    0.88000000    2.78999996
   17.00361061  136.69799805    0.98000002    2.78999996
   17.00694466  133.20599365    0.94000000    2.78999996
   17.01000023  136.54200745    1.19000006    2.78999996
   17.01333427  135.42799377    1.19000006    2.78999996
   17.01583290  136.22399902    1.09000003    2.78999996
   17.01694489  139.22799683    1.21000004    2.78999996
   17.02027702  142.65899658    1.14999998    2.78999996
   17.02333260  135.98199463    1.26999998    2.78999996
   17.02666664  134.97200012    1.26999998    2.78999996
   17.03000069  135.11500549    1.16999996    2.78999996
   17.03583336  135.11500549    1.13000000    2.78999996
   17.03999901  134.18600464    1.30999994    2.78999996
   17.04333305  133.35899353    1.36000001    2.78999996
   17.04638863  133.93600464    1.86000001    2.78999996
   17.04916573  135.89700317    1.66999996    2.78999996
   17.04999924  132.59899902    1.66999996    2.78999996
   17.05333328  133.47599792    1.60000002    2.78999996
   17.05666542  132.99899292    0.86000001    2.78999996
   17.05972099  146.62600708    0.95999998    2.78999996
   17.06305504  134.60200500    1.21000004    2.78999996
   17.06611061  146.02799988    1.50000000    2.78999996
   17.06944466  143.21400452    2.19000006    2.78999996
   17.07277870  141.77699280    2.03999996    2.78999996
   17.07861137  141.77699280    1.83000004    2.78999996
   17.08277893  140.39300537    1.34000003    2.80999994
   17.08611107  137.96200562    1.60000002    2.78999996
   17.08916664  146.11500549    1.60000002    2.78999996
   17.09250069  145.34500122    1.78999996    2.78999996
   17.09583473  140.26499939    1.60000002    2.78999996
   17.09889030  149.38600159    1.23000002    2.78999996
   17.10222244  152.40299988    1.16999996    2.78999996
   17.10555649  157.18899536    1.19000006    2.78999996
   17.10861206  155.77499390    1.30999994    2.78999996
   17.11194420  159.74899292    1.30999994    2.78999996
   17.11499977  152.38000488    1.26999998    2.80999994
   17.11583328  148.59199524    1.26999998    2.80999994
   17.12166595  148.59199524    1.51999998    2.78999996
   17.12555504  145.02000427    1.66999996    2.76999998
   17.12888908  157.14700317    1.66999996    2.76999998
   17.13222313  153.65100098    1.61000001    2.78999996
   17.13527679  152.58999634    1.64999998    2.78999996
   17.13861084  139.16000366    1.39999998    2.78999996
   17.14194489  146.31799316    1.41999996    2.80999994
   17.14500046  153.38099670    1.48000002    2.78999996
   17.14833260  152.11500549    1.36000001    2.78999996
   17.14916611  156.32499695    1.36000001    2.78999996
   17.15166664  145.50199890    1.46000004    2.78999996
   17.15499878  149.95399475    1.48000002    2.78999996
   17.15805435  137.08599854    1.48000002    2.78999996
   17.16444397  137.08599854    1.76999998    2.78999996
   17.16860962  138.68899536    1.96000004    2.76999998
   17.17166519  134.25999451    1.88000000    2.78999996
   17.17499924  135.97300720    1.71000004    2.78999996
   17.17833328  134.83099365    1.39999998    2.80999994
   17.18138885  142.55000305    1.38000000    2.78999996
   17.18249893  143.22900391    1.38000000    2.78999996
   17.18499947  138.66000366    1.39999998    2.78999996
   17.18833160  136.85800171    1.41999996    2.78999996
   17.19166565  138.38699341    1.41999996    2.78999996
   17.19472122  149.25399780    1.39999998    2.78999996
   17.19805527  133.72000122    1.38000000    2.78999996
   17.20111275  126.27899933    1.34000003    2.78999996
   17.20750046  126.27899933    1.48000002    2.78999996
   17.21166801  128.66299438    1.46000004    2.78999996
   17.21472359  145.22900391    1.41999996    2.78999996
   17.21583366  139.64799500    1.41999996    2.78999996
   17.21833420  137.73100281    1.48000002    2.78999996
   17.22166634  145.11300659    1.51999998    2.78999996
   17.22472191  143.49699402    1.51999998    2.78999996
   17.22805595  148.84399414    1.53999996    2.76999998
   17.23139000  143.59100342    1.51999998    2.78999996
   17.23444557  143.11900330    1.50000000    2.78999996
   17.23777771  153.85600281    1.55999994    2.78999996
   17.24111176  139.44000244    1.61000001    2.78999996
   17.24416733  133.16999817    1.64999998    2.78999996
   17.25000000  133.16999817    1.64999998    2.78999996
   17.25416756  128.23300171    1.58000004    2.78999996
   17.25749969  135.65199280    1.50000000    2.78999996
   17.26055527  137.38999939    1.51999998    2.76999998
   17.26388931  133.59199524    1.55999994    2.78999996
   17.26722145  130.38000488    1.38000000    2.78999996
   17.27027702  133.42100525    1.19000006    2.78999996
   17.27361107  134.96200562    1.07000005    2.78999996
   17.27694511  126.10800171    1.07000005    2.78999996
   17.28000069  133.32200623    1.05999994    2.78999996
   17.28249931  134.53700256    0.98000002    2.78999996
   17.28361130  141.60899353    0.98000002    2.78999996
   17.28694344  135.84100342    1.13000000    2.78999996
   17.29305458  135.84100342    1.33000004    2.76999998
   17.29694366  138.58900452    1.09000003    2.78999996
   17.30027771  130.80799866    0.92000002    2.78999996
   17.30360985  134.42399597    0.92000002    2.78999996
   17.30666542  134.56799316    0.89999998    2.78999996
   17.30999947  138.44599915    1.03999996    2.78999996
   17.31333351  136.74299622    1.11000001    2.78999996
   17.31583214  134.01699829    1.11000001    2.78999996
   17.31666756  126.99800110    1.19000006    2.76999998
   17.32000160  134.35200500    1.19000006    2.76999998
   17.32333374  113.30599976    1.11000001    2.78999996
   17.32638931  131.87800598    0.95999998    2.78999996
   17.32972336  117.53600311    0.98000002    2.78999996
   17.33583450  117.53600311    0.94000000    2.78999996
   17.34000015  122.55899811    1.03999996    2.78999996
   17.34305573  133.64799500    0.89999998    2.78999996
   17.34638977  130.88200378    1.00000000    2.78999996
   17.34916687  142.28700256    1.00000000    2.78999996
   17.35000038  147.84300232    0.80000001    2.78999996
   17.35333443  153.18299866    0.83999997    2.78999996
   17.35666656  141.04299927    0.83999997    2.78999996
   17.35972214  134.29200745    0.80000001    2.78999996
   17.36305618  131.76400757    0.75000000    2.78999996
   17.36611176  143.30499268    0.79000002    2.78999996
   17.36944389  143.12399292    0.92000002    2.78999996
   17.37277794  149.97500610    0.76999998    2.78999996
   17.37861061  149.97500610    0.94000000    2.78999996
   17.38277817  130.81700134    0.98000002    2.78999996
   17.38611031  136.07800293    1.21000004    2.76999998
   17.38916588  141.97399902    0.94000000    2.78999996
   17.39249992  136.67999268    0.81999999    2.78999996
   17.39555550  136.59399414    0.81999999    2.78999996
   17.39888954  133.32899475    0.64999998    2.78999996
   17.40222168  126.82399750    0.67000002    2.78999996
   17.40527725  142.75100708    0.73000002    2.78999996
   17.40861130  135.28100586    0.69000000    2.78999996
   17.41194344  140.49299622    0.69000000    2.78999996
   17.41499901  123.78199768    0.70999998    2.78999996
   17.41583252  133.35200500    0.73000002    2.78999996
   17.42138863  133.35200500    0.70999998    2.78999996
   17.42555428  134.33799744    0.70999998    2.78999996
   17.42888832  133.51899719    0.63000000    2.78999996
   17.43194389  131.72200012    0.70999998    2.78999996
   17.43527603  131.08999634    0.76999998    2.78999996
   17.43861008  133.54600525    0.79000002    2.78999996
   17.44194412  132.05200195    0.79000002    2.78999996
   17.44499969  133.88600159    0.80000001    2.78999996
   17.44833183  135.48500061    0.79000002    2.78999996
   17.44916534  130.66600037    0.79000002    2.78999996
   17.45166779  136.24200439    0.76999998    2.78999996
   17.45499992  139.46899414    0.79000002    2.78999996
   17.45833397  134.69299316    0.79000002    2.78999996
   17.46444511  134.69299316    0.95999998    2.78999996
   17.46833420  123.08799744    1.03999996    2.78999996
   17.47166634  130.91200256    1.05999994    2.78999996
   17.47500038  131.55200195    1.01999998    2.78999996
   17.47805595  133.44999695    0.92000002    2.78999996
   17.48139000  134.55200195    0.89999998    2.78999996
   17.48250008  139.02099609    0.89999998    2.78999996
   17.48472214  135.64300537    1.01999998    2.78999996
   17.48805618  130.98500061    1.01999998    2.78999996
   17.49138832  130.18400574    1.03999996    2.78999996
   17.49444389  138.28999329    1.03999996    2.78999996
   17.49777794  138.90800476    1.03999996    2.78999996
   17.50111198  130.92500305    1.05999994    2.76999998
   17.50722313  130.92500305    1.25000000    2.78999996
   17.51138878  129.63400269    1.21000004    2.78999996
   17.51472282  131.52099609    1.14999998    2.78999996
   17.51583290  132.97399902    1.14999998    2.78999996
   17.51805496  129.00300598    1.09000003    2.78999996
   17.52138901  131.95700073    1.09000003    2.78999996
   17.52472115  133.75799561    1.14999998    2.78999996
   17.52805519  130.43800354    1.14999998    2.78999996
   17.53111076  132.08099365    1.34000003    2.78999996
   17.53444481  132.31500244    1.13000000    2.78999996
   17.53750038  130.83399963    1.23000002    2.78999996
   17.54083252  129.67900085    1.16999996    2.78999996
   17.54416656  130.45799255    1.16999996    2.78999996
   17.54999924  130.45799255    1.46000004    2.78999996
   17.55416679  129.13699341    1.64999998    2.76999998
   17.55749893  131.80999756    1.63000000    2.76999998
   17.56055450  136.55700684    1.44000006    2.76999998
   17.56388855  132.14599609    1.44000006    2.76999998
   17.56722260  125.36199951    1.51999998    2.78999996
   17.57027817  132.71899414    1.55999994    2.76999998
   17.57361221  128.59599304    1.66999996    2.76999998
   17.57666779  132.23100281    1.66999996    2.76999998
   17.58000183  129.99499512    1.69000006    2.76999998
   17.58250046  136.64599609    1.69000006    2.76999998
   17.58361244  129.72799683    1.61000001    2.78999996
   17.58694458  124.70899963    1.61000001    2.78999996
   17.59277916  124.70899963    1.14999998    2.76999998
   17.59694481  128.49800110    1.09000003    2.78999996
   17.60027885  130.99299622    1.03999996    2.78999996
   17.60361099  129.42500305    1.03999996    2.78999996
   17.60666656  135.23599243    1.09000003    2.78999996
   17.61000061  136.27000427    1.09000003    2.78999996
   17.61333466  132.12399292    1.19000006    2.78999996
   17.61583328  132.57299805    1.19000006    2.78999996
   17.61666679  137.24099731    1.19000006    2.78999996
   17.62000084  135.02999878    1.16999996    2.78999996
   17.62333298  129.32299805    1.13000000    2.76999998
   17.62638855  133.74200439    1.16999996    2.78999996
   17.62972260  136.42300415    1.16999996    2.76999998
   17.63583374  136.42300415    1.14999998    2.76999998
   17.63999939  137.92500305    1.09000003    2.78999996
   17.64305496  134.65299988    1.09000003    2.78999996
   17.64638901  134.28199768    1.11000001    2.78999996
   17.64916611  133.51600647    1.09000003    2.78999996
   17.64972115  132.56399536    1.09000003    2.78999996
   17.65305519  131.44700623    1.05999994    2.76999998
   17.65638924  129.39300537    1.11000001    2.78999996
   17.65944481  132.50599670    1.14999998    2.78999996
   17.66277695  130.18400574    1.19000006    2.76999998
   17.66611099  134.96299744    1.26999998    2.76999998
   17.66916656  132.02499390    1.26999998    2.76999998
   17.67249870  131.33500671    1.28999996    2.76999998
   17.67860985  131.33500671    1.21000004    2.78999996
   17.68277740  134.33599854    1.16999996    2.78999996
   17.68583298  138.92999268    1.26999998    2.78999996
   17.68916512  119.70200348    1.21000004    2.78999996
   17.69249916  134.53700256    1.21000004    2.78999996
   17.69555473  133.89700317    1.25000000    2.78999996
   17.69888878  138.35600281    1.23000002    2.76999998
   17.70194435  138.24099731    1.23000002    2.78999996
   17.70527840  138.27299500    1.26999998    2.78999996
   17.70861244  134.62899780    1.26999998    2.78999996
   17.71166801  132.68800354    1.26999998    2.78999996
   17.71500015  135.50300598    1.30999994    2.78999996
   17.71583366  134.89399719    1.33000004    2.78999996
   17.72138977  134.89399719    1.33000004    2.78999996
   17.72555542  135.20399475    1.48000002    2.78999996
   17.72888947  141.22700500    1.48000002    2.78999996
   17.73194504  132.08000183    1.34000003    2.76999998
   17.74944496  129.65800476    1.21000004    2.76999998
   17.75194359  135.04800415    1.16999996    2.78999996
   17.75499916  135.29800415    1.19000006    2.76999998
   17.75833321  135.15800476    1.25000000    2.78999996
   17.76444435  135.15800476    1.13000000    2.76999998
   17.76861000  131.81300354    1.13000000    2.78999996
   17.77166557  135.93200684    1.14999998    2.78999996
   17.77499962  132.47900391    1.28999996    2.78999996
   17.77833366  133.55499268    1.14999998    2.78999996
   17.78138924  133.16099548    1.13000000    2.78999996
   17.78277779  140.18099976    1.13000000    2.78999996
   17.78527641  136.11999512    1.13000000    2.78999996
   17.78833199  136.82000732    1.13000000    2.78999996
   17.79166603  140.46000671    0.98000002    2.78999996
   17.79500008  138.41700745    0.89999998    2.78999996
   17.79805565  137.04499817    0.95999998    2.78999996
   17.80138779  130.68099976    0.92000002    2.78999996
   17.80722237  130.68099976    0.86000001    2.78999996
   17.81138802  126.68199921    0.83999997    2.78999996
   17.81472206  133.80299377    0.80000001    2.78999996
   17.81611061  131.66200256    0.80000001    2.78999996
   17.81833458  135.13400269    0.89999998    2.78999996
   17.82139015  135.89500427    0.89999998    2.78999996
   17.82472229  133.09899902    0.98000002    2.76999998
   17.82805634  130.49200439    1.01999998    2.76999998
   17.83111191  131.18499756    1.00000000    2.76999998
   17.83444595  136.35899353    1.11000001    2.78999996
   17.83777809  132.59399414    1.30999994    2.76999998
   17.84083366  128.80299377    1.44000006    2.76999998
   17.84416771  132.05299377    1.11000001    2.78999996
   17.85000038  132.05299377    1.05999994    2.78999996
   17.85416794  135.37600708    1.26999998    2.78999996
   17.85750008  125.63400269    1.51999998    2.76999998
   17.86055565  132.05900574    1.36000001    2.76999998
   17.86388969  127.88500214    1.33000004    2.78999996
   17.86722183  127.83799744    1.30999994    2.76999998
   17.87027740  131.85400391    1.25000000    2.78999996
   17.87361145  129.29899597    1.21000004    2.78999996
   17.87666702  134.41700745    1.28999996    2.78999996
   17.88000107  130.12199402    1.34000003    2.76999998
   17.88277817  132.39900208    1.39999998    2.78999996
   17.88361168  129.88400269    1.39999998    2.78999996
   17.88694382  136.05000305    1.38000000    2.76999998
   17.89305496  136.05000305    1.30999994    2.78999996
   17.89694405  134.85600281    1.28999996    2.78999996
   17.90027809  130.42999268    1.30999994    2.78999996
   17.90361023  131.59899902    1.60000002    2.78999996
   17.90666580  132.04299927    1.83000004    2.76999998
   17.90999985  136.94599915    2.09999990    2.76999998
   17.91305542  135.77000427    1.78999996    2.76999998
   17.91611099  143.26699829    1.76999998    2.78999996
   17.91694450  140.21200562    1.76999998    2.78999996
   17.92000008  146.05000305    1.76999998    2.78999996
   17.92333221  149.49699402    1.75000000    2.76999998
   17.92666626  146.49899292    1.75000000    2.76999998
   17.92972183  138.73300171    1.75000000    2.76999998
   17.93583298  138.73300171    1.75000000    2.76999998
   17.93999863  131.69400024    1.69000006    2.76999998
   17.94305420  139.47599792    1.41999996    2.76999998
   17.94638824  133.50500488    1.21000004    2.78999996
   17.94944382  132.65600586    1.16999996    2.76999998
   17.95000076  131.52299500    1.16999996    2.76999998
   17.95333481  135.04100037    1.16999996    2.76999998
   17.95639038  133.81900024    1.16999996    2.76999998
   17.96000099  145.94299316    1.19000006    2.76999998
   17.96305656  143.64199829    1.26999998    2.78999996
   17.96638870  137.55200195    1.26999998    2.78999996
   17.96972275  131.35400391    1.34000003    2.76999998
   17.97277832  136.19799805    1.41999996    2.76999998
   17.97861099  136.19799805    1.44000006    2.76999998
   17.98277855  139.96699524    1.36000001    2.76999998
   17.98333359  126.70999908    1.36000001    2.76999998
   17.98638916  145.45300293    1.34000003    2.76999998
   17.98972321  136.99400330    1.26999998    2.78999996
   17.99277878  136.41799927    1.26999998    2.78999996
   17.99611092  142.33799744    1.21000004    2.78999996
   17.99944496  142.88800049    1.21000004    2.76999998
   18.00250053  139.90600586    1.16999996    2.76999998
   18.00583267  145.21699524    1.19000006    2.76999998
   18.00916672  130.60600281    1.25000000    2.78999996
   18.01222229  141.77099609    1.30999994    2.76999998
   18.01555634  137.36700439    1.30999994    2.76999998
   18.01666641  141.14999390    1.30999994    2.76999998
   18.02138901  141.14999390    1.30999994    2.76999998
   18.02555466  141.86900330    1.28999996    2.76999998
   18.02888870  145.16900635    1.28999996    2.76999998
   18.03194427  140.05000305    1.34000003    2.76999998
   18.03527641  132.28500366    1.34000003    2.76999998
   18.03861046  142.14399719    1.39999998    2.76999998
   18.04166603  132.13000488    1.39999998    2.76999998
   18.04500008  127.89299774    1.39999998    2.76999998
   18.04805565  132.53399658    1.38000000    2.78999996
   18.04999924  129.52799988    1.51999998    2.76999998
   18.05166626  131.01100159    1.51999998    2.76999998
   18.05499840  127.02400208    1.28999996    2.76999998
   18.05833244  139.53300476    1.28999996    2.78999996
   18.06444359  139.53300476    1.30999994    2.76999998
   18.06833458  126.19200134    1.30999994    2.76999998
   18.07166672  131.85200500    1.21000004    2.76999998
   18.07500076  129.00999451    1.11000001    2.76999998
   18.07805634  124.91000366    1.05999994    2.76999998
   18.08139038  138.87500000    1.03999996    2.76999998
   18.08333397  126.63300323    1.03999996    2.76999998
   18.08500099  124.82199860    1.03999996    2.76999998
   18.08833313  128.55200195    1.03999996    2.78999996
   18.09166718  136.04299927    1.03999996    2.78999996
   18.09472275  134.67599487    1.01999998    2.76999998
   18.09805679  133.03100586    1.00000000    2.76999998
   18.10111237  130.46299744    1.00000000    2.76999998
   18.10722351  130.46299744    1.13000000    2.78999996
   18.11138916  127.96700287    1.26999998    2.76999998
   18.11444473  126.87000275    1.48000002    2.76999998
   18.11666679  125.00900269    1.48000002    2.76999998
   18.11805534  130.56300354    1.44000006    2.76999998
   18.12138939  123.33399963    1.44000006    2.76999998
   18.12472153  121.57399750    1.50000000    2.76999998
   18.12777710  119.55799866    1.33000004    2.76999998
   18.13111115  127.45800018    1.66999996    2.76999998
   18.13416672  128.98199463    1.36000001    2.76999998
   18.13750076  125.12300110    1.25000000    2.76999998
   18.14083290  123.58699799    1.23000002    2.76999998
   18.14388847  130.26600647    1.21000004    2.76999998
   18.14999962  130.26600647    1.21000004    2.76999998
   18.15416718  126.33499908    1.14999998    2.76999998
   18.15749931  130.18099976    1.13000000    2.76999998
   18.16055489  128.72300720    1.11000001    2.76999998
   18.16388893  132.78799438    1.11000001    2.75000000
   18.16694450  136.06500244    1.11000001    2.75000000
   18.17027664  132.39700317    1.19000006    2.76999998
   18.17361069  133.19500732    1.30999994    2.76999998
   18.17694473  129.91900635    1.63000000    2.76999998
   18.18027687  131.64900208    1.89999998    2.75000000
   18.18333244  129.61599731    1.69000006    2.75000000
   18.18361092  132.83999634    1.69000006    2.75000000
   18.18694305  138.38099670    1.69000006    2.75000000
   18.19277763  138.38099670    1.53999996    2.76999998
   18.19694328  135.63699341    1.48000002    2.76999998
   18.20027924  131.27299500    1.58000004    2.75000000
   18.20333481  133.37899780    1.51999998    2.76999998
   18.20666695  129.49600220    1.50000000    2.76999998
   18.21000099  121.71499634    1.33000004    2.76999998
   18.21305656  128.28100586    1.44000006    2.78999996
   18.21638870  131.83200073    1.44000006    2.78999996
   18.21694565  137.47399902    1.61000001    2.76999998
   18.22000122  131.81500244    1.61000001    2.76999998
   18.22333336  126.16200256    1.73000002    2.75000000
   18.22666740  132.08599854    1.86000001    2.76999998
   18.22972298  134.12399292    1.80999994    2.75000000
   18.23583412  134.12399292    1.36000001    2.76999998
   18.23972321  134.05999756    1.28999996    2.76999998
   18.24305534  132.19999695    1.30999994    2.76999998
   18.24638939  130.45100403    1.33000004    2.76999998
   18.24944496  126.30500031    1.33000004    2.76999998
   18.25027847  127.00299835    1.25000000    2.76999998
   18.25305557  130.33599854    1.25000000    2.76999998
   18.25638962  128.63200378    1.23000002    2.76999998
   18.25972176  125.15000153    1.19000006    2.76999998
   18.26277733  126.68399811    1.28999996    2.76999998
   18.26611137  123.97599792    1.33000004    2.76999998
   18.26944351  130.32200623    1.30999994    2.76999998
   18.27249908  125.76399994    1.30999994    2.76999998
   18.27861023  125.76399994    1.33000004    2.76999998
   18.28277779  132.05599976    1.36000001    2.75000000
   18.28361130  131.75000000    1.33000004    2.76999998
   18.28638840  127.91200256    1.34000003    2.76999998
   18.28944397  128.93899536    1.34000003    2.76999998
   18.29277802  127.81500244    1.25000000    2.76999998
   18.29611015  126.47399902    1.21000004    2.75000000
   18.29916573  126.36399841    1.21000004    2.76999998
   18.30249977  126.32199860    1.19000006    2.76999998
   18.30555534  130.12500000    1.19000006    2.76999998
   18.30888748  127.76499939    1.19000006    2.75000000
   18.31222153  129.08500671    1.19000006    2.75000000
   18.31527710  128.91000366    1.16999996    2.75000000
   18.31694603  130.60800171    1.05999994    2.76999998
   18.32139015  130.60800171    1.05999994    2.76999998
   18.32555580  128.59599304    1.07000005    2.76999998
   18.32888985  129.30900574    1.09000003    2.76999998
   18.33194542  124.95400238    1.13000000    2.76999998
   18.33527756  127.56600189    1.19000006    2.76999998
   18.33833313  128.89500427    1.30999994    2.76999998
   18.34166718  130.59899902    1.41999996    2.76999998
   18.34500122  127.15799713    1.63000000    2.75000000
   18.34805679  122.38999939    2.01999998    2.75000000
   18.35027885  130.20100403    2.19000006    2.75000000
   18.35166740  130.67700195    2.25000000    2.75000000
   18.35499954  130.36099243    2.32999992    2.75000000
   18.35833359  126.97200012    2.86999989    2.75000000
   18.36416626  126.97200012    2.19000006    2.75000000
   18.36833382  123.71099854    2.42000008    2.75000000
   18.37166595  125.00800323    2.55999994    2.75000000
   18.37472153  124.33999634    2.17000008    2.75000000
   18.37805557  129.62699890    2.21000004    2.75000000
   18.38138962  106.80500031    2.03999996    2.75000000
   18.38361168  119.35900116    2.01999998    2.75000000
   18.38472176  110.94599915    2.09999990    2.73000002
   18.38805580  123.86900330    2.44000006    2.75000000
   18.39138794  122.52100372    2.69000006    2.73000002
   18.39444351  124.71199799    3.03999996    2.73000002
   18.39777756  129.68099976    2.78999996    2.73000002
   18.40111160  123.04199982    2.64000010    2.75000000
   18.40722275  123.04199982    2.42000008    2.75000000
   18.41110992  132.21000671    2.11999989    2.75000000
   18.41444397  104.93499756    2.11999989    2.75000000
   18.41694450  124.65200043    2.13000011    2.75000000
   18.41805458  127.69799805    1.96000004    2.75000000
   18.42138863  122.35199738    1.86000001    2.76999998
   18.42472076  120.50000000    1.83000004    2.76999998
   18.42777634  126.28199768    1.78999996    2.76999998
   18.43111038  122.84799957    1.66999996    2.75000000
   18.43444443  126.30300140    1.75000000    2.75000000
   18.43750000  126.33399963    1.73000002    2.75000000
   18.44083214  130.74499512    1.73000002    2.75000000
   18.44388771  129.68600464    1.58000004    2.75000000
   18.45000076  129.68600464    1.66999996    2.75000000
   18.45416832  127.88999939    1.64999998    2.75000000
   18.45722389  126.14600372    1.71000004    2.75000000
   18.46055603  131.15800476    1.58000004    2.75000000
   18.46389008  120.05899811    1.71000004    2.75000000
   18.46694565  125.38999939    1.71000004    2.75000000
   18.47027779  130.09199524    1.48000002    2.75000000
   18.47333336  130.44999695    1.34000003    2.76999998
   18.47666740  127.22699738    1.34000003    2.76999998
   18.48000145  122.16500092    1.34000003    2.75000000
   18.48305511  133.97500610    1.53999996    2.75000000
   18.48500061  128.76699829    1.66999996    2.76999998
   18.48694420  129.30400085    1.66999996    2.76999998
   18.49277878  129.30400085    1.60000002    2.75000000
   18.49694443  126.32599640    1.61000001    2.75000000
   18.50027847  124.46900177    1.64999998    2.75000000
   18.50333405  130.38299561    1.64999998    2.75000000
   18.50666618  132.03300476    1.55999994    2.75000000
   18.51000023  130.18499756    1.60000002    2.75000000
   18.51305580  131.72799683    1.39999998    2.75000000
   18.51638794  132.81199646    1.30999994    2.75000000
   18.51833344  122.39099884    1.30999994    2.75000000
   18.52000046  129.17999268    1.30999994    2.75000000
   18.52305603  136.63600159    1.28999996    2.75000000
   18.52638817  133.18600464    1.14999998    2.76999998
   18.52972221  129.45899963    1.05999994    2.75000000
   18.53555489  129.45899963    0.95999998    2.76999998
   18.53972244  126.62999725    1.00000000    2.75000000
   18.54305458  125.04900360    1.00000000    2.75000000
   18.54611015  130.12800598    1.03999996    2.75000000
   18.54944420  131.94599915    1.03999996    2.76999998
   18.55194283  129.03500366    1.05999994    2.75000000
   18.55305481  132.80999756    1.05999994    2.75000000
   18.55638885  133.60600281    1.03999996    2.76999998
   18.55972099  129.21499634    1.03999996    2.76999998
   18.56277657  128.89199829    1.05999994    2.76999998
   18.56611061  131.38900757    1.09000003    2.75000000
   18.56944466  123.25800323    1.11000001    2.76999998
   18.57250023  125.67400360    1.09000003    2.75000000
   18.57861137  125.67400360    1.03999996    2.75000000
   18.58250046  131.50300598    1.01999998    2.75000000
   18.58527756  129.80599976    1.00000000    2.75000000
   18.58611107  133.94700623    1.00000000    2.75000000
   18.58944511  128.99499512    1.01999998    2.75000000
   18.59277916  131.82699585    1.00000000    2.75000000
   18.59583473  131.08799744    0.95999998    2.75000000
   18.59916687  135.09399414    0.95999998    2.75000000
   18.60222244  131.08999634    0.94000000    2.76999998
   18.60555649  139.64300537    0.95999998    2.75000000
   18.60888863  135.99400330    0.98000002    2.76999998
   18.61194420  132.65699768    0.98000002    2.75000000
   18.61527824  130.59899902    1.03999996    2.75000000
   18.62138939  130.59899902    1.03999996    2.75000000
   18.62555504  131.50900269    0.98000002    2.75000000
   18.62861061  133.65100098    0.98000002    2.75000000
   18.63194466  132.02200317    0.98000002    2.75000000
   18.63527679  132.28199768    0.98000002    2.75000000
   18.63861084  131.21499634    0.95999998    2.75000000
   18.64166641  128.01300049    0.98000002    2.75000000
   18.64500046  130.53500366    1.01999998    2.75000000
   18.64805603  134.68800354    1.00000000    2.75000000
   18.65138817  130.94099426    1.05999994    2.75000000
   18.65222168  134.65600586    1.05999994    2.75000000
   18.65499878  126.27799988    1.09000003    2.75000000
   18.65805435  130.99499512    1.09000003    2.75000000
   18.66416550  130.99499512    1.07000005    2.75000000
   18.66833305  123.27899933    1.07000005    2.75000000
   18.67166519  130.61199951    1.07000005    2.75000000
   18.67472076  127.67199707    1.11000001    2.75000000
   18.67805481  131.75999451    1.09000003    2.75000000
   18.68111038  132.06700134    1.13000000    2.75000000
   18.68444443  131.24600220    1.07000005    2.75000000
   18.68555450  127.87500000    1.07000005    2.75000000
   18.68805504  133.99200439    1.05999994    2.75000000
   18.69111061  137.22000122    1.05999994    2.75000000
   18.69444275  130.16900635    1.11000001    2.75000000
   18.69777679  134.08000183    1.11000001    2.75000000
   18.70083427  119.88800049    1.16999996    2.75000000
   18.70694542  119.88800049    1.16999996    2.75000000
   18.71111107  126.22799683    1.16999996    2.75000000
   18.71444511  125.43399811    1.26999998    2.75000000
   18.71777916  125.58100128    1.34000003    2.73000002
   18.71916771  125.34799957    1.34000003    2.73000002
   18.72138977  133.92799377    1.41999996    2.75000000
   18.72444534  128.61199951    1.50000000    2.73000002
   18.72777748  123.45200348    2.19000006    2.73000002
   18.73111153  125.75499725    2.28999996    2.73000002
   18.73416710  128.56700134    2.51999998    2.73000002
   18.73750114  129.58099365    2.67000008    2.73000002
   18.74055672  128.54400635    2.91000009    2.73000002
   18.74388885  133.39100647    3.09999990    2.73000002
   18.75000000  133.39100647    2.89000010    2.73000002
   18.76833344  128.79899597    1.60000002    2.75000000
   18.77138901  133.61599731    1.55999994    2.75000000
   18.77472115  133.35400391    1.53999996    2.75000000
   18.77805519  128.12800598    1.50000000    2.73000002
   18.78111076  129.47900391    1.50000000    2.75000000
   18.78444481  130.81199646    1.55999994    2.73000002
   18.78777695  133.56199646    1.53999996    2.73000002
   18.79305458  133.56199646    1.61000001    2.75000000
   18.79694366  126.42700195    1.66999996    2.73000002
   18.80027771  127.92199707    1.78999996    2.73000002
   18.80138779  129.03100586    1.78999996    2.73000002
   18.80388832  131.73199463    1.78999996    2.73000002
   18.80722237  129.93499756    1.83000004    2.73000002
   18.81055450  130.40800476    1.83000004    2.73000002
   18.81361008  130.61000061    1.86000001    2.73000002
   18.81694603  126.52200317    1.85000002    2.73000002
   18.82027817  124.23200226    1.73000002    2.73000002
   18.82333374  126.10600281    1.69000006    2.73000002
   18.82666779  127.66799927    1.63000000    2.75000000
   18.82972336  124.91699982    1.51999998    2.73000002
   18.83583450  124.91699982    1.50000000    2.75000000
   18.84000015  134.04499817    1.46000004    2.75000000
   18.84305573  128.55700684    1.50000000    2.75000000
   18.84638977  121.89299774    1.58000004    2.75000000
   18.84972191  131.27999878    1.51999998    2.75000000
   18.85277748  127.48899841    1.55999994    2.75000000
   18.85611153  131.53599548    1.64999998    2.73000002
   18.85916710  128.81399536    1.66999996    2.75000000
   18.86250114  129.16499329    1.69000006    2.73000002
   18.86583328  132.75000000    1.69000006    2.73000002
   18.86805534  127.46800232    1.69000006    2.75000000
   18.86916733  129.52999878    1.69000006    2.75000000
   18.87249947  132.11900330    1.53999996    2.73000002
   18.87861061  132.11900330    1.36000001    2.75000000
   18.88277817  128.99800110    1.25000000    2.73000002
   18.88611031  134.68099976    1.16999996    2.73000002
   18.88916588  122.53600311    1.16999996    2.73000002
   18.89249992  130.60899353    1.16999996    2.75000000
   18.89555550  128.35600281    1.21000004    2.75000000
   18.89888954  131.50399780    1.21000004    2.75000000
   18.90138817  130.59100342    1.21000004    2.73000002
   18.90250015  138.13800049    1.21000004    2.73000002
   18.90583229  132.05000305    1.23000002    2.73000002
   18.90916634  123.81300354    1.19000006    2.73000002
   18.91222191  132.65100098    1.21000004    2.75000000
   18.91555595  130.07600403    1.21000004    2.73000002
   18.92138863  130.07600403    1.21000004    2.73000002
   18.92555428  124.61900330    1.21000004    2.73000002
   18.92888832  128.51100159    1.21000004    2.73000002
   18.93194389  129.10899353    1.26999998    2.75000000
   18.93472099  133.54400635    1.36000001    2.73000002
   18.93555450  127.96700287    1.36000001    2.73000002
   18.93888855  128.87100220    1.48000002    2.73000002
   18.94222069  124.27300262    1.53999996    2.73000002
   18.94527626  125.79100037    1.48000002    2.73000002
   18.94861031  133.33500671    1.46000004    2.73000002
   18.95166779  129.45700073    1.46000004    2.73000002
   18.95499992  126.51399994    1.55999994    2.75000000
   18.95833397  128.52499390    1.55999994    2.75000000
   18.96444511  128.52499390    1.61000001    2.73000002
   18.96833420  128.65600586    1.63000000    2.73000002
   18.97166634  124.52600098    1.63000000    2.73000002
   18.97500038  128.19099426    1.60000002    2.73000002
   18.97805595  122.23899841    1.83000004    2.73000002
   18.98139000  128.01400757    1.78999996    2.73000002
   18.98472214  124.81800079    1.78999996    2.73000002
   18.98777771  131.53500366    1.64999998    2.73000002
   18.99111176  131.06100464    1.63000000    2.73000002
   18.99444389  128.90899658    1.63000000    2.73000002
   18.99749947  129.14900208    1.44000006    2.73000002
   19.00083351  128.58299255    1.26999998    2.73000002
   19.00138855  128.92900085    1.26999998    2.73000002
   19.00722313  128.92900085    1.30999994    2.73000002
   19.01138878  133.29699707    1.34000003    2.73000002
   19.01444435  128.99699402    1.19000006    2.75000000
   19.01777840  124.90399933    1.30999994    2.75000000
   19.02111053  130.45799255    1.23000002    2.73000002
   19.02416611  127.22299957    1.28999996    2.73000002
   19.02750015  120.10800171    1.34000003    2.73000002
   19.03055573  128.31700134    1.36000001    2.73000002
   19.03388786  126.30500031    1.36000001    2.73000002
   19.03472137  131.48800659    1.41999996    2.73000002
   19.03750038  125.63999939    1.41999996    2.73000002
   19.04055595  130.00000000    1.61000001    2.73000002
   19.04388809  127.51499939    1.53999996    2.73000002
   19.04999924  127.51499939    1.71000004    2.73000002
   19.05416679  129.17199707    1.86000001    2.73000002
   19.05749893  125.96099854    1.86000001    2.73000002
   19.06055450  130.10099792    1.76999998    2.71000004
   19.06388855  127.99700165    1.96000004    2.73000002
   19.06694603  131.38299561    1.75000000    2.73000002
   19.06805611  135.20799255    1.75000000    2.73000002
   19.07083511  126.31800079    1.58000004    2.71000004
   19.07389069  131.13000488    1.44000006    2.73000002
   19.07722282  130.28900146    1.44000006    2.73000002
   19.08027840  134.84100342    1.39999998    2.73000002
   19.08361244  129.11799622    1.28999996    2.73000002
   19.08694458  131.04100037    1.28999996    2.75000000
   19.09277916  131.04100037    1.26999998    2.75000000
   19.09694481  134.42900085    1.28999996    2.73000002
   19.10027885  134.25300598    1.09000003    2.73000002
   19.10138893  137.66299438    1.09000003    2.73000002
   19.10388947  133.05099487    1.09000003    2.73000002
   19.10694504  137.17100525    1.05999994    2.75000000
   19.11027908  130.64199829    1.01999998    2.73000002
   19.11333466  135.11700439    1.05999994    2.73000002
   19.11666679  133.76300049    1.07000005    2.73000002
   19.12000084  134.00399780    1.09000003    2.73000002
   19.12305641  129.38900757    1.16999996    2.73000002
   19.12638855  127.00299835    1.25000000    2.73000002
   19.12972260  133.50199890    1.25000000    2.73000002
   19.13583374  133.50199890    1.46000004    2.71000004
   19.13972282  129.57499695    1.48000002    2.71000004
   19.14305496  130.02099609    1.55999994    2.71000004
   19.14638901  128.92100525    1.58000004    2.71000004
   19.14944458  129.60600281    1.75000000    2.73000002
   19.15277672  131.39999390    1.75000000    2.73000002
   19.15611076  126.82499695    1.60000002    2.71000004
   19.15916634  132.18299866    1.63000000    2.71000004
   19.16250038  130.20599365    1.46000004    2.71000004
   19.16583252  130.20700073    1.44000006    2.71000004
   19.16805458  129.04299927    1.44000006    2.71000004
   19.16944313  129.06399536    1.51999998    2.73000002
   19.17249870  122.68099976    1.51999998    2.73000002
   19.17860985  122.68099976    1.55999994    2.73000002
   19.18277740  121.79699707    1.48000002    2.73000002
   19.18583298  125.00000000    1.46000004    2.71000004
   19.18916512  130.24299622    1.50000000    2.71000004
   19.19249916  128.46600342    1.58000004    2.71000004
   19.19555473  129.18099976    1.46000004    2.71000004
   19.19888878  126.68099976    1.51999998    2.71000004
   19.20138931  131.32499695    1.51999998    2.71000004
   19.20250130  131.06300354    1.78999996    2.71000004
   19.20555687  129.30200195    2.59999990    2.71000004
   19.20888901  127.12699890    2.46000004    2.71000004
   19.21194458  132.05499268    2.25000000    2.71000004
   19.21527863  126.92800140    2.36999989    2.71000004
   19.22138977  126.92800140    2.17000008    2.71000004
   19.22555542  137.64799500    2.13000011    2.71000004
   19.22888947  131.04800415    2.03999996    2.71000004
   19.23194504  136.99800110    2.09999990    2.71000004
   19.23472214  131.50700378    2.13000011    2.69000006
   19.23583412  131.35899353    2.28999996    2.69000006
   19.23888969  131.14399719    2.50000000    2.69000006
   19.24222183  131.67100525    3.57999992    2.66000009
   19.24527740  131.28500366    4.42999983    2.66000009
   19.24861145  132.87199402    4.90999985    2.64000010
   19.25194359  134.38099670    4.90999985    2.66000009
   19.25499916  138.74499512    4.63999987    2.67000008
   19.25833321  132.85600281    3.64000010    2.69000006
   19.26416588  132.85600281    2.76999998    2.69000006
   19.26833344  135.82699585    2.03999996    2.71000004
   19.27166557  128.39900208    1.86000001    2.69000006
   19.27472115  125.98000336    1.73000002    2.69000006
   19.27805519  130.27999878    1.64999998    2.71000004
   19.28138924  132.56799316    1.71000004    2.69000006
   19.28444481  125.37599945    1.61000001    2.71000004
   19.28777695  131.60499573    1.66999996    2.71000004
   19.29111099  128.99200439    1.53999996    2.71000004
   19.29416656  125.61299896    1.48000002    2.71000004
   19.29749870  131.61000061    1.48000002    2.71000004
   19.30055428  120.09200287    1.48000002    2.69000006
   19.30138779  124.30100250    1.48000002    2.69000006
   19.30722237  124.30100250    1.48000002    2.71000004
   19.31110954  123.43599701    1.48000002    2.71000004
   19.31444359  124.01599884    1.44000006    2.71000004
   19.31777954  124.90399933    1.64999998    2.71000004
   19.32083511  124.08200073    1.58000004    2.71000004
   19.32416725  130.40600586    1.51999998    2.71000004
   19.32750130  127.50199890    1.48000002    2.71000004
   19.33083344  120.59200287    1.44000006    2.71000004
   19.33388901  127.41400146    1.44000006    2.71000004
   19.33472252  132.17399597    1.44000006    2.71000004
   19.33750153  127.22299957    1.34000003    2.71000004
   19.34055710  127.18299866    1.34000003    2.71000004
   19.34388924  124.65699768    1.46000004    2.71000004
   19.35000038  124.65699768    1.30999994    2.73000002
   19.35416794  125.94100189    1.30999994    2.71000004
   19.35722351  131.75300598    1.28999996    2.69000006
   19.36055565  126.88999939    1.28999996    2.69000006
   19.36388969  134.11000061    1.13000000    2.71000004
   19.36694527  123.46399689    1.01999998    2.71000004
   19.36805534  130.06199646    1.00000000    2.71000004
   19.37055588  128.76800537    1.01999998    2.71000004
   19.37361145  122.54299927    1.01999998    2.71000004
   19.37694550  128.07099915    1.14999998    2.71000004
   19.38027763  125.29100037    1.21000004    2.71000004
   19.38333321  127.71700287    1.33000004    2.71000004
   19.38666725  123.09600067    1.38000000    2.71000004
   19.39277840  123.09600067    1.41999996    2.71000004
   19.39694405  131.43099976    1.50000000    2.69000006
   19.40027809  130.05099487    1.76999998    2.69000006
   19.40138817  133.58500671    1.78999996    2.69000006
   19.40388870  130.82200623    1.80999994    2.69000006
   19.40722275  129.69599915    1.80999994    2.71000004
   19.41027832  132.61500549    1.80999994    2.71000004
   19.41361046  125.83499908    1.91999996    2.71000004
   19.41666603  129.75700378    2.01999998    2.69000006
   19.42000008  124.51000214    1.89999998    2.69000006
   19.42333221  123.44999695    1.80999994    2.71000004
   19.42638779  126.53700256    1.71000004    2.69000006
   19.42972183  125.85800171    1.69000006    2.69000006
   19.43555450  125.85800171    1.60000002    2.69000006
   19.43972206  117.83100128    1.63000000    2.69000006
   19.44305420  127.79499817    1.66999996    2.71000004
   19.44638824  116.97799683    1.64999998    2.69000006
   19.44944382  132.66700745    1.64999998    2.69000006
   19.45277786  134.06300354    1.60000002    2.71000004
   19.45611191  130.61599731    1.66999996    2.69000006
   19.45916748  128.95500183    1.63000000    2.69000006
   19.46250153  136.06599426    1.64999998    2.69000006
   19.46555710  143.50399780    1.64999998    2.69000006
   19.46805573  147.39599609    1.64999998    2.69000006
   19.46944427  152.03300476    1.73000002    2.69000006
   19.47249985  159.39100647    1.73000002    2.69000006
   19.47861099  159.39100647    2.03999996    2.69000006
   19.48250008  191.55400085    1.94000006    2.69000006
   19.48583412  175.70399475    1.83000004    2.69000006
   19.48916626  185.07899475    1.78999996    2.69000006
   19.49250031  199.25700378    1.78999996    2.69000006
   19.49555588  201.40100098    1.76999998    2.69000006
   19.49888992  199.98100281    1.73000002    2.69000006
   19.50138855  198.77000427    1.73000002    2.69000006
   19.50250053  201.60000610    1.71000004    2.69000006
   19.50555611  178.59899902    1.71000004    2.69000006
   19.50888824  187.17399597    1.66999996    2.69000006
   19.51222229  200.90100098    1.60000002    2.69000006
   19.51527786  175.20899963    1.58000004    2.69000006
   19.52138901  175.20899963    1.60000002    2.71000004
   19.52555466  191.04800415    1.69000006    2.69000006
   19.52861023  189.95700073    1.73000002    2.69000006
   19.53194427  202.59500122    1.58000004    2.69000006
   19.53472137  197.99200439    1.58000004    2.69000006
   19.53555489  194.87699890    1.58000004    2.69000006
   19.53861046  193.45100403    1.69000006    2.69000006
   19.54194450  188.02099609    2.07999992    2.69000006
   19.54527664  176.83599854    1.98000002    2.67000008
   19.54833221  171.34599304    1.94000006    2.69000006
   19.55166626  185.50399780    1.86000001    2.69000006
   19.55499840  180.77400208    2.26999998    2.67000008
   19.55805397  183.39900208    2.53999996    2.67000008
   19.56416512  183.39900208    3.00000000    2.67000008
   19.56833458  182.60800171    2.48000002    2.67000008
   19.57166672  176.54100037    2.34999990    2.67000008
   19.57472229  165.34800720    1.88000000    2.69000006
   19.57805634  150.91499329    1.71000004    2.69000006
   19.58111191  173.01699829    1.66999996    2.69000006
   19.58444595  153.54699707    1.61000001    2.69000006
   19.58777809  150.38299561    1.58000004    2.69000006
   19.59083366  149.93899536    1.61000001    2.67000008
   19.59416771  153.94599915    1.66999996    2.69000006
   19.59749985  150.69400024    1.88000000    2.67000008
   19.60055542  157.78300476    1.66999996    2.69000006
   19.60138893  142.85400391    1.66999996    2.69000006
   19.60694504  142.85400391    1.96000004    2.67000008
   19.61111069  169.46200562    2.42000008    2.69000006
   19.61444473  167.27699280    2.21000004    2.69000006
   19.61750031  157.25999451    2.23000002    2.69000006
   19.62083435  162.43600464    2.19000006    2.67000008
   19.62416649  164.95100403    2.03999996    2.67000008
   19.62722206  176.47799683    2.09999990    2.69000006
   19.63055611  156.82099915    2.07999992    2.69000006
   19.63388824  144.92999268    2.01999998    2.67000008
   19.63472176  151.64399719    1.96000004    2.69000006
   19.63750076  167.14999390    1.98000002    2.67000008
   19.64055634  154.45100403    1.94000006    2.67000008
   19.64388847  142.21400452    1.91999996    2.67000008
   19.64999962  142.21400452    1.91999996    2.67000008
   19.65388870  148.98899841    2.00000000    2.69000006
   19.65722275  149.88699341    2.07999992    2.67000008
   19.66055489  155.08900452    2.07999992    2.67000008
   19.66388893  149.50599670    2.00000000    2.67000008
   19.66694450  160.60400391    1.83000004    2.69000006
   19.66805458  158.71499634    1.85000002    2.67000008
   19.67055511  160.71899414    1.89999998    2.69000006
   19.67361069  151.88600159    1.89999998    2.67000008
   19.67694473  145.95500183    1.89999998    2.67000008
   19.68027687  150.66900635    2.26999998    2.67000008
   19.68333244  150.10299683    2.46000004    2.67000008
   19.68666649  139.25199890    2.50000000    2.67000008
   19.69277763  139.25199890    2.32999992    2.67000008
   19.69694328  154.43400574    2.17000008    2.67000008
   19.70000076  147.89100647    2.17000008    2.67000008
   19.70138931  144.02299500    2.19000006    2.67000008
   19.70361137  149.97200012    2.28999996    2.66000009
   19.70666695  143.52499390    2.48000002    2.67000008
   19.71000099  143.22500610    2.64000010    2.67000008
   19.71333504  138.89500427    2.82999992    2.67000008
   19.71638870  137.98800659    2.89000010    2.67000008
   19.71972275  129.73800659    2.82999992    2.67000008
   19.72305679  146.36199951    2.66000009    2.67000008
   19.72611237  136.97999573    2.51999998    2.67000008
   19.72944450  149.51800537    2.30999994    2.66000009
   19.73555565  149.51800537    2.11999989    2.67000008
   19.73972321  131.55999756    2.00000000    2.67000008
   19.74277878  132.14999390    1.96000004    2.67000008
   19.74611092  136.62800598    1.98000002    2.67000008
   19.74944496  127.34200287    1.96000004    2.67000008
   19.75277710  130.83900452    1.98000002    2.67000008
   19.75583267  126.05100250    1.98000002    2.67000008
   19.75916672  136.85899353    1.98000002    2.67000008
   19.76250076  129.46600342    1.96000004    2.67000008
   19.76555634  142.02200317    1.89999998    2.67000008
   19.76805496  129.68299866    1.89999998    2.67000008
   19.78861046  129.68299866    1.83000004    2.67000008
   19.79277802  133.37500000    1.75000000    2.67000008
   19.79611015  134.51400757    1.66999996    2.67000008
   19.79916573  144.59500122    1.64999998    2.67000008
   19.80138779  143.82699585    1.64999998    2.67000008
   19.80305481  150.98800659    1.60000002    2.66000009
   19.80638885  143.74800110    1.60000002    2.66000009
   19.80944443  140.32200623    1.60000002    2.67000008
   19.81277657  148.12600708    1.63000000    2.66000009
   19.81583214  138.51499939    1.60000002    2.66000009
   19.81916809  158.35299683    1.58000004    2.67000008
   19.82250023  146.16400146    1.55999994    2.67000008
   19.82555580  136.76400757    1.55999994    2.67000008
   19.83139038  136.76400757    1.83000004    2.67000008
   19.83555603  152.96699524    1.61000001    2.66000009
   19.83889008  142.43200684    1.63000000    2.66000009
   19.84222221  145.51800537    1.66999996    2.66000009
   19.84527779  142.80299377    1.66999996    2.66000009
   19.84861183  151.67799377    1.69000006    2.67000008
   19.85166740  158.59399414    1.71000004    2.66000009
   19.85499954  158.68699646    1.75000000    2.67000008
   19.85833359  156.23199463    1.83000004    2.67000008
   19.86138916  159.70100403    1.83000004    2.67000008
   19.86472321  150.18800354    2.21000004    2.66000009
   19.86805534  152.70100403    2.32999992    2.66000009
   19.86833382  165.91099548    2.39000010    2.66000009
   19.87416649  165.91099548    2.53999996    2.66000009
   19.87833405  148.78999329    2.57999992    2.66000009
   19.88166618  157.56900024    2.57999992    2.66000009
   19.88500023  148.78799438    2.57999992    2.66000009
   19.88805580  141.29699707    2.64000010    2.66000009
   19.89138794  146.29100037    2.84999990    2.66000009
   19.89444351  142.58599854    2.94000006    2.64000010
   19.89777756  149.35499573    2.84999990    2.66000009
   19.90111160  137.07499695    2.67000008    2.66000009
   19.90166664  132.45599365    2.64000010    2.64000010
   19.90472221  134.77099609    2.55999994    2.66000009
   19.90805435  134.58599854    2.46000004    2.66000009
   19.91110992  146.13400269    2.42000008    2.66000009
   19.91722107  146.13400269    2.26999998    2.66000009
   19.92138863  147.33399963    2.30999994    2.64000010
   19.92444420  128.03599548    2.28999996    2.66000009
   19.92777634  134.69500732    2.25000000    2.64000010
   19.93083191  143.50100708    2.26999998    2.66000009
   19.93416595  126.53199768    2.25000000    2.66000009
   19.93499947  136.09300232    2.25000000    2.66000009
   19.93777657  138.02200317    2.30999994    2.66000009
   19.94111061  137.19999695    2.40000010    2.64000010
   19.94416618  133.84500122    2.59999990    2.66000009
   19.94749832  140.42999268    2.69000006    2.66000009
   19.95055580  126.38500214    2.78999996    2.66000009
   19.95388985  129.63200378    2.76999998    2.66000009
   19.96000099  129.63200378    2.71000004    2.66000009
   19.96416664  128.98599243    2.48000002    2.64000010
   19.96722221  152.31199646    2.39000010    2.66000009
   19.96833420  140.36500549    2.39000010    2.66000009
   19.97083473  141.94400024    2.34999990    2.66000009
   19.97416687  127.36000061    2.30999994    2.64000010
   19.97722244  127.07399750    2.30999994    2.66000009
   19.98055649  131.32400513    2.21000004    2.66000009
   19.98361206  136.30200195    2.07999992    2.66000009
   19.98694420  137.79499817    1.94000006    2.64000010
   19.99027824  130.46200562    1.86000001    2.64000010
   19.99333382  141.10000610    1.78999996    2.64000010
   19.99666786  150.57699585    1.66999996    2.64000010
   20.00277710  150.57699585    1.60000002    2.64000010
   20.00694466  140.44500732    1.48000002    2.66000009
   20.01027870  135.08999634    1.36000001    2.66000009
   20.01333427  126.30100250    1.30999994    2.64000010
   20.01666641  143.70100403    1.28999996    2.66000009
   20.02000046  131.52699280    1.28999996    2.66000009
   20.02305603  132.84399414    1.28999996    2.66000009
   20.02638817  138.41200256    1.28999996    2.66000009
   20.02944374  138.18299866    1.28999996    2.66000009
   20.03277779  129.37500000    1.30999994    2.64000010
   20.03499985  133.27200317    1.30999994    2.64000010
   20.03638840  133.65499878    1.26999998    2.66000009
   20.03972244  144.39900208    1.28999996    2.64000010
   20.04555511  144.39900208    1.26999998    2.66000009
   20.04972076  140.01100159    1.23000002    2.66000009
   20.05305481  137.72900391    1.25000000    2.64000010
   20.05611038  135.58700562    1.23000002    2.66000009
   20.05944443  136.57299805    1.28999996    2.66000009
   20.06277657  139.75900269    1.30999994    2.64000010
   20.06583214  131.54699707    1.28999996    2.64000010
   20.06833458  142.28300476    1.33000004    2.64000010
   20.06944466  140.14199829    1.33000004    2.64000010
   20.07277870  132.34100342    1.33000004    2.66000009
   20.07583427  125.78199768    1.33000004    2.66000009
   20.07916832  125.69400024    1.33000004    2.66000009
   20.08250046  128.07000732    1.34000003    2.66000009
   20.08861160  128.07000732    1.38000000    2.64000010
   20.09250069  136.86399841    1.34000003    2.64000010
   20.09583473  134.30400085    1.34000003    2.64000010
   20.09916687  130.42199707    1.33000004    2.64000010
   20.10166740  127.59200287    1.34000003    2.64000010
   20.10277748  128.59899902    1.34000003    2.64000010
   20.10611153  133.06799316    1.38000000    2.66000009
   20.10916710  133.44900513    1.39999998    2.64000010
   20.11250114  141.60899353    1.41999996    2.64000010
   20.11583328  131.61399841    1.41999996    2.64000010
   20.11888885  126.47699738    1.41999996    2.64000010
   20.12222290  130.06199646    1.39999998    2.64000010
   20.12527847  128.13000488    1.39999998    2.64000010
   20.13138962  128.13000488    1.50000000    2.64000010
   20.13555527  124.38999939    1.48000002    2.64000010
   20.13861084  127.87799835    1.48000002    2.64000010
   20.14194489  130.17300415    1.48000002    2.64000010
   20.14527702  124.63700104    1.48000002    2.64000010
   20.14833260  123.87100220    1.55999994    2.61999989
   20.15166664  127.11900330    1.55999994    2.64000010
   20.15499878  123.56800079    1.53999996    2.64000010
   20.15805435  122.65200043    1.51999998    2.64000010
   20.16138840  119.59500122    1.51999998    2.64000010
   20.16444397  120.35800171    1.55999994    2.64000010
   20.16777802  125.87400055    1.55999994    2.64000010
   20.16833305  123.18299866    1.50000000    2.64000010
   20.17416573  123.18299866    1.48000002    2.64000010
   20.17833328  126.75800323    1.50000000    2.64000010
   20.18166542  123.75599670    1.50000000    2.64000010
   20.18472099  129.64100647    1.48000002    2.61999989
   20.18805504  119.15599823    1.48000002    2.61999989
   20.19111061  129.17500305    1.44000006    2.61999989
   20.19444275  124.80500031    1.46000004    2.64000010
   20.19777679  124.61599731    1.41999996    2.61999989
   20.20083427  135.23699951    1.44000006    2.64000010
   20.20166779  128.94400024    1.44000006    2.64000010
   20.20444489  127.82900238    1.48000002    2.64000010
   20.20777893  127.76899719    1.48000002    2.64000010
   20.21083450  127.57399750    1.55999994    2.64000010
   20.21694565  127.57399750    1.60000002    2.61999989
   20.22111130  126.14099884    1.64999998    2.61999989
   20.22444534  122.20099640    1.64999998    2.61999989
   20.22750092  127.29000092    1.64999998    2.61999989
   20.23083305  129.78900146    1.61000001    2.61999989
   20.23416710  124.51699829    1.63000000    2.61999989
   20.23500061  123.25700378    1.63000000    2.61999989
   20.23777771  124.95200348    1.55999994    2.61999989
   20.24111176  120.45800018    1.48000002    2.61999989
   20.24416733  126.33599854    1.41999996    2.61999989
   20.24749947  124.88200378    1.44000006    2.61999989
   20.25083351  123.01300049    1.50000000    2.61999989
   20.25388908  121.83899689    1.50000000    2.61999989
   20.26000023  121.83899689    1.55999994    2.61999989
   20.26388931  127.76899719    1.63000000    2.61999989
   20.26722145  133.46600342    1.58000004    2.61999989
   20.26833344  125.84500122    1.58000004    2.61999989
   20.27083397  124.41300201    1.66999996    2.64000010
   20.27416611  124.83200073    1.71000004    2.61999989
   20.27722168  128.43899536    1.71000004    2.61999989
   20.28055573  135.71899414    1.80999994    2.61999989
   20.28388786  123.52400208    1.80999994    2.61999989
   20.28694344  127.41500092    1.78999996    2.61999989
   20.29027748  121.40200043    1.55999994    2.61999989
   20.29333305  124.90100098    1.55999994    2.61999989
   20.29666710  121.29399872    1.55999994    2.61999989
   20.30277634  121.29399872    1.46000004    2.59999990
   20.30694389  134.65299988    1.39999998    2.61999989
   20.30999947  127.96099854    1.36000001    2.61999989
   20.31333351  130.89900208    1.39999998    2.61999989
   20.31666756  131.63800049    1.48000002    2.61999989
   20.31972313  132.87199402    1.53999996    2.59999990
   20.32305717  130.04200745    1.51999998    2.59999990
   20.32638931  131.27000427    1.51999998    2.59999990
   20.32944489  131.48100281    1.58000004    2.59999990
   20.33277893  129.85699463    1.58000004    2.59999990
   20.33500099  125.16200256    1.66999996    2.59999990
   20.33638954  127.80599976    1.66999996    2.59999990
   20.33972359  131.47200012    1.91999996    2.59999990
   20.34555626  131.47200012    2.55999994    2.59999990
   20.34972191  130.46000671    3.05999994    2.57999992
   20.35305595  123.82900238    3.21000004    2.57999992
   20.35611153  118.70400238    3.66000009    2.57999992
   20.35944557  124.62500000    3.43000007    2.57999992
   20.36250114  125.65299988    3.50000000    2.57999992
   20.36583328  118.00199890    3.32999992    2.59999990
   20.36833382  121.59500122    2.98000002    2.59999990
   20.36944389  120.32900238    2.86999989    2.59999990
   20.37277794  113.79000092    2.51999998    2.59999990
   20.37583351  118.79000092    2.51999998    2.59999990
   20.37916756  119.87400055    2.44000006    2.57999992
   20.38249969  126.74500275    2.25000000    2.59999990
   20.38833237  126.74500275    2.39000010    2.57999992
   20.39249992  122.87100220    2.00000000    2.59999990
   20.39583397  121.22299957    2.03999996    2.57999992
   20.39888954  118.77300262    1.94000006    2.57999992
   20.40166664  119.41899872    1.98000002    2.59999990
   20.40250015  129.69200134    1.94000006    2.57999992
   20.40583229  129.16600037    1.98000002    2.57999992
   20.40888786  115.91999817    1.98000002    2.57999992
   20.41222191  124.08699799    1.96000004    2.59999990
   20.41555595  120.14700317    1.86000001    2.59999990
   20.41860962  111.76000214    1.83000004    2.57999992
   20.42194366  117.50199890    1.83000004    2.57999992
   20.42527771  106.30899811    1.75000000    2.57999992
   20.43138885  106.30899811    1.80999994    2.57999992
   20.43555450  129.61000061    1.86000001    2.57999992
   20.43861008  126.04799652    1.83000004    2.59999990
   20.44194412  128.78100586    1.83000004    2.59999990
   20.44527626  128.89100647    1.83000004    2.59999990
   20.44833183  128.68499756    1.83000004    2.57999992
   20.45166779  132.82200623    1.83000004    2.57999992
   20.45499992  122.80400085    1.85000002    2.57999992
   20.45805550  126.54699707    1.88000000    2.57999992
   20.46138954  125.02300262    1.88000000    2.57999992
   20.46472359  128.46200562    1.88000000    2.57999992
   20.46777916  116.67500305    1.89999998    2.57999992
   20.46861076  125.50599670    1.94000006    2.57999992
   20.47416687  125.50599670    1.98000002    2.59999990
   20.47833443  115.02899933    1.96000004    2.57999992
   20.48139000  121.66799927    1.96000004    2.57999992
   20.48472214  122.54399872    1.96000004    2.57999992
   20.48805618  138.49699402    1.96000004    2.57999992
   20.49111176  128.06300354    1.96000004    2.57999992
   20.49444389  131.76499939    1.96000004    2.57999992
   20.49749947  128.26800537    1.96000004    2.57999992
   20.50083351  127.83499908    1.89999998    2.57999992
   20.50194359  129.11700439    1.89999998    2.57999992
   20.50472260  128.48500061    1.85000002    2.57999992
   20.50777817  131.05499268    1.85000002    2.57999992
   20.51111031  123.69100189    1.85000002    2.57999992
   20.51694489  123.69100189    1.86000001    2.57999992
   20.52111053  122.04199982    1.83000004    2.57999992
   20.52444458  129.02299500    1.80999994    2.57999992
   20.52750015  133.98100281    1.85000002    2.55999994
   20.53083229  126.96700287    1.83000004    2.57999992
   20.53416634  125.48999786    1.85000002    2.57999992
   20.53527641  122.39299774    1.85000002    2.57999992
   20.53750038  131.93600464    1.85000002    2.57999992
   20.54083252  128.80000305    1.86000001    2.57999992
   20.54388809  135.42300415    1.83000004    2.55999994
   20.54722214  132.26899719    1.80999994    2.57999992
   20.55055428  141.36900330    1.83000004    2.55999994
   20.55360985  130.18299866    1.83000004    2.55999994
   20.55972099  130.18299866    1.75000000    2.55999994
   20.56388855  126.96800232    1.75000000    2.55999994
   20.56722260  122.79399872    1.75000000    2.55999994
   20.56861115  130.71499634    1.75000000    2.55999994
   20.57083511  123.05599976    1.80999994    2.55999994
   20.57416725  125.30999756    1.86000001    2.55999994
   20.57750130  127.70200348    1.86000001    2.55999994
   20.58055687  125.20200348    1.89999998    2.55999994
   20.58388901  126.93199921    1.91999996    2.55999994
   20.58694458  132.25599670    1.89999998    2.55999994
   20.59027863  131.63800049    2.01999998    2.55999994
   20.59361267  123.70999908    1.98000002    2.55999994
   20.59666824  133.43200684    1.98000002    2.55999994
   20.60277748  133.43200684    1.75000000    2.55999994
   20.60666656  134.36900330    1.75000000    2.55999994
   20.61000061  124.93399811    1.75000000    2.55999994
   20.61333466  135.86900330    1.66999996    2.55999994
   20.61638832  134.06599426    1.69000006    2.55999994
   20.61972237  137.50999451    1.69000006    2.55999994
   20.62305641  145.13600159    1.66999996    2.55999994
   20.62611198  156.64999390    1.66999996    2.55999994
   20.62944412  160.79299927    1.64999998    2.53999996
   20.63249969  175.39700317    1.63000000    2.55999994
   20.63527679  180.08200073    1.64999998    2.55999994
   20.63611031  193.07200623    1.64999998    2.55999994
   20.63944435  173.44599915    1.64999998    2.55999994
