    HOUR (UT)   FLARE FACTOR    SKY TESTER    SUN TESTER
   11.72861099   -1.00000000   -1.00000000   -1.00000000
   11.74833393  233.18899536    0.92000002    1.73000002
   11.75361156  223.92500305    0.92000002    1.73000002
   11.75694466   -1.00000000    0.94000000    1.73000002
   11.76000023   -1.00000000    0.94000000    1.73000002
   11.76333332  220.94400024    0.94000000    1.73000002
   11.76666641  224.51400757    0.94000000    1.73000002
   11.76999950  219.43200684    0.94000000    1.75000000
   11.77305508  212.51199341    0.94000000    1.75000000
   11.77638817  218.82099915    0.94000000    1.75000000
   11.77972221  225.14199829    0.95999998    1.75000000
   11.78166676  207.60400391    0.95999998    1.75000000
   11.78305531  221.15299988    0.95999998    1.76999998
   11.78638935  217.73100281    0.95999998    1.76999998
   11.78972244  207.02900696    0.95999998    1.76999998
   11.79277802  219.67799377    0.95999998    1.76999998
   11.79611111  220.12699890    0.95999998    1.76999998
   11.79916668  219.90699768    0.95999998    1.76999998
   11.80249977  215.94200134    0.95999998    1.76999998
   11.80583382  218.06900024    0.95999998    1.76999998
   11.80888939  203.61399841    0.95999998    1.76999998
   11.81222248  204.25700378    0.95999998    1.78999996
   11.81500053  210.48500061    0.98000002    1.80999994
   11.81583309  212.86900330    0.98000002    1.80999994
   11.81916618  207.91999817    0.98000002    1.78999996
   11.82250023  212.27299500    0.95999998    1.80999994
   11.82555580  212.49499512    0.98000002    1.80999994
   11.82888889  205.12500000    0.98000002    1.80999994
   11.83222198  216.28100586    0.98000002    1.80999994
   11.83527756  205.51899719    0.98000002    1.83000004
   11.83861065  206.20100403    0.98000002    1.83000004
   11.84166622  203.96099854    0.98000002    1.83000004
   11.84499931  210.46400452    0.98000002    1.83000004
   11.84833336  202.17900085    0.98000002    1.85000002
   11.84861088  203.88699341    0.98000002    1.85000002
   11.85194492  205.86300659    0.98000002    1.85000002
   11.85527802  206.03599548    0.98000002    1.85000002
   11.85833359  205.21600342    0.98000002    1.85000002
   11.86166668  203.28399658    0.98000002    1.85000002
   11.86472225  200.90499878    0.98000002    1.85000002
   11.86805534  207.94799805    0.98000002    1.85000002
   11.87138939  207.70399475    0.98000002    1.86000001
   11.87444496  210.77000427    0.98000002    1.86000001
   11.87777805  216.22900391    0.98000002    1.86000001
   11.88111115  211.89399719    0.98000002    1.86000001
   11.88166714  197.54299927    0.98000002    1.86000001
   11.88444424  191.89199829    0.95999998    1.86000001
   11.88777733  202.77000427    0.95999998    1.88000000
   11.89111137  204.66999817    0.95999998    1.86000001
   11.89416695  204.64999390    0.95999998    1.88000000
   11.89750004  204.17599487    0.95999998    1.88000000
   11.90055561  207.57699585    0.94000000    1.88000000
   11.90388870  197.00300598    0.94000000    1.88000000
   11.90722179  194.56799316    0.94000000    1.88000000
   11.91027737  200.99899292    0.94000000    1.89999998
   11.91361046  191.00300598    0.94000000    1.89999998
   11.91499996  189.98199463    0.94000000    1.89999998
   11.91694450  192.95300293    0.94000000    1.91999996
   11.92027855  191.58599854    0.92000002    1.89999998
   11.92361164  185.40299988    0.92000002    1.91999996
   11.92666721  183.71499634    0.92000002    1.91999996
   11.93000031  192.97700500    0.92000002    1.91999996
   11.93333340  183.36599731    0.92000002    1.91999996
   11.93638897  197.05400085    0.92000002    1.91999996
   11.93972206  188.46499634    0.89999998    1.91999996
   11.94277763  195.86599731    0.89999998    1.91999996
   11.94611073  193.26499939    0.89999998    1.94000006
   11.94833374  193.52999878    0.89999998    1.94000006
   11.94999981  189.06500244    0.89999998    1.94000006
   11.95305538  194.31300354    0.89999998    1.94000006
   11.95638847  182.55900574    0.89999998    1.94000006
   11.95944405  196.25900269    0.88000000    1.94000006
   11.96277714  191.57299805    0.88000000    1.94000006
   11.96611118  194.09199524    0.88000000    1.96000004
   11.96916580  190.55099487    0.88000000    1.96000004
   11.97249985  192.16799927    0.88000000    1.96000004
   11.97583294  193.58900452    0.86000001    1.94000006
   11.97888851  192.02999878    0.86000001    1.96000004
   11.98166656  190.59599304    0.86000001    1.96000004
   11.98277760  188.78700256    0.86000001    1.96000004
   11.98611164  189.27600098    0.86000001    1.96000004
   11.98916721  191.34300232    0.86000001    1.96000004
   11.99250031  182.89399719    0.86000001    1.98000002
   11.99583340  185.41999817    0.83999997    1.98000002
   11.99888897  182.52400208    0.83999997    1.98000002
   12.00222206  188.39300537    0.83999997    2.00000000
   12.00555515  194.68899536    0.83999997    1.98000002
   12.00861073  195.47099304    0.83999997    1.98000002
   12.01194477  201.05200195    0.83999997    1.98000002
   12.01500034  193.58399963    0.81999999    2.00000000
   12.01555538  190.21000671    0.81999999    2.00000000
   12.01861095  189.04899597    0.81999999    2.00000000
   12.02194405  186.24299622    0.81999999    2.00000000
   12.02527714  198.85899353    0.81999999    2.00000000
   12.02833271  182.63400269    0.81999999    2.01999998
   12.03166676  182.67599487    0.80000001    2.00000000
   12.03472233  184.15100098    0.80000001    2.00000000
   12.03805637  188.98300171    0.80000001    2.01999998
   12.04138947  190.26600647    0.80000001    2.01999998
   12.04444504  181.74400330    0.80000001    2.01999998
   12.04777813  181.93299866    0.80000001    2.01999998
   12.04833412  196.61599731    0.80000001    2.01999998
   12.05138874  184.98800659    0.79000002    2.03999996
   12.05444431  190.92799377    0.79000002    2.03999996
   12.05777836  180.64799500    0.79000002    2.03999996
   12.06111145  184.95700073    0.79000002    2.03999996
   12.06416702  181.68499756    0.79000002    2.03999996
   12.06750011  187.15600586    0.79000002    2.03999996
   12.07083321  181.36000061    0.79000002    2.03999996
   12.07388878  187.60499573    0.79000002    2.03999996
   12.07722187  191.80799866    0.79000002    2.05999994
   12.08027744  182.66099548    0.79000002    2.05999994
   12.08166695  179.90299988    0.79000002    2.05999994
   12.08388901  183.24600220    0.76999998    2.05999994
   12.08722210  177.52299500    0.76999998    2.07999992
   12.09055519  179.47599792    0.76999998    2.07999992
   12.09361076  177.63000488    0.76999998    2.05999994
   12.09694386  183.44099426    0.76999998    2.07999992
   12.10027790  178.65400696    0.76999998    2.07999992
   12.10333347  180.66000366    0.76999998    2.07999992
   12.10666752  176.63299561    0.76999998    2.07999992
   12.11000061  173.63699341    0.76999998    2.07999992
   12.11305618  174.01600647    0.76999998    2.07999992
   12.11500072  179.89199829    0.76999998    2.07999992
   12.11666679  174.64199829    0.75000000    2.07999992
   12.11999989  177.57000732    0.75000000    2.09999990
   12.12333393  177.82600403    0.75000000    2.07999992
   12.12638855  179.53599548    0.75000000    2.07999992
   12.12972260  179.31100464    0.75000000    2.09999990
   12.13305569  168.82200623    0.75000000    2.09999990
   12.13611126  189.15400696    0.75000000    2.09999990
   12.13944435  191.75199890    0.75000000    2.09999990
   12.14249992  182.57699585    0.75000000    2.09999990
   12.14583302  203.28599548    0.75000000    2.09999990
   12.14833355  200.07099915    0.75000000    2.09999990
   12.14944458  192.10299683    0.75000000    2.09999990
   12.15277767  192.67399597    0.75000000    2.09999990
   12.15611076  179.52799988    0.75000000    2.09999990
   12.15916634  194.95700073    0.73000002    2.09999990
   12.16249943  187.74600220    0.73000002    2.11999989
   12.16583252  189.09800720    0.73000002    2.11999989
   12.16888905  177.80599976    0.73000002    2.11999989
   12.17222214  171.13900757    0.73000002    2.11999989
   12.17555618  174.27999878    0.73000002    2.11999989
   12.17861176  175.12500000    0.73000002    2.11999989
   12.18166733  181.32299805    0.73000002    2.11999989
   12.18249989  183.39700317    0.73000002    2.11999989
   12.18555546  180.77699280    0.73000002    2.11999989
   12.18888855  168.76300049    0.73000002    2.11999989
   12.19194412  185.00300598    0.70999998    2.13000011
   12.19527817  178.81900024    0.70999998    2.13000011
   12.19861126  167.74499512    0.70999998    2.13000011
   12.20166683  174.20599365    0.70999998    2.13000011
   12.20499992  181.83099365    0.70999998    2.13000011
   12.20833302  177.23300171    0.70999998    2.13000011
   12.21138859  172.37500000    0.70999998    2.13000011
   12.21472168  180.38400269    0.70999998    2.13000011
   12.21527767  178.75100708    0.70999998    2.13000011
   12.21833324  175.55900574    0.70999998    2.13000011
   12.22166634  184.58799744    0.70999998    2.15000010
   12.22472191  184.47300720    0.70999998    2.15000010
   12.22805500  187.48300171    0.70999998    2.15000010
   12.23138809  179.25000000    0.69000000    2.15000010
   12.23444462  180.32400513    0.69000000    2.15000010
   12.23777771  176.62899780    0.69000000    2.15000010
   12.24111176  169.66099548    0.69000000    2.17000008
   12.24416733  174.41299438    0.69000000    2.15000010
   12.24750042  173.34700012    0.69000000    2.15000010
   12.24833393  175.52900696    0.69000000    2.15000010
   12.25111103  165.03399658    0.69000000    2.15000010
   12.25444412  167.36000061    0.69000000    2.15000010
   12.25749969  167.41999817    0.69000000    2.17000008
   12.26083374  176.46899414    0.67000002    2.17000008
   12.26416683  167.51600647    0.69000000    2.17000008
   12.26722240  175.39199829    0.69000000    2.17000008
   12.27055550  170.69700623    0.69000000    2.17000008
   12.27388859  166.83000183    0.69000000    2.17000008
   12.27694416  174.81599426    0.67000002    2.17000008
   12.28027725  173.12199402    0.67000002    2.17000008
   12.28166676  165.36000061    0.67000002    2.17000008
   12.28388977  168.69299316    0.67000002    2.17000008
   12.28722286  167.50000000    0.67000002    2.17000008
   12.29027843  176.96600342    0.67000002    2.19000006
   12.29361153  167.94700623    0.67000002    2.19000006
   12.29694462  167.99299622    0.67000002    2.19000006
   12.30000019  174.53100586    0.67000002    2.19000006
   12.30333328  171.84899902    0.64999998    2.19000006
   12.30638885  172.61599731    0.64999998    2.19000006
   12.30972195  172.88999939    0.64999998    2.21000004
   12.31305599  169.89100647    0.64999998    2.21000004
   12.31500053  172.59399414    0.64999998    2.19000006
   12.31666660  164.87199402    0.64999998    2.19000006
   12.31999969  166.59700012    0.64999998    2.19000006
   12.32305527  168.63200378    0.64999998    2.21000004
   12.32638836  160.31799316    0.64999998    2.21000004
   12.32972240  168.02600098    0.64999998    2.21000004
   12.33277798  166.94700623    0.64999998    2.21000004
   12.33611107  173.58299255    0.63000000    2.21000004
   12.33944416  167.50100708    0.63000000    2.21000004
   12.34249973  164.17100525    0.63000000    2.21000004
   12.34583282  162.48100281    0.63000000    2.21000004
   12.34833336  158.01699829    0.63000000    2.21000004
   12.34944439  169.27699280    0.63000000    2.21000004
   12.35277843  161.14799500    0.63000000    2.21000004
   12.35583401  167.08599854    0.63000000    2.23000002
   12.35916710  165.78100586    0.63000000    2.23000002
   12.36250019  172.91799927    0.63000000    2.23000002
   12.36555576  169.17199707    0.63000000    2.23000002
   12.36888885  166.70100403    0.63000000    2.23000002
   12.37194443  167.67399597    0.63000000    2.23000002
   12.37527752  171.09500122    0.63000000    2.23000002
   12.37861156  164.59899902    0.63000000    2.23000002
   12.38166714  180.39399719    0.63000000    2.23000002
   12.38222218  180.62800598    0.63000000    2.23000002
   12.38555527  176.14999390    0.61000001    2.23000002
   12.38861084  216.92399597    0.61000001    2.23000002
   12.39194393  206.22200012    0.61000001    2.23000002
   12.39527798  173.16900635    0.61000001    2.23000002
   12.39833355  179.95599365    0.61000001    2.25000000
   12.40166664  200.32800293    0.61000001    2.25000000
   12.40499973  175.47399902    0.61000001    2.25000000
   12.40805531  171.62600708    0.61000001    2.25000000
   12.41138840  232.62899780    0.61000001    2.25000000
   12.41444397  202.09399414    0.61000001    2.25000000
   12.41583252  193.30200195    0.61000001    2.25000000
   12.41833401  218.78700256    0.61000001    2.25000000
   12.42166710  243.31399536    0.61000001    2.25000000
   12.42500019  217.10400391    0.61000001    2.25000000
   12.42805576  214.00900269    0.61000001    2.25000000
   12.43138885  225.32099915    0.61000001    2.26999998
   12.43472195  315.71701050    0.61000001    2.25000000
   12.43777752  356.63800049    0.61000001    2.25000000
   12.44111156  383.49899292    0.61000001    2.26999998
   12.44444466  302.93499756    0.61000001    2.26999998
   12.44750023  384.27499390    0.58999997    2.26999998
   12.44888878  362.23999023    0.58999997    2.26999998
   12.45138836  323.49499512    0.58999997    2.26999998
   12.45444393  334.98999023    0.61000001    2.26999998
   12.45777798  299.84298706    0.61000001    2.26999998
   12.46111107  408.65399170    0.58999997    2.26999998
   12.46305561  426.45498657    0.58999997    2.26999998
   12.46416664  348.70199585    0.58999997    2.26999998
   12.46444416  408.65399170    0.58999997    2.26999998
   12.46444416  315.71701050    0.61000001    2.25000000
   12.46444416  356.63800049    0.61000001    2.25000000
   12.46444416  383.49899292    0.61000001    2.26999998
   12.46444416  302.93499756    0.61000001    2.26999998
   12.46472168  384.27499390    0.58999997    2.26999998
   12.46472168  323.49499512    0.58999997    2.26999998
   12.46472168  334.98999023    0.61000001    2.26999998
   12.46472168  299.84298706    0.61000001    2.26999998
   12.46555519  329.94299316    0.58999997    2.26999998
   12.46888828  338.23001099    0.58999997    2.26999998
   12.47222137  288.56900024    0.58999997    2.26999998
   12.47527695  268.10198975    0.58999997    2.28999996
   12.47861099  269.31600952    0.58999997    2.28999996
   12.48500061  269.31600952    0.58999997    2.26999998
   12.48916721  273.89700317    0.58999997    2.28999996
   12.49250031  265.72601318    0.58999997    2.28999996
   12.49555588  284.91900635    0.58999997    2.28999996
   12.49805546  263.44100952    0.58999997    2.28999996
   12.49916649  271.09100342    0.58999997    2.28999996
   12.50222206  326.88598633    0.58999997    2.28999996
   12.50555515  237.31900024    0.58999997    2.28999996
   12.50888920  285.13699341    0.58999997    2.28999996
   12.51194477  244.71699524    0.58999997    2.28999996
   12.51527786  255.79400635    0.58999997    2.30999994
   12.51861095  265.83099365    0.58999997    2.30999994
   12.52166653  243.99800110    0.58999997    2.30999994
   12.52777767  243.99800110    0.56999999    2.30999994
   12.53194427  256.19198608    0.56999999    2.30999994
   12.53527832  196.89300537    0.56999999    2.30999994
   12.53861141  210.78399658    0.56999999    2.30999994
   12.54166698  221.10899353    0.56999999    2.30999994
   12.54500008  212.92100525    0.56999999    2.30999994
   12.54833412  227.00700378    0.56999999    2.30999994
   12.55138874  220.78399658    0.56999999    2.30999994
   12.55472279  208.45899963    0.56999999    2.30999994
   12.55777836  190.82800293    0.56999999    2.30999994
   12.56111145  171.32000732    0.56999999    2.30999994
   12.56444454  187.61099243    0.56999999    2.30999994
   12.56500053  170.08799744    0.56999999    2.30999994
   12.57083321  170.08799744    0.55000001    2.32999992
   12.57499981  206.04499817    0.55000001    2.32999992
   12.57805538  198.27000427    0.55000001    2.32999992
   12.58138847  174.10099792    0.55000001    2.32999992
   12.58472157  167.58700562    0.55000001    2.32999992
   12.58777714  173.33599854    0.55000001    2.30999994
   12.59111118  191.62100220    0.55000001    2.32999992
   12.59416676  163.52299500    0.55000001    2.32999992
   12.59749985  158.37899780    0.55000001    2.32999992
   12.59833336  169.11300659    0.55000001    2.32999992
   12.60111141  158.36799622    0.55000001    2.32999992
   12.60444450  154.31300354    0.55000001    2.32999992
   12.60777855  154.15499878    0.55000001    2.32999992
   12.61361122  154.15499878    0.52999997    2.32999992
   12.61777782  167.08399963    0.52999997    2.34999990
   12.62083340  166.95300293    0.52999997    2.32999992
   12.62416649  162.94400024    0.52999997    2.34999990
   12.62750053  163.73599243    0.52999997    2.34999990
   12.63055611  163.92100525    0.52999997    2.34999990
   12.63166714  161.35099792    0.52999997    2.34999990
   12.63416672  158.61399841    0.52999997    2.34999990
   12.63749981  166.49200439    0.52999997    2.34999990
   12.64083290  171.93899536    0.52999997    2.34999990
   12.64388847  170.97599792    0.52999997    2.34999990
   12.64722252  161.67399597    0.52999997    2.34999990
   12.65055561  176.04200745    0.52999997    2.34999990
   12.65638828  176.04200745    0.52999997    2.34999990
   12.66055489  163.84700012    0.52999997    2.34999990
   12.66388893  198.21800232    0.52999997    2.36999989
   12.66499996  173.12199402    0.52999997    2.36999989
   12.66722298  187.59599304    0.52999997    2.34999990
   12.67055607  177.48100281    0.52999997    2.34999990
   12.67361164  182.50900269    0.52999997    2.36999989
   12.67694473  162.81799316    0.52999997    2.36999989
   12.68027782  161.16999817    0.52999997    2.36999989
   12.68333340  169.86900330    0.52999997    2.34999990
   12.68666649  166.16200256    0.52999997    2.36999989
   12.69000053  163.69900513    0.52999997    2.36999989
   12.69305515  157.20899963    0.52999997    2.36999989
   12.69916630  157.20899963    0.52999997    2.36999989
   12.70333290  166.02600098    0.52999997    2.36999989
   12.70666695  158.41000366    0.52999997    2.36999989
   12.71000004  169.63200378    0.52999997    2.36999989
   12.71305561  155.45799255    0.52999997    2.36999989
   12.71638870  150.27200317    0.52999997    2.39000010
   12.71944427  154.60400391    0.51999998    2.39000010
   12.72277737  153.32899475    0.51999998    2.39000010
   12.72611046  156.62399292    0.52999997    2.36999989
   12.72916603  155.84100342    0.51999998    2.39000010
   12.73166656  156.22200012    0.51999998    2.39000010
   12.73277760  158.25199890    0.51999998    2.39000010
   12.73611164  160.57400513    0.51999998    2.39000010
   12.74222279  160.57400513    0.51999998    2.39000010
   12.74638939  156.85499573    0.51999998    2.39000010
   12.76500034  157.59500122    0.51999998    2.39000010
   12.76611137  155.89599609    0.51999998    2.39000010
   12.76916599  159.64399719    0.51999998    2.39000010
   12.77250004  161.09899902    0.51999998    2.39000010
   12.77583313  168.20300293    0.51999998    2.39000010
   12.77888870  159.15299988    0.51999998    2.39000010
   12.78527832  159.15299988    0.51999998    2.40000010
   12.78916740  158.41299438    0.51999998    2.39000010
   12.79250050  166.17799377    0.51999998    2.39000010
   12.79583359  162.40100098    0.51999998    2.39000010
   12.79833412  165.27099609    0.51999998    2.39000010
   12.79916668  154.39700317    0.51999998    2.39000010
   12.80249977  153.30400085    0.50000000    2.40000010
   12.80583382  152.04400635    0.50000000    2.40000010
   12.80888939  160.83799744    0.51999998    2.40000010
   12.81222248  157.55099487    0.50000000    2.40000010
   12.81555557  159.87199402    0.50000000    2.40000010
   12.81861115  177.99299622    0.50000000    2.40000010
   12.82194424  163.58000183    0.50000000    2.40000010
   12.82805538  163.58000183    0.50000000    2.40000010
   12.83249950  155.32699585    0.50000000    2.40000010
   12.83555508  158.07299805    0.50000000    2.40000010
   12.83888817  158.96400452    0.50000000    2.40000010
   12.84222221  154.83500671    0.50000000    2.40000010
   12.84527779  154.35600281    0.50000000    2.40000010
   12.84861088  156.99699402    0.50000000    2.40000010
   12.85194492  160.89300537    0.50000000    2.40000010
   12.85500050  158.98599243    0.50000000    2.42000008
   12.85833359  155.91099548    0.50000000    2.42000008
   12.86138916  158.18099976    0.50000000    2.42000008
   12.86472225  159.72799683    0.50000000    2.40000010
   12.86527824  158.64199829    0.50000000    2.40000010
   12.87111092  158.64199829    0.50000000    2.42000008
   12.87527752  155.30000305    0.50000000    2.42000008
   12.87861156  161.81199646    0.47999999    2.42000008
   12.88166714  166.09700012    0.50000000    2.42000008
   12.88500023  186.08399963    0.50000000    2.42000008
   12.88833332  180.23500061    0.50000000    2.42000008
   12.89138889  195.53199768    0.50000000    2.42000008
   12.89472198  202.74800110    0.47999999    2.42000008
   12.89805508  174.26499939    0.47999999    2.42000008
   12.89861107  187.83200073    0.47999999    2.42000008
   12.90166664  175.30900574    0.47999999    2.42000008
   12.90472221  188.76800537    0.47999999    2.42000008
   12.90805531  198.21400452    0.47999999    2.42000008
   12.91388893  198.21400452    0.47999999    2.42000008
   12.91805553  185.42599487    0.47999999    2.42000008
   12.92138958  170.78300476    0.47999999    2.42000008
   12.92472267  190.55999756    0.50000000    2.44000006
   12.92777824  197.80000305    0.47999999    2.42000008
   12.93111134  184.30499268    0.47999999    2.42000008
   12.93194485  172.66600037    0.47999999    2.42000008
   12.93472195  191.37899780    0.47999999    2.42000008
   12.93777752  178.47200012    0.47999999    2.42000008
   12.94111156  182.15600586    0.47999999    2.44000006
   12.94444466  158.92799377    0.47999999    2.44000006
   12.94750023  166.19099426    0.47999999    2.44000006
   12.95083332  181.01400757    0.47999999    2.44000006
   12.95694447  181.01400757    0.47999999    2.44000006
   12.96083355  199.36999512    0.47999999    2.44000006
   12.96416664  188.25999451    0.47999999    2.44000006
   12.96527767  193.32400513    0.47999999    2.44000006
   12.96777725  188.47500610    0.47999999    2.44000006
   12.97083282  195.62300110    0.47999999    2.44000006
   12.97416592  205.84100342    0.47999999    2.44000006
   12.97722149  216.61900330    0.47999999    2.44000006
   12.98055553  187.45300293    0.47999999    2.44000006
   12.98388958  187.92300415    0.47999999    2.44000006
   12.98694515  189.11199951    0.47999999    2.44000006
   12.99027824  212.43600464    0.47999999    2.44000006
   12.99361134  203.77900696    0.47999999    2.44000006
   12.99972248  203.77900696    0.47999999    2.44000006
   13.00388908  220.84500122    0.47999999    2.44000006
   13.00694466  215.27000427    0.47999999    2.46000004
   13.01027775  211.04800415    0.47999999    2.46000004
   13.01361084  201.52299500    0.47999999    2.46000004
   13.01666641  213.61999512    0.47999999    2.46000004
   13.01999950  214.66200256    0.47999999    2.46000004
   13.02305508  195.87800598    0.47999999    2.46000004
   13.02638817  181.46699524    0.47999999    2.46000004
   13.02972221  208.62800598    0.47999999    2.46000004
   13.03194427  197.08099365    0.47999999    2.46000004
   13.03333378  210.49699402    0.47999999    2.46000004
   13.03638935  190.78100586    0.47999999    2.46000004
   13.04250050  190.78100586    0.47999999    2.46000004
   13.04666710  206.81500244    0.46000001    2.46000004
   13.05000019  186.06900024    0.46000001    2.46000004
   13.05305576  199.60699463    0.46000001    2.46000004
   13.05638885  200.28500366    0.46000001    2.46000004
   13.05972195  196.43600464    0.46000001    2.46000004
   13.06277752  194.51899719    0.46000001    2.46000004
   13.06527805  182.60200500    0.46000001    2.46000004
   13.06666660  200.64399719    0.46000001    2.46000004
   13.06972218  196.84199524    0.46000001    2.46000004
   13.07305527  184.07899475    0.46000001    2.46000004
   13.07611084  215.41099548    0.46000001    2.46000004
   13.07944393  182.32699585    0.46000001    2.46000004
   13.08555508  182.32699585    0.44000000    2.46000004
   13.08972168  199.06700134    0.46000001    2.48000002
   13.09277725  173.36099243    0.46000001    2.48000002
   13.09611034  188.14700317    0.46000001    2.48000002
   13.09861088  198.77799988    0.46000001    2.48000002
   13.09972191  222.93899536    0.46000001    2.46000004
   13.10277843  181.86900330    0.46000001    2.48000002
   13.10611153  183.63800049    0.46000001    2.48000002
   13.10916710  168.58700562    0.46000001    2.48000002
   13.11250019  166.85899353    0.46000001    2.48000002
   13.11583328  198.06900024    0.46000001    2.48000002
   13.11888885  182.97700500    0.46000001    2.48000002
   13.12222195  180.46200562    0.46000001    2.46000004
   13.12833309  180.46200562    0.46000001    2.48000002
   13.13249969  194.27499390    0.46000001    2.48000002
   13.13555527  198.94099426    0.46000001    2.48000002
   13.13888836  183.21099854    0.46000001    2.48000002
   13.14194393  186.75100708    0.46000001    2.48000002
   13.14527798  164.97200012    0.46000001    2.48000002
   13.14861107  180.47000122    0.46000001    2.48000002
   13.15166664  189.49699402    0.46000001    2.48000002
   13.15499973  162.10000610    0.46000001    2.48000002
   13.15833282  175.96800232    0.46000001    2.48000002
   13.16138840  175.22300720    0.46000001    2.48000002
   13.16472149  178.68699646    0.46000001    2.48000002
   13.16527748  179.97200012    0.46000001    2.48000002
   13.17111111  179.97200012    0.46000001    2.50000000
   13.17527771  179.84899902    0.46000001    2.50000000
   13.17833328  187.07099915    0.44000000    2.50000000
   13.18166733  167.45599365    0.46000001    2.50000000
   13.18500042  184.69700623    0.46000001    2.48000002
   13.18805599  185.02299500    0.46000001    2.48000002
   13.19138908  165.21600342    0.46000001    2.50000000
   13.19472218  169.58099365    0.46000001    2.50000000
   13.19777775  182.46699524    0.46000001    2.50000000
   13.19861126  198.73100281    0.46000001    2.50000000
   13.20166683  158.77499390    0.46000001    2.50000000
   13.20472240  177.53300476    0.46000001    2.50000000
   13.20805550  171.25500488    0.46000001    2.50000000
   13.21388912  171.25500488    0.46000001    2.50000000
   13.21805477  179.98100281    0.46000001    2.50000000
   13.22138882  176.68299866    0.44000000    2.50000000
   13.22444439  179.13600159    0.44000000    2.50000000
   13.22777748  174.88600159    0.44000000    2.50000000
   13.23111057  184.71899414    0.44000000    2.50000000
   13.23194408  177.07200623    0.44000000    2.50000000
   13.23472214  171.71400452    0.44000000    2.50000000
   13.23777771  173.28500366    0.44000000    2.50000000
   13.24111176  172.61999512    0.44000000    2.50000000
   13.24416733  153.75999451    0.44000000    2.51999998
   13.24750042  159.26800537    0.44000000    2.51999998
   13.25083351  156.46000671    0.44000000    2.51999998
   13.25666714  156.46000671    0.44000000    2.50000000
   13.26083374  164.80000305    0.44000000    2.51999998
   13.26416683  168.08399963    0.44000000    2.51999998
   13.26527786  154.11399841    0.44000000    2.51999998
   13.26777744  152.72999573    0.44000000    2.51999998
   13.27083302  155.96499634    0.44000000    2.50000000
   13.27416611  148.32099915    0.44000000    2.51999998
   13.27750015  155.21699524    0.44000000    2.51999998
   13.28055573  160.85800171    0.44000000    2.51999998
   13.28388977  149.39500427    0.44000000    2.51999998
   13.28694534  151.42599487    0.44000000    2.51999998
   13.29027843  157.17599487    0.44000000    2.51999998
   13.29361153  145.36099243    0.44000000    2.51999998
   13.29972267  145.36099243    0.44000000    2.51999998
   13.30388927  151.17900085    0.44000000    2.51999998
   13.30694485  157.69400024    0.44000000    2.51999998
   13.31027794  148.85099792    0.44000000    2.51999998
   13.31361103  169.82099915    0.44000000    2.51999998
   13.31666660  158.36000061    0.44000000    2.51999998
   13.31999969  148.87899780    0.44000000    2.51999998
   13.32333374  150.01400757    0.41999999    2.51999998
   13.32638836  150.09599304    0.44000000    2.51999998
   13.32972240  155.11099243    0.44000000    2.51999998
   13.33194447  145.84300232    0.44000000    2.53999996
   13.33333302  146.24200439    0.44000000    2.53999996
   13.33638859  156.01800537    0.44000000    2.53999996
   13.44361115   -1.00000000   -1.00000000   -1.00000000
   13.54194450   -1.00000000   -1.00000000   -1.00000000
   13.64444447   -1.00000000   -1.00000000   -1.00000000
   13.68583298  107.67700195    0.40000001    2.57999992
   13.68916702  148.14300537    0.40000001    2.57999992
   13.69222260  139.36199951    0.40000001    2.57999992
   13.69555569  145.85200500    0.40000001    2.57999992
   13.69888878  154.52400208    0.40000001    2.59999990
   13.70194435  152.08500671    0.40000001    2.59999990
   13.70611095  152.08500671    0.40000001    2.57999992
   13.71027756  155.10299683    0.40000001    2.59999990
   13.71361065  157.00500488    0.40000001    2.59999990
   13.71666622  146.15699768    0.40000001    2.57999992
   13.71916580  152.36999512    0.40000001    2.57999992
   13.72027779  153.94900513    0.40000001    2.57999992
   13.72361088  150.70399475    0.40000001    2.59999990
   13.72694397  147.24000549    0.40000001    2.59999990
   13.72999954  147.27600098    0.40000001    2.57999992
   13.73333359  144.27200317    0.40000001    2.59999990
   13.73666668  141.96600342    0.41999999    2.57999992
   13.73972225  152.05000305    0.41999999    2.57999992
   13.74305534  147.05599976    0.41999999    2.59999990
   13.74888897  147.05599976    0.40000001    2.59999990
   13.75305557  148.97300720    0.41999999    2.59999990
   13.75638866  146.53199768    0.41999999    2.57999992
   13.75944424  139.24499512    0.41999999    2.59999990
   13.76277733  142.71200562    0.41999999    2.59999990
   13.76611137  149.95799255    0.41999999    2.59999990
   13.76916599  148.90800476    0.41999999    2.57999992
   13.77250004  150.77799988    0.40000001    2.59999990
   13.77583313  150.05900574    0.40000001    2.59999990
   13.77888870  152.29299927    0.40000001    2.59999990
   13.78222179  149.64799500    0.40000001    2.59999990
   13.78527832  163.97700500    0.40000001    2.57999992
   13.78583336  149.35400391    0.40000001    2.57999992
   13.79166698  149.35400391    0.40000001    2.59999990
   13.79583359  155.36700439    0.40000001    2.59999990
   13.79916668  144.97599792    0.40000001    2.59999990
   13.80249977  147.29699707    0.40000001    2.59999990
   13.80555534  152.93499756    0.40000001    2.59999990
   13.80888939  143.71899414    0.40000001    2.59999990
   13.81222248  147.55599976    0.40000001    2.59999990
   13.81527805  153.15600586    0.40000001    2.59999990
   13.81861115  144.66400146    0.40000001    2.59999990
   13.81916618  162.79299927    0.40000001    2.59999990
   13.82222176  151.97900391    0.40000001    2.59999990
   13.82527733  148.08700562    0.40000001    2.57999992
   13.82861137  147.47200012    0.40000001    2.59999990
   13.83472157  147.47200012    0.40000001    2.59999990
   13.83888817  162.54800415    0.40000001    2.59999990
   13.84194374  158.30000305    0.40000001    2.59999990
   13.84527779  161.22300720    0.40000001    2.59999990
   13.84861088  156.06799316    0.41999999    2.59999990
   13.85166740  165.03500366    0.41999999    2.59999990
   13.85249996  146.06399536    0.41999999    2.59999990
   13.85527802  167.07299805    0.40000001    2.59999990
   13.85861111  163.87699890    0.40000001    2.59999990
   13.86166668  147.71800232    0.40000001    2.59999990
   13.86500072  153.35800171    0.40000001    2.61999989
   13.86833382  155.10699463    0.40000001    2.61999989
   13.87138939  162.26199341    0.40000001    2.61999989
   13.87750053  162.26199341    0.40000001    2.61999989
   13.88166714  147.02200317    0.40000001    2.59999990
   13.88472176  144.56599426    0.41999999    2.59999990
   13.88583279  146.57400513    0.41999999    2.59999990
   13.88833332  142.91499329    0.41999999    2.59999990
   13.89166641  146.09500122    0.41999999    2.59999990
   13.89472198  141.56300354    0.40000001    2.59999990
   13.89805508  149.56399536    0.40000001    2.59999990
   13.90111065  146.07099915    0.41999999    2.59999990
   13.90444374  145.56700134    0.41999999    2.61999989
   13.90777779  141.74299622    0.40000001    2.61999989
   13.91083336  147.48300171    0.41999999    2.61999989
   13.91416645  142.30900574    0.41999999    2.61999989
   13.92027855  142.30900574    0.41999999    2.59999990
   13.92444515  145.11900330    0.44000000    2.61999989
   13.92777824  146.03700256    0.47999999    2.61999989
   13.93083382  144.58599854    0.47999999    2.61999989
   13.93416691  148.67399597    0.47999999    2.61999989
   13.93750000  145.61000061    0.47999999    2.61999989
   13.94055557  145.56900024    0.47999999    2.61999989
   13.94388866  150.00700378    0.47999999    2.61999989
   13.94722271  141.94599915    0.46000001    2.61999989
   13.95027733  144.65800476    0.44000000    2.61999989
   13.95249939  150.14100647    0.44000000    2.61999989
   13.95388889  139.87100220    0.44000000    2.59999990
   13.95722198  145.47000122    0.44000000    2.59999990
   13.96333313  145.47000122    0.44000000    2.59999990
   13.96722221  145.21899414    0.44000000    2.61999989
   13.97055531  143.41499329    0.44000000    2.61999989
   13.97388840  139.89399719    0.44000000    2.61999989
   13.97694397  145.90499878    0.44000000    2.59999990
   13.98027706  149.18099976    0.44000000    2.61999989
   13.98361111  141.47500610    0.41999999    2.61999989
   13.98583317  143.48699951    0.41999999    2.61999989
   13.98722267  145.04600525    0.41999999    2.61999989
   13.99055576  151.79899597    0.41999999    2.61999989
   13.99361134  139.16499329    0.41999999    2.59999990
   13.99694443  145.17599487    0.41999999    2.61999989
   14.00000000  142.65699768    0.41999999    2.61999989
   14.00611115  142.65699768    0.41999999    2.61999989
   14.01027775  142.67799377    0.41999999    2.61999989
   14.01333332  146.61799622    0.41999999    2.61999989
   14.01666641  142.34599304    0.41999999    2.61999989
   14.01916599  143.11399841    0.40000001    2.61999989
   14.02027798  141.56799316    0.40000001    2.61999989
   14.02361107  144.27799988    0.40000001    2.61999989
   14.02666664  139.96099854    0.40000001    2.61999989
   14.02999973  147.49899292    0.40000001    2.61999989
   14.03333378  141.05799866    0.40000001    2.61999989
   14.03638935  143.11599731    0.40000001    2.61999989
   14.03972244  144.26699829    0.40000001    2.61999989
   14.04277802  139.96299744    0.40000001    2.61999989
   14.04888916  139.96299744    0.40000001    2.61999989
   14.05305576  138.36700439    0.40000001    2.61999989
   14.05638885  140.41700745    0.41999999    2.61999989
   14.05944443  141.90800476    0.41999999    2.61999989
   14.06277752  164.64199829    0.41999999    2.61999989
   14.06583309  147.67900085    0.41999999    2.61999989
   14.06916618  151.88299561    0.41999999    2.61999989
   14.07250023  156.15699768    0.41999999    2.61999989
   14.07555580  168.62600708    0.41999999    2.61999989
   14.07888889  159.24400330    0.41999999    2.61999989
   14.08222198  155.16999817    0.44000000    2.61999989
   14.08527756  156.07000732    0.44000000    2.61999989
   14.08583260  154.98699951    0.44000000    2.61999989
   14.09166622  154.98699951    0.50000000    2.61999989
   14.09583282  155.17799377    0.55000001    2.61999989
   14.09916592  156.18299866    0.61000001    2.61999989
   14.10222244  161.70599365    0.64999998    2.64000010
   14.10555553  154.38099670    0.64999998    2.61999989
   14.10888958  155.02400208    0.64999998    2.61999989
   14.11194515  160.70599365    0.58999997    2.64000010
   14.11527824  165.10299683    0.61000001    2.64000010
   14.11861134  153.41600037    0.70999998    2.61999989
   14.11916637  159.24299622    0.70999998    2.61999989
   14.12222195  154.34800720    0.79000002    2.64000010
   14.12555599  154.82699585    0.89999998    2.64000010
   14.12861156  144.70599365    0.92000002    2.61999989
   14.13444424  144.70599365    0.92000002    2.61999989
   14.13861084  156.24600220    1.03999996    2.61999989
   14.14194393  168.29600525    1.09000003    2.61999989
   14.14527798  150.95599365    0.89999998    2.61999989
   14.14833355  160.06199646    0.76999998    2.61999989
   14.15166664  157.58599854    0.76999998    2.64000010
   14.15249920  154.53199768    0.76999998    2.64000010
   14.15527725  171.71099854    0.80000001    2.61999989
   14.15861034  155.44799805    0.81999999    2.61999989
   14.16166592  169.13600159    0.81999999    2.61999989
   14.16499996  170.94099426    0.81999999    2.64000010
   14.16833401  151.77400208    0.83999997    2.61999989
   14.17138958  164.47300720    0.86000001    2.64000010
   14.17750072  164.47300720    0.83999997    2.64000010
   14.18166733  170.07600403    0.81999999    2.64000010
   14.18472195  150.96600342    0.81999999    2.64000010
   14.18583298  157.58200073    0.80000001    2.64000010
   14.18833351  174.29699707    0.80000001    2.64000010
   14.19166660  155.00399780    0.79000002    2.61999989
   14.19472218  157.07200623    0.75000000    2.64000010
   14.19805527  163.25300598    0.73000002    2.64000010
   14.20138836  158.86300659    0.70999998    2.64000010
   14.20444393  154.49099731    0.69000000    2.64000010
   14.20777798  156.70899963    0.69000000    2.64000010
   14.21111107  152.62600708    0.70999998    2.64000010
   14.21416664  148.12600708    0.70999998    2.64000010
   14.22027779  148.12600708    0.70999998    2.64000010
   14.22444439  153.74600220    0.67000002    2.64000010
   14.22749996  172.35000610    0.64999998    2.64000010
   14.23083305  164.57899475    0.63000000    2.64000010
   14.23416710  156.82299805    0.63000000    2.64000010
   14.23722267  153.60800171    0.63000000    2.64000010
   14.24055576  153.14799500    0.61000001    2.64000010
   14.24388885  145.88900757    0.61000001    2.64000010
   14.24694443  156.77999878    0.61000001    2.64000010
   14.25027752  162.91799927    0.64999998    2.64000010
   14.25249958  156.10899353    0.67000002    2.64000010
   14.25388908  154.49899292    0.67000002    2.64000010
   14.25722218  161.99200439    0.69000000    2.64000010
   14.26305580  161.99200439    0.70999998    2.66000009
   14.26722240  156.24400330    0.70999998    2.66000009
   14.27055550  168.79400635    0.70999998    2.66000009
   14.27361107  151.20500183    0.70999998    2.66000009
   14.27694416  167.48899841    0.69000000    2.66000009
   14.28027725  147.74000549    0.69000000    2.66000009
   14.28333378  152.96499634    0.63000000    2.66000009
   14.28583336  149.02200317    0.61000001    2.66000009
   14.28694534  161.56300354    0.61000001    2.66000009
   14.29027843  144.39300537    0.56999999    2.66000009
   14.29333401  146.69799805    0.55000001    2.64000010
   14.29666710  150.40299988    0.52999997    2.66000009
   14.29972267  158.94599915    0.52999997    2.66000009
   14.30611134  158.94599915    0.52999997    2.64000010
   14.31000042  169.22399902    0.52999997    2.66000009
   14.31333351  151.47799683    0.52999997    2.64000010
   14.31666660  150.71200562    0.52999997    2.67000008
   14.31916618  151.38000488    0.52999997    2.67000008
   14.32027817  154.24899292    0.52999997    2.66000009
   14.32361126  149.27200317    0.52999997    2.64000010
   14.32666683  142.64700317    0.52999997    2.64000010
   14.32999992  142.73500061    0.55000001    2.66000009
   14.33305550  151.94999695    0.56999999    2.66000009
   14.33638859  150.08099365    0.56999999    2.66000009
   14.33972168  136.77799988    0.55000001    2.66000009
   14.34277725  148.75300598    0.55000001    2.64000010
   14.34888840  148.75300598    0.55000001    2.66000009
   14.35305595  155.27600098    0.55000001    2.66000009
   14.35611153  155.43200684    0.52999997    2.66000009
   14.35944462  145.91000366    0.52999997    2.66000009
   14.36250019  131.66799927    0.55000001    2.66000009
   14.36583328  151.03799438    0.55000001    2.66000009
   14.36916637  153.89300537    0.52999997    2.66000009
   14.37250042  138.36599731    0.52999997    2.67000008
   14.37555599  145.13699341    0.52999997    2.66000009
   14.37888908  141.27799988    0.52999997    2.66000009
   14.38194466  138.94599915    0.52999997    2.66000009
   14.38527775  129.53100586    0.52999997    2.66000009
   14.38583279  150.62699890    0.52999997    2.66000009
   14.39166641  150.62699890    0.52999997    2.66000009
   14.39583302  143.09100342    0.52999997    2.66000009
   14.39888859  141.10099792    0.52999997    2.67000008
   14.40222168  140.00300598    0.52999997    2.66000009
   14.40555477  145.61500549    0.52999997    2.66000009
   14.40861034  143.83900452    0.52999997    2.67000008
   14.41194439  143.44700623    0.52999997    2.66000009
   14.41527748  140.84899902    0.52999997    2.66000009
   14.41833401  142.03500366    0.52999997    2.66000009
   14.41916656  144.16200256    0.52999997    2.66000009
   14.42194462  143.79200745    0.51999998    2.66000009
   14.42527771  145.01100159    0.50000000    2.67000008
   14.42833328  133.81799316    0.47999999    2.66000009
   14.43444443  133.81799316    0.47999999    2.66000009
   14.43861103  144.06599426    0.46000001    2.66000009
   14.44194412  148.94000244    0.46000001    2.66000009
   14.44499969  129.05900574    0.46000001    2.66000009
   14.44833374  136.15699768    0.46000001    2.67000008
   14.45166683  141.16600037    0.47999999    2.66000009
   14.45249939  142.69799805    0.47999999    2.66000009
   14.45499992  143.40600586    0.47999999    2.66000009
   14.45833302  154.33099365    0.47999999    2.66000009
   14.46138859  143.65499878    0.47999999    2.66000009
   14.46472168  136.48899841    0.47999999    2.66000009
   14.46805477  138.77900696    0.47999999    2.66000009
   14.47111034  137.83399963    0.47999999    2.66000009
   14.47749996  137.83399963    0.47999999    2.66000009
   14.48138809  134.77299500    0.50000000    2.67000008
   14.48472214  143.83500671    0.50000000    2.66000009
   14.48583317  145.41200256    0.50000000    2.66000009
   14.48833370  148.75700378    0.47999999    2.67000008
   14.49166679  140.30400085    0.47999999    2.67000008
   14.49472237  139.59899902    0.44000000    2.66000009
   14.49805546  137.29200745    0.41999999    2.66000009
   14.50138855  141.15199280    0.41999999    2.66000009
   14.50444412  142.01400757    0.40000001    2.66000009
   14.50777817  141.92500305    0.40000001    2.66000009
   14.51083374  146.31500244    0.40000001    2.67000008
   14.51416683  139.45599365    0.40000001    2.66000009
   14.52027798  139.45599365    0.40000001    2.67000008
   14.52444458  152.75199890    0.40000001    2.66000009
   14.52750015  137.65400696    0.40000001    2.67000008
   14.53083324  136.15600586    0.40000001    2.67000008
   14.53388977  145.37600708    0.40000001    2.66000009
   14.53722286  150.19999695    0.40000001    2.66000009
   14.54055595  143.34599304    0.40000001    2.66000009
   14.54388905  151.77000427    0.40000001    2.66000009
   14.54694462  141.36099243    0.40000001    2.66000009
   14.55027771  145.17599487    0.40000001    2.67000008
   14.55277824  142.83200073    0.40000001    2.67000008
   14.55388927  139.95899963    0.40000001    2.67000008
   14.55722237  143.09100342    0.40000001    2.67000008
   14.56305599  143.09100342    0.40000001    2.67000008
   14.56722260  141.49499512    0.40000001    2.66000009
   14.57027817  139.27600098    0.40000001    2.66000009
   14.57361126  133.39999390    0.40000001    2.66000009
   14.57694435  143.90199280    0.40000001    2.67000008
   14.57999992  139.94400024    0.40000001    2.67000008
   14.58333302  137.32400513    0.40000001    2.67000008
   14.58611107  146.79699707    0.40000001    2.67000008
   14.58722210  145.38900757    0.40000001    2.67000008
   14.59027767  140.74299622    0.41999999    2.67000008
   14.59361076  141.88099670    0.41999999    2.67000008
   14.59694386  145.70199585    0.41999999    2.67000008
   14.60000038  142.11500549    0.41999999    2.67000008
   14.60583401  142.11500549    0.41999999    2.66000009
   14.61000061  142.51100159    0.41999999    2.66000009
   14.61333370  134.03799438    0.41999999    2.67000008
   14.61638927  146.50300598    0.41999999    2.67000008
   14.61916637  134.37600708    0.41999999    2.67000008
   14.61999989  141.11399841    0.44000000    2.67000008
   14.62333393  140.27900696    0.44000000    2.67000008
   14.62638855  132.58200073    0.44000000    2.67000008
   14.62972260  140.19999695    0.46000001    2.67000008
   14.63305569  145.23399353    0.46000001    2.67000008
   14.63611126  143.75700378    0.47999999    2.67000008
   14.63944435  136.48300171    0.52999997    2.67000008
   14.64249992  138.67799377    0.52999997    2.67000008
   14.64888859  138.67799377    0.55000001    2.67000008
   14.65277767  144.72300720    0.55000001    2.67000008
   14.65611076  139.16099548    0.55000001    2.67000008
   14.65944386  136.67700195    0.56999999    2.67000008
   14.66249943  144.44299316    0.64999998    2.67000008
   14.66583252  142.62100220    0.67000002    2.67000008
   14.66916656  145.23100281    0.56999999    2.67000008
   14.67222214  136.89500427    0.52999997    2.69000006
   14.67555618  140.76699829    0.51999998    2.67000008
   14.67861176  138.50900269    0.51999998    2.67000008
   14.68194485  143.05499268    0.51999998    2.67000008
   14.68527794  144.56399536    0.51999998    2.67000008
   14.68611145  140.22300720    0.51999998    2.67000008
   14.70666695  140.22300720    0.47999999    2.69000006
   14.71083355  138.80099487    0.47999999    2.67000008
   14.71388912  147.14700317    0.47999999    2.67000008
   14.71722221  139.91200256    0.46000001    2.67000008
   14.71944427  150.79499817    0.46000001    2.67000008
   14.72111034  142.30499268    0.46000001    2.67000008
   14.72416592  139.61700439    0.46000001    2.69000006
   14.72749996  139.21499634    0.44000000    2.67000008
   14.73055553  138.85499573    0.44000000    2.67000008
   14.73388958  136.04899597    0.44000000    2.67000008
   14.73722267  141.40199280    0.44000000    2.67000008
   14.74027824  136.11000061    0.44000000    2.67000008
   14.74361134  141.46899414    0.44000000    2.67000008
   14.74944496  141.46899414    0.46000001    2.67000008
   14.75361156  142.99699402    0.46000001    2.69000006
   14.75666714  145.05599976    0.46000001    2.69000006
   14.76000023  146.66499329    0.47999999    2.69000006
   14.76333332  146.61300659    0.50000000    2.69000006
   14.76638889  145.71099854    0.50000000    2.67000008
   14.76972198  144.81199646    0.52999997    2.67000008
   14.77277756  137.10200500    0.52999997    2.67000008
   14.77611065  138.78399658    0.52999997    2.67000008
   14.77944374  139.27799988    0.55000001    2.69000006
   14.78249931  136.33999634    0.55000001    2.67000008
   14.78583336  135.92799377    0.55000001    2.69000006
   14.78638935  137.17799377    0.55000001    2.69000006
   14.79222298  137.17799377    0.56999999    2.69000006
   14.79638958  141.15800476    0.58999997    2.69000006
   14.79972267  145.39199829    0.58999997    2.69000006
   14.80277824  135.05999756    0.56999999    2.67000008
   14.80611134  139.57899475    0.52999997    2.67000008
   14.80944443  135.39599609    0.50000000    2.67000008
   14.81250000  139.45199585    0.46000001    2.67000008
   14.81583309  144.44299316    0.46000001    2.67000008
   14.81888866  143.41600037    0.46000001    2.69000006
   14.81972218  142.86000061    0.46000001    2.69000006
   14.82250023  145.96600342    0.46000001    2.69000006
   14.82583332  139.95899963    0.46000001    2.69000006
   14.82916641  141.60499573    0.47999999    2.69000006
   14.83500004  141.60499573    0.50000000    2.67000008
   14.83916664  140.12899780    0.47999999    2.69000006
   14.84249973  152.23800659    0.51999998    2.67000008
   14.84555531  146.93400574    0.51999998    2.69000006
   14.84888840  141.70100403    0.51999998    2.67000008
   14.85222244  145.54299927    0.51999998    2.69000006
   14.85305595  145.00399780    0.51999998    2.69000006
   14.85555553  139.24299622    0.51999998    2.69000006
   14.85888958  144.49099731    0.55000001    2.67000008
   14.86222267  147.03300476    0.58999997    2.67000008
   14.86527824  142.42900085    0.58999997    2.69000006
   14.86861134  142.85699463    0.58999997    2.69000006
   14.87194443  140.12699890    0.58999997    2.69000006
   14.87805557  140.12699890    0.55000001    2.69000006
   14.88194466  138.15100098    0.50000000    2.67000008
   14.88527775  140.28300476    0.46000001    2.69000006
   14.88638878  145.69200134    0.46000001    2.69000006
   14.88888836  141.40699768    0.46000001    2.67000008
   14.89222240  138.37100220    0.46000001    2.69000006
   14.89555550  146.29200745    0.47999999    2.69000006
   14.89861107  142.66900635    0.47999999    2.69000006
   14.90194416  145.68099976    0.47999999    2.69000006
   14.90527725  140.67399597    0.47999999    2.69000006
   14.90833282  141.01600647    0.47999999    2.69000006
   14.91166592  149.12600708    0.46000001    2.69000006
   14.91499996  147.81799316    0.47999999    2.67000008
   14.92083359  147.81799316    0.50000000    2.69000006
   14.92500019  145.32200623    0.47999999    2.69000006
   14.92805576  141.53100586    0.46000001    2.67000008
   14.93138885  145.58599854    0.44000000    2.69000006
   14.93472195  144.63699341    0.44000000    2.69000006
   14.93777752  140.11300659    0.44000000    2.69000006
   14.94111156  146.65400696    0.44000000    2.67000008
   14.94416714  139.27299500    0.44000000    2.67000008
   14.94750023  143.46899414    0.41999999    2.69000006
   14.95083332  140.32099915    0.40000001    2.69000006
   14.95305538  140.71400452    0.40000001    2.69000006
   14.95444393  142.36799622    0.40000001    2.69000006
   14.95749950  140.63200378    0.40000001    2.69000006
   14.96361065  140.63200378    0.41999999    2.69000006
   14.96777725  142.56700134    0.47999999    2.69000006
   14.97111034  143.45300293    0.51999998    2.69000006
   14.97416592  138.89700317    0.55000001    2.69000006
   14.97749996  133.12199402    0.55000001    2.69000006
   14.98083305  146.52099609    0.56999999    2.69000006
   14.98388958  142.76199341    0.56999999    2.69000006
   14.98638916  154.21400452    0.56999999    2.69000006
   14.98777771  142.94299316    0.56999999    2.69000006
   14.99083328  139.16099548    0.55000001    2.69000006
   14.99416733  151.38200378    0.52999997    2.69000006
   14.99722290  138.30700684    0.52999997    2.69000006
   15.00055599  148.14999390    0.52999997    2.69000006
   15.00666714  148.14999390    0.50000000    2.69000006
   15.01055527  146.32099915    0.50000000    2.69000006
   15.01388931  144.02000427    0.47999999    2.69000006
   15.01722240  144.52200317    0.47999999    2.67000008
   15.01972198  145.82299805    0.47999999    2.67000008
   15.02083302  149.36799622    0.47999999    2.67000008
   15.02388859  144.15199280    0.47999999    2.69000006
   15.02722168  134.12800598    0.47999999    2.69000006
   15.03027725  147.88999939    0.47999999    2.69000006
   15.03361130  135.77000427    0.44000000    2.69000006
   15.03694534  143.28399658    0.44000000    2.67000008
   15.04000092  150.33700562    0.44000000    2.69000006
   15.04333401  142.66900635    0.44000000    2.69000006
   15.04944515  142.66900635    0.41999999    2.69000006
   15.05361176  140.66099548    0.40000001    2.69000006
   15.05666733  137.84500122    0.41999999    2.69000006
   15.06000042  140.89799500    0.40000001    2.69000006
   15.06333351  144.11900330    0.40000001    2.69000006
   15.06638908  137.25199890    0.40000001    2.69000006
   15.06972218  145.00500488    0.40000001    2.71000004
   15.07277775  143.67100525    0.40000001    2.71000004
   15.07611084  153.21899414    0.40000001    2.69000006
   15.07944393  141.25399780    0.41999999    2.69000006
   15.08249950  141.06199646    0.41999999    2.69000006
   15.08583260  144.83700562    0.41999999    2.69000006
   15.08638859  138.39900208    0.41999999    2.69000006
   15.09222221  138.39900208    0.41999999    2.69000006
   15.09638882  152.44900513    0.41999999    2.69000006
   15.09944439  136.54100037    0.41999999    2.69000006
   15.10277843  144.90600586    0.41999999    2.69000006
   15.10611153  146.36399841    0.41999999    2.69000006
   15.10916710  144.61300659    0.40000001    2.69000006
   15.11250019  155.93299866    0.40000001    2.69000006
   15.11583328  136.72000122    0.38000000    2.69000006
   15.11888885  142.66700745    0.38000000    2.69000006
   15.11972237  148.75999451    0.38000000    2.69000006
   15.12277794  145.52499390    0.36000001    2.69000006
   15.12583351  141.23699951    0.36000001    2.71000004
   15.12916660  138.98800659    0.36000001    2.71000004
   15.13500023  138.98800659    0.36000001    2.69000006
   15.13916683  139.26499939    0.34000000    2.69000006
   15.14249992  139.45799255    0.31999999    2.69000006
   15.14555550  144.27699280    0.31999999    2.71000004
   15.14888859  144.03500366    0.31999999    2.69000006
   15.15222168  152.56900024    0.31999999    2.69000006
   15.15305519  157.15800476    0.31999999    2.69000006
   15.15583324  136.94299316    0.31999999    2.69000006
   15.15888882  143.04200745    0.31999999    2.69000006
   15.16222191  139.33799744    0.31999999    2.69000006
   15.16527748  139.96400452    0.31999999    2.69000006
   15.16861153  142.02799988    0.31999999    2.69000006
   15.17194462  145.85899353    0.31999999    2.69000006
   15.17777824  145.85899353    0.31999999    2.69000006
   15.18194485  143.66600037    0.31999999    2.69000006
   15.18527794  145.16099548    0.31999999    2.71000004
   15.18638897  143.50700378    0.31999999    2.71000004
   15.18888855  150.71899414    0.31999999    2.67000008
   15.19194412  142.37100220    0.31999999    2.67000008
   15.19527817  142.71499634    0.31999999    2.69000006
   15.19861126  145.67199707    0.31999999    2.69000006
   15.20166683  152.74499512    0.31999999    2.71000004
   15.20499992  131.29800415    0.34000000    2.71000004
   15.20833302  140.46400452    0.34000000    2.71000004
   15.21166611  138.62500000    0.34000000    2.71000004
   15.21472168  143.65499878    0.34000000    2.71000004
   15.22083282  143.65499878    0.34000000    2.71000004
   15.22499943  144.75199890    0.34000000    2.69000006
   15.22833252  139.72599792    0.34000000    2.69000006
   15.23138809  142.48699951    0.34000000    2.71000004
   15.23472214  137.34300232    0.34000000    2.71000004
   15.23805618  141.41200256    0.34000000    2.69000006
   15.24111176  146.00300598    0.34000000    2.69000006
   15.24444485  136.78300476    0.34000000    2.71000004
   15.24777794  143.19599915    0.34000000    2.69000006
   15.25083351  138.75100708    0.34000000    2.69000006
   15.25305557  143.63800049    0.34000000    2.69000006
   15.25472260  147.75700378    0.34000000    2.69000006
   15.25777817  137.67700195    0.36000001    2.69000006
   15.26361084  137.67700195    0.34000000    2.69000006
   15.26777744  140.79699707    0.36000001    2.71000004
   15.27083302  143.93899536    0.34000000    2.71000004
   15.27416611  138.29800415    0.34000000    2.71000004
   15.27750015  139.32200623    0.34000000    2.71000004
   15.28083324  139.97999573    0.34000000    2.71000004
   15.28388977  138.09500122    0.34000000    2.69000006
   15.28638935  136.18899536    0.34000000    2.69000006
   15.28777790  134.56799316    0.34000000    2.69000006
   15.29083347  137.65699768    0.34000000    2.71000004
   15.29416752  142.38000488    0.34000000    2.71000004
   15.29750061  144.08799744    0.34000000    2.71000004
   15.30055618  134.41900635    0.34000000    2.71000004
   15.30638885  134.41900635    0.34000000    2.69000006
   15.31055546  134.61700439    0.34000000    2.71000004
   15.31388950  140.41299438    0.34000000    2.71000004
   15.31694412  141.33700562    0.34000000    2.71000004
   15.31972218  147.17199707    0.34000000    2.71000004
   15.32055569  147.38299561    0.34000000    2.71000004
   15.32361126  137.87199402    0.34000000    2.69000006
   15.32694435  140.63200378    0.34000000    2.69000006
   15.33027744  138.96000671    0.34000000    2.69000006
   15.33333302  138.84500122    0.34000000    2.69000006
   15.33666611  142.05999756    0.34000000    2.69000006
   15.33972168  135.35400391    0.34000000    2.69000006
   15.34305477  147.52000427    0.34000000    2.71000004
   15.34916592  147.52000427    0.34000000    2.69000006
   15.35333347  143.32299805    0.34000000    2.71000004
   15.35666752  141.58099365    0.34000000    2.69000006
   15.35972214  146.07600403    0.34000000    2.69000006
   15.36305618  137.23699951    0.34000000    2.69000006
   15.36638927  155.13299561    0.34000000    2.71000004
   15.36944485  138.31100464    0.34000000    2.71000004
   15.37277794  144.78900146    0.34000000    2.71000004
   15.37611103  131.46400452    0.34000000    2.71000004
   15.37916660  150.08700562    0.34000000    2.71000004
   15.38249969  141.48500061    0.34000000    2.69000006
   15.38583279  141.69299316    0.34000000    2.71000004
   15.38638878  143.92500305    0.34000000    2.71000004
   15.39222240  143.92500305    0.34000000    2.71000004
   15.39611053  140.96099854    0.34000000    2.69000006
   15.39944458  152.45100403    0.34000000    2.73000002
   15.40277767  139.09500122    0.34000000    2.71000004
   15.40583324  139.07200623    0.31999999    2.71000004
   15.40916634  140.77499390    0.31999999    2.71000004
   15.41249943  140.81799316    0.31999999    2.71000004
   15.41583252  152.69299316    0.31999999    2.71000004
   15.41888905  153.45700073    0.31999999    2.71000004
   15.41972256  145.25700378    0.31999999    2.71000004
   15.42250061  140.41099548    0.31999999    2.71000004
   15.42555618  139.21800232    0.31999999    2.71000004
   15.42888927  141.26199341    0.34000000    2.71000004
   15.43500042  141.26199341    0.31999999    2.69000006
   15.43916702  143.09899902    0.31999999    2.71000004
   15.44250011  148.20599365    0.30000001    2.71000004
   15.44555569  138.31399536    0.30000001    2.69000006
   15.44888878  142.56700134    0.30000001    2.69000006
   15.45222187  140.01800537    0.30000001    2.71000004
   15.45305538  147.95700073    0.30000001    2.71000004
   15.45583344  140.39599609    0.30000001    2.71000004
   15.45888901  138.88699341    0.30000001    2.69000006
   15.46222210  145.63299561    0.30000001    2.69000006
   15.46555519  139.43600464    0.30000001    2.71000004
   15.46888828  144.22599792    0.30000001    2.71000004
   15.47222137  147.56500244    0.30000001    2.71000004
   15.47777748  147.56500244    0.30000001    2.73000002
   15.48194408  149.81399536    0.30000001    2.71000004
   15.48527813  147.34500122    0.31999999    2.71000004
   15.48638916  142.27699280    0.31999999    2.71000004
   15.48888874  145.41000366    0.30000001    2.71000004
   15.49222279  136.63000488    0.30000001    2.71000004
   15.49527836  134.75500488    0.30000001    2.71000004
   15.49861145  135.46099854    0.30000001    2.71000004
   15.50194454  135.25900269    0.30000001    2.71000004
   15.50500011  131.22099304    0.30000001    2.71000004
   15.50833321  144.15899658    0.30000001    2.71000004
   15.51138878  138.13499451    0.30000001    2.71000004
   15.51472187  137.20500183    0.30000001    2.71000004
   15.52083302  137.20500183    0.30000001    2.71000004
   15.52472210  143.88699341    0.30000001    2.71000004
   15.52805519  151.77600098    0.30000001    2.73000002
   15.53138828  142.38699341    0.30000001    2.73000002
   15.53444481  140.51699829    0.30000001    2.73000002
   15.53777790  144.61599731    0.30000001    2.71000004
   15.54111195  143.31399536    0.31999999    2.71000004
   15.54416752  140.06700134    0.31999999    2.73000002
   15.54750061  138.39700317    0.31999999    2.71000004
   15.55055618  141.66200256    0.31999999    2.71000004
   15.55305576  137.31100464    0.31999999    2.71000004
   15.55444431  137.71299744    0.31999999    2.71000004
   15.55749989  136.57299805    0.31999999    2.73000002
   15.56361103  136.57299805    0.31999999    2.71000004
   15.56777763  136.77799988    0.31999999    2.71000004
   15.57083321  139.77400208    0.31999999    2.71000004
   15.57527733  140.15800476    0.31999999    2.71000004
   15.57861137  145.55299377    0.31999999    2.71000004
   15.58166695  144.24200439    0.31999999    2.71000004
   15.58500004  139.65299988    0.31999999    2.73000002
   15.58638859  143.25900269    0.31999999    2.71000004
   15.58861065  143.86000061    0.31999999    2.71000004
   15.59166622  148.85499573    0.31999999    2.71000004
   15.59499931  141.40699768    0.31999999    2.71000004
   15.59833336  138.48899841    0.31999999    2.71000004
   15.60138893  137.89999390    0.31999999    2.71000004
   15.60638905  137.89999390    0.31999999    2.71000004
   15.61055565  146.70700073    0.31999999    2.71000004
   15.61361122  139.90100098    0.31999999    2.71000004
   15.61694431  146.48899841    0.31999999    2.71000004
   15.61972237  143.79400635    0.34000000    2.71000004
   15.62055588  150.52299500    0.34000000    2.71000004
   15.62361145  147.51699829    0.31999999    2.71000004
   15.62694454  147.91700745    0.34000000    2.71000004
   15.63027763  134.66900635    0.34000000    2.71000004
   15.63333321  140.61900330    0.31999999    2.73000002
   15.63666630  146.30299377    0.31999999    2.73000002
   15.63972187  139.54200745    0.31999999    2.73000002
   15.64305496  148.13800049    0.31999999    2.71000004
   15.64916611  148.13800049    0.31999999    2.71000004
   15.65333271  134.41099548    0.31999999    2.71000004
   15.65666676  138.12899780    0.31999999    2.71000004
   15.65972137  136.57000732    0.31999999    2.71000004
   15.66305542  141.01600647    0.31999999    2.73000002
   15.66638851  143.21699524    0.31999999    2.71000004
   15.66944504  141.10499573    0.31999999    2.71000004
   15.67277813  140.06900024    0.31999999    2.71000004
   15.67583370  140.53199768    0.31999999    2.71000004
   15.67916679  137.95599365    0.31999999    2.71000004
   15.68249989  142.32600403    0.31999999    2.71000004
   15.68555546  140.22999573    0.31999999    2.71000004
   15.68638897  148.73800659    0.31999999    2.71000004
   15.69194412  148.73800659    0.31999999    2.73000002
   15.69611073  138.23599243    0.31999999    2.73000002
   15.69944477  143.22999573    0.31999999    2.71000004
   15.70277786  143.63999939    0.31999999    2.71000004
   15.72027779  135.43400574    0.31999999    2.73000002
   15.72249985  139.74600220    0.31999999    2.73000002
   15.72583294  141.45599365    0.31999999    2.73000002
   15.72888851  136.61599731    0.31999999    2.73000002
   15.73500061  136.61599731    0.31999999    2.71000004
   15.73916721  133.82400513    0.31999999    2.71000004
   15.74250031  142.45500183    0.31999999    2.71000004
   15.74555588  132.79499817    0.31999999    2.71000004
   15.74888897  133.46800232    0.31999999    2.71000004
   15.75222206  133.26300049    0.31999999    2.73000002
   15.75361156  135.04600525    0.31999999    2.73000002
   15.75583363  143.51300049    0.31999999    2.73000002
   15.75916672  138.35899353    0.31999999    2.73000002
   15.76222229  134.27699280    0.31999999    2.71000004
   15.76555538  148.32400513    0.31999999    2.71000004
   15.76888847  138.83999634    0.31999999    2.71000004
   15.77194405  132.69999695    0.31999999    2.71000004
   15.77777767  132.69999695    0.31999999    2.71000004
   15.78194427  140.20799255    0.31999999    2.71000004
   15.78527832  140.06300354    0.31999999    2.71000004
   15.78694534  145.83799744    0.31999999    2.71000004
   15.78888893  145.08200073    0.31999999    2.73000002
   15.79222298  142.89700317    0.31999999    2.71000004
   15.79527855  135.53300476    0.31999999    2.73000002
   15.79861164  137.97099304    0.31999999    2.73000002
   15.80194473  146.42900085    0.31999999    2.73000002
   15.80500031  134.96800232    0.31999999    2.71000004
   15.80833340  135.25300598    0.31999999    2.71000004
   15.81166649  135.58700562    0.31999999    2.71000004
   15.81472206  137.51600647    0.31999999    2.73000002
   15.82083321  137.51600647    0.31999999    2.73000002
   15.82499981  133.84199524    0.31999999    2.71000004
   15.82805538  131.91400146    0.31999999    2.73000002
   15.83138847  138.43600464    0.31999999    2.71000004
   15.83472157  137.46600342    0.31999999    2.71000004
   15.83777714  136.50700378    0.31999999    2.71000004
   15.84111118  139.51100159    0.31999999    2.71000004
   15.84416676  137.22000122    0.31999999    2.73000002
   15.84749985  143.69200134    0.31999999    2.73000002
   15.85083389  139.87699890    0.31999999    2.71000004
   15.85361195  138.38800049    0.31999999    2.73000002
   15.85416698  141.06700134    0.31999999    2.73000002
   15.85750008  134.89100647    0.31999999    2.73000002
   15.86361122  134.89100647    0.31999999    2.71000004
   15.86777782  139.25900269    0.31999999    2.71000004
   15.87083340  134.49800110    0.31999999    2.73000002
   15.87416649  141.77400208    0.31999999    2.73000002
   15.87750053  134.60299683    0.31999999    2.73000002
   15.88055611  137.03599548    0.31999999    2.73000002
   15.88388920  138.27499390    0.31999999    2.71000004
   15.88694477  133.79499817    0.31999999    2.71000004
   15.88749981  135.01899719    0.31999999    2.71000004
   15.89083290  133.16900635    0.31999999    2.71000004
   15.89388847  125.79799652    0.31999999    2.71000004
   15.89722252  133.35200500    0.31999999    2.73000002
   15.90055561  133.20300293    0.31999999    2.73000002
   15.90638828  133.20300293    0.31999999    2.71000004
   15.91055489  142.58399963    0.31999999    2.71000004
   15.91388893  134.75000000    0.31999999    2.71000004
   15.91694450  138.94900513    0.31999999    2.73000002
   15.92027855  138.98199463    0.31999999    2.73000002
   15.92055607  143.39500427    0.31999999    2.73000002
   15.92388916  137.88499451    0.31999999    2.71000004
   15.92722225  143.06500244    0.31999999    2.71000004
   15.93027782  149.14900208    0.31999999    2.71000004
   15.93361092  144.13600159    0.31999999    2.71000004
   15.93694496  132.04499817    0.31999999    2.71000004
   15.94000053  138.00100708    0.31999999    2.71000004
   15.94333363  140.85299683    0.31999999    2.71000004
   15.94916630  140.85299683    0.30000001    2.71000004
   15.95333290  139.19299316    0.30000001    2.71000004
   15.95388889  127.83799744    0.30000001    2.71000004
   15.95722198  136.96200562    0.31999999    2.71000004
   15.96027756  139.97700500    0.31999999    2.71000004
   15.96361065  134.00900269    0.30000001    2.71000004
   15.96694374  135.23800659    0.30000001    2.73000002
   15.96999931  137.95100403    0.30000001    2.73000002
   15.97333336  134.12899780    0.30000001    2.73000002
   15.97638798  136.27799988    0.30000001    2.71000004
   15.97972202  137.69799805    0.30000001    2.73000002
   15.98305511  134.32299805    0.30000001    2.73000002
   15.98638916  136.71000671    0.30000001    2.73000002
   15.98722267  138.43400574    0.30000001    2.73000002
   15.99222279  138.43400574    0.30000001    2.71000004
   15.99638939  140.39399719    0.30000001    2.73000002
   15.99944496  136.86300659    0.30000001    2.73000002
   16.00277710  139.12899780    0.30000001    2.71000004
   16.00583267  136.03399658    0.30000001    2.75000000
   16.00916672  140.03700256    0.30000001    2.71000004
   16.01250076  140.50000000    0.30000001    2.71000004
   16.01555634  139.13800049    0.30000001    2.73000002
   16.01888847  134.04100037    0.30000001    2.73000002
   16.02055550  132.70599365    0.30000001    2.73000002
   16.02249908  139.55799866    0.30000001    2.73000002
   16.02555466  136.66799927    0.30000001    2.71000004
   16.02888870  139.31900024    0.30000001    2.73000002
   16.03499985  139.31900024    0.30000001    2.71000004
   16.03916550  139.52099609    0.30000001    2.73000002
   16.04222107  136.80299377    0.30000001    2.73000002
   16.04555511  138.28799438    0.30000001    2.73000002
   16.04888916  136.22799683    0.30000001    2.71000004
   16.05194283  135.97599792    0.30000001    2.71000004
   16.05388832  141.75000000    0.30000001    2.71000004
   16.05555534  139.46000671    0.30000001    2.73000002
   16.05888748  137.35600281    0.30000001    2.73000002
   16.06194305  134.52600098    0.30000001    2.73000002
   16.06527710  140.32499695    0.30000001    2.73000002
   16.06833458  133.66999817    0.30000001    2.73000002
   16.07166672  138.39199829    0.30000001    2.73000002
   16.07777786  138.39199829    0.30000001    2.71000004
   16.08194542  137.41999817    0.30000001    2.73000002
   16.08527756  140.69999695    0.31999999    2.71000004
   16.08722305  142.82600403    0.30000001    2.71000004
   16.08889008  132.90299988    0.30000001    2.71000004
   16.09222221  137.60200500    0.31999999    2.73000002
   16.09527779  138.70399475    0.30000001    2.73000002
   16.09861183  139.48399353    0.30000001    2.73000002
   16.10166740  130.68400574    0.31999999    2.73000002
   16.10499954  131.06599426    0.31999999    2.73000002
   16.10833359  138.05099487    0.36000001    2.73000002
   16.11138916  133.73300171    0.34000000    2.73000002
   16.11472321  134.28199768    0.34000000    2.73000002
   16.12055588  134.28199768    0.34000000    2.73000002
   16.12472153  139.03900146    0.36000001    2.73000002
   16.12805557  139.06700134    0.36000001    2.73000002
   16.13111115  143.87600708    0.36000001    2.73000002
   16.13444519  137.76499939    0.36000001    2.73000002
   16.13777733  138.81100464    0.34000000    2.73000002
   16.14083290  139.36300659    0.36000001    2.73000002
   16.14416695  135.93600464    0.36000001    2.71000004
   16.14749908  141.84399414    0.36000001    2.71000004
   16.15055466  147.29299927    0.31999999    2.71000004
   16.15388870  138.10000610    0.31999999    2.73000002
   16.15444374  148.86900330    0.31999999    2.73000002
   16.15749931  143.38600159    0.31999999    2.73000002
   16.16361046  143.38600159    0.31999999    2.73000002
   16.16777802  145.41000366    0.31999999    2.71000004
   16.17083359  144.28999329    0.31999999    2.71000004
   16.17416573  137.02999878    0.31999999    2.73000002
   16.17722130  134.85299683    0.31999999    2.71000004
   16.18055534  141.92999268    0.31999999    2.73000002
   16.18388748  143.14500427    0.31999999    2.71000004
   16.18694305  142.66499329    0.31999999    2.71000004
   16.18777657  146.25500488    0.31999999    2.71000004
   16.19055557  136.21699524    0.31999999    2.71000004
   16.19388771  135.23100281    0.31999999    2.73000002
   16.19694328  153.97900391    0.31999999    2.73000002
   16.20027924  141.79800415    0.31999999    2.71000004
   16.20639038  141.79800415    0.31999999    2.71000004
   16.21055603  140.24800110    0.31999999    2.71000004
   16.21361160  135.55299377    0.31999999    2.73000002
   16.21694565  131.91400146    0.31999999    2.73000002
   16.22027779  135.06100464    0.31999999    2.71000004
   16.22111130  138.55200195    0.30000001    2.71000004
   16.22361183  138.46200562    0.30000001    2.71000004
   16.22694588  138.59800720    0.30000001    2.71000004
   16.23027802  133.27000427    0.30000001    2.73000002
   16.23333359  131.79299927    0.30000001    2.73000002
   16.23666763  136.03399658    0.30000001    2.73000002
   16.23999977  145.64100647    0.30000001    2.71000004
   16.24305534  131.18699646    0.30000001    2.73000002
   16.24916649  131.18699646    0.30000001    2.73000002
   16.25333405  141.43200684    0.30000001    2.71000004
   16.25444412  142.00500488    0.30000001    2.71000004
   16.25694466  143.71800232    0.30000001    2.71000004
   16.26027870  134.64599609    0.30000001    2.71000004
   16.26361084  135.45799255    0.30000001    2.73000002
   16.26666641  134.04200745    0.30000001    2.73000002
   16.27000046  137.58099365    0.31999999    2.73000002
   16.27305603  134.21299744    0.31999999    2.73000002
   16.27638817  133.41200256    0.31999999    2.73000002
   16.27972221  138.53799438    0.31999999    2.73000002
   16.28277779  130.39599609    0.31999999    2.73000002
   16.28610992  138.97099304    0.31999999    2.73000002
   16.28777695  133.32200623    0.31999999    2.73000002
   16.29194450  133.32200623    0.31999999    2.73000002
   16.29611015  128.98500061    0.31999999    2.73000002
   16.29944420  139.99499512    0.31999999    2.73000002
   16.30277634  132.19599915    0.31999999    2.73000002
   16.30583191  134.55000305    0.31999999    2.73000002
   16.30916595  136.81199646    0.31999999    2.73000002
   16.31222153  132.63999939    0.31999999    2.73000002
   16.31555557  143.30200195    0.34000000    2.71000004
   16.31888962  147.21400452    0.34000000    2.71000004
   16.32111168  139.28199768    0.34000000    2.73000002
   16.32222366  132.11500549    0.34000000    2.73000002
   16.32555580  138.99400330    0.34000000    2.73000002
   16.32888985  138.73599243    0.34000000    2.73000002
   16.33500099  138.73599243    0.36000001    2.73000002
   16.33916664  132.74000549    0.38000000    2.73000002
   16.34222221  144.48300171    0.38000000    2.73000002
   16.34555626  145.05499268    0.40000001    2.73000002
   16.34861183  144.78599548    0.40000001    2.73000002
   16.35194397  138.16400146    0.38000000    2.73000002
   16.35444450  142.91400146    0.38000000    2.73000002
   16.35555649  140.60000610    0.38000000    2.73000002
   16.35888863  144.08200073    0.38000000    2.73000002
   16.36222267  134.40800476    0.38000000    2.73000002
   16.36527824  141.11399841    0.34000000    2.71000004
   16.36861038  142.96899414    0.34000000    2.71000004
   16.37166595  135.09300232    0.31999999    2.73000002
   16.37777710  135.09300232    0.31999999    2.73000002
   16.38194466  135.32899475    0.31999999    2.73000002
   16.38527679  145.40299988    0.30000001    2.73000002
   16.38777733  135.03100586    0.30000001    2.73000002
   16.38861084  133.37600708    0.30000001    2.73000002
   16.39194489  137.47599792    0.30000001    2.71000004
   16.39527702  131.11300659    0.30000001    2.73000002
   16.39833260  134.19900513    0.30000001    2.73000002
   16.40166664  145.36900330    0.30000001    2.73000002
   16.40472221  139.44599915    0.30000001    2.71000004
   16.40805435  135.78599548    0.30000001    2.71000004
   16.41138840  137.05299377    0.30000001    2.73000002
   16.41444397  136.23899841    0.30000001    2.73000002
   16.42055511  136.23899841    0.30000001    2.73000002
   16.42472076  137.23100281    0.30000001    2.73000002
   16.42805481  139.88699341    0.30000001    2.73000002
   16.43111038  138.40400696    0.30000001    2.73000002
   16.43444443  139.64799500    0.30000001    2.73000002
   16.43777657  143.81799316    0.30000001    2.71000004
   16.44083214  134.49699402    0.30000001    2.73000002
   16.44416618  141.53599548    0.31999999    2.73000002
   16.44722176  145.15899658    0.31999999    2.73000002
   16.45055580  136.90400696    0.30000001    2.73000002
   16.45388985  136.44200134    0.31999999    2.71000004
   16.45555687  143.33200073    0.31999999    2.71000004
   16.45750046  140.38999939    0.31999999    2.71000004
   16.46333504  140.38999939    0.31999999    2.73000002
   16.46750069  134.60299683    0.31999999    2.73000002
   16.47083473  141.90499878    0.31999999    2.73000002
   16.47416687  139.68200684    0.31999999    2.73000002
   16.47722244  130.79100037    0.31999999    2.73000002
   16.48055649  136.80000305    0.31999999    2.73000002
   16.48388863  135.36300659    0.31999999    2.73000002
   16.48694420  140.61999512    0.31999999    2.73000002
   16.48888969  134.46499634    0.31999999    2.73000002
   16.49055672  138.95799255    0.31999999    2.73000002
   16.49388885  135.28100586    0.31999999    2.71000004
   16.49694443  142.70500183    0.31999999    2.71000004
   16.50027847  135.33999634    0.31999999    2.73000002
   16.50638962  135.33999634    0.31999999    2.73000002
   16.51055527  130.15899658    0.31999999    2.71000004
   16.51361084  128.92799377    0.34000000    2.73000002
   16.51694489  139.63400269    0.34000000    2.73000002
   16.52027702  136.88000488    0.34000000    2.73000002
   16.52249908  141.08599854    0.34000000    2.73000002
   16.52388954  138.07800293    0.34000000    2.73000002
   16.52694511  139.84599304    0.34000000    2.73000002
   16.53027725  138.17399597    0.34000000    2.73000002
   16.53361130  138.00500488    0.31999999    2.73000002
   16.53666687  137.68499756    0.31999999    2.73000002
   16.53999901  137.08299255    0.31999999    2.73000002
   16.54333305  139.27999878    0.31999999    2.73000002
   16.54916573  139.27999878    0.31999999    2.73000002
   16.55333328  138.92500305    0.31999999    2.73000002
   16.55583191  135.31500244    0.31999999    2.73000002
   16.55694389  141.01699829    0.31999999    2.73000002
   16.55999947  143.84700012    0.31999999    2.73000002
   16.56333351  137.02299500    0.31999999    2.73000002
   16.56666756  137.91299438    0.31999999    2.73000002
   16.56972313  134.73500061    0.31999999    2.71000004
   16.57305717  135.21600342    0.31999999    2.73000002
   16.57611275  130.83099365    0.30000001    2.75000000
   16.57944489  135.26400757    0.30000001    2.73000002
   16.58277893  133.25300598    0.30000001    2.73000002
   16.58583450  138.56300354    0.30000001    2.73000002
   16.59194565  138.56300354    0.31999999    2.73000002
   16.59611130  140.94900513    0.31999999    2.71000004
   16.59944534  143.72200012    0.31999999    2.73000002
   16.60250092  139.03599548    0.31999999    2.73000002
   16.60583305  135.28300476    0.31999999    2.71000004
   16.60888863  135.56500244    0.31999999    2.71000004
   16.61222267  141.33200073    0.31999999    2.73000002
   16.61555672  134.06500244    0.31999999    2.73000002
   16.61861038  134.78500366    0.34000000    2.73000002
   16.62194443  137.34599304    0.36000001    2.73000002
   16.62277794  134.22599792    0.36000001    2.73000002
   16.62555504  133.83799744    0.36000001    2.73000002
   16.62888908  132.07299805    0.40000001    2.71000004
   16.63472176  132.07299805    0.47999999    2.73000002
   16.63888931  130.79699707    0.44000000    2.75000000
   16.64222145  137.31300354    0.40000001    2.73000002
   16.64555550  132.59800720    0.41999999    2.73000002
   16.64861107  134.46800232    0.41999999    2.73000002
   16.65194321  133.61500549    0.46000001    2.71000004
   16.65499878  133.10200500    0.47999999    2.73000002
   16.65611076  133.45799255    0.47999999    2.73000002
   16.65861130  133.96099854    0.47999999    2.73000002
   16.66194344  134.99499512    0.47999999    2.73000002
   16.66499901  140.27499390    0.47999999    2.71000004
   16.66833305  136.07699585    0.41999999    2.73000002
   16.67166519  134.83299255    0.40000001    2.73000002
   16.67777634  134.83299255    0.38000000    2.73000002
   16.68194389  134.74000549    0.38000000    2.73000002
   16.68499947  136.33999634    0.38000000    2.71000004
   16.68833160  133.13200378    0.38000000    2.71000004
   16.68972206  136.61700439    0.38000000    2.71000004
   16.69194412  138.05099487    0.38000000    2.73000002
   16.69527626  134.92500305    0.36000001    2.73000002
   16.69861031  134.57899475    0.36000001    2.71000004
   16.70194435  135.50700378    0.38000000    2.73000002
   16.70499992  137.75100708    0.38000000    2.73000002
   16.70833397  135.82400513    0.38000000    2.73000002
   16.71138954  132.74099731    0.38000000    2.73000002
   16.71472359  136.83599854    0.40000001    2.73000002
   16.72055626  136.83599854    0.40000001    2.73000002
   16.73888969  134.85000610    0.31999999    2.73000002
   16.74222183  133.30599976    0.31999999    2.73000002
   16.74527740  137.88200378    0.31999999    2.73000002
   16.74861145  141.46699524    0.31999999    2.73000002
   16.75194359  135.83099365    0.31999999    2.73000002
   16.75499916  142.74800110    0.31999999    2.75000000
   16.75833321  144.52999878    0.31999999    2.71000004
   16.76361084  144.52999878    0.31999999    2.73000002
   16.76777840  134.56399536    0.31999999    2.73000002
   16.77083397  143.36000061    0.31999999    2.73000002
   16.77194405  140.71899414    0.31999999    2.73000002
   16.77472115  137.26199341    0.31999999    2.73000002
   16.77777672  139.17300415    0.31999999    2.73000002
   16.78111076  140.81799316    0.31999999    2.73000002
   16.78416634  137.29800415    0.31999999    2.73000002
   16.78750038  139.19299316    0.31999999    2.73000002
   16.79083252  137.32600403    0.31999999    2.73000002
   16.79388809  132.04699707    0.31999999    2.73000002
   16.79722214  133.64300537    0.31999999    2.71000004
   16.80055428  133.30000305    0.31999999    2.73000002
   16.80638885  133.30000305    0.31999999    2.73000002
   16.81055450  139.39799500    0.34000000    2.73000002
   16.81388855  135.39100647    0.34000000    2.73000002
   16.81694603  135.07400513    0.34000000    2.73000002
   16.82027817  135.46400452    0.34000000    2.73000002
   16.82333374  138.14100647    0.34000000    2.71000004
   16.82666779  138.74499512    0.34000000    2.71000004
   16.83000183  140.12399292    0.34000000    2.73000002
   16.83305550  136.01100159    0.34000000    2.71000004
   16.83638954  137.11500549    0.34000000    2.71000004
   16.83861160  140.13800049    0.34000000    2.71000004
   16.84000015  139.66999817    0.34000000    2.73000002
   16.84305573  137.77099609    0.34000000    2.73000002
   16.84916687  137.77099609    0.34000000    2.73000002
   16.85333443  131.88200378    0.34000000    2.73000002
   16.85666656  136.52000427    0.36000001    2.71000004
   16.85972214  142.89399719    0.36000001    2.71000004
   16.86305618  134.94200134    0.36000001    2.71000004
   16.86638832  136.88800049    0.36000001    2.73000002
   16.86944389  141.86799622    0.36000001    2.71000004
   16.87194443  138.16200256    0.36000001    2.73000002
   16.87333298  137.60600281    0.36000001    2.73000002
   16.87638855  141.43499756    0.36000001    2.71000004
   16.87972260  131.60600281    0.36000001    2.71000004
   16.88277817  140.29200745    0.36000001    2.71000004
   16.88611031  140.46400452    0.36000001    2.73000002
   16.89222145  140.46400452    0.36000001    2.71000004
   16.89611053  141.35800171    0.36000001    2.71000004
   16.89944458  140.63299561    0.36000001    2.71000004
   16.90277672  141.65899658    0.38000000    2.73000002
   16.90527725  132.65400696    0.38000000    2.71000004
   16.90638924  137.04200745    0.38000000    2.71000004
   16.90944481  140.47799683    0.38000000    2.73000002
   16.91277695  136.21299744    0.38000000    2.73000002
   16.91583252  138.42199707    0.38000000    2.73000002
   16.91916656  135.24299622    0.38000000    2.73000002
   16.92249870  140.33399963    0.38000000    2.71000004
   16.92555428  135.00100708    0.38000000    2.71000004
   16.92888832  132.58399963    0.38000000    2.71000004
   16.93499947  132.58399963    0.40000001    2.73000002
   16.93916512  134.01400757    0.40000001    2.71000004
   16.94222069  136.41999817    0.38000000    2.71000004
   16.94555473  137.79899597    0.38000000    2.73000002
   16.94888878  135.32000732    0.38000000    2.71000004
   16.95194435  136.02799988    0.38000000    2.71000004
   16.95527840  137.39900208    0.38000000    2.73000002
   16.95861244  134.18800354    0.38000000    2.73000002
   16.96166801  137.35899353    0.38000000    2.71000004
   16.96500015  130.86799622    0.38000000    2.71000004
   16.96805573  135.83500671    0.38000000    2.71000004
   16.97138977  140.28900146    0.38000000    2.71000004
   16.97194481  137.74800110    0.38000000    2.73000002
   16.97777748  137.74800110    0.38000000    2.71000004
   16.98194504  135.52200317    0.36000001    2.73000002
   16.98527718  140.80999756    0.36000001    2.73000002
   16.98833275  138.10200500    0.36000001    2.73000002
   16.99166679  138.29100037    0.36000001    2.71000004
   16.99472237  136.74899292    0.36000001    2.73000002
   16.99805641  134.98599243    0.36000001    2.73000002
   17.00138855  140.14199829    0.36000001    2.73000002
   17.00444412  137.63499451    0.36000001    2.73000002
   17.00527763  136.96299744    0.36000001    2.71000004
   17.00805473  134.46299744    0.36000001    2.73000002
   17.01111031  135.40100098    0.36000001    2.73000002
   17.01444435  137.46899414    0.36000001    2.71000004
   17.02055550  137.46899414    0.36000001    2.73000002
   17.02472115  137.04600525    0.36000001    2.73000002
   17.02805519  135.20700073    0.36000001    2.71000004
   17.03111076  139.07400513    0.36000001    2.71000004
   17.03444481  134.01199341    0.36000001    2.73000002
   17.03777695  142.48300171    0.36000001    2.71000004
   17.03861046  131.44900513    0.36000001    2.71000004
   17.04138756  140.49200439    0.36000001    2.71000004
   17.04472160  137.65400696    0.36000001    2.71000004
   17.04777718  137.22200012    0.36000001    2.73000002
   17.05111122  136.75700378    0.36000001    2.73000002
   17.05416679  135.69299316    0.36000001    2.73000002
   17.05749893  134.73399353    0.34000000    2.73000002
   17.06361008  134.73399353    0.34000000    2.73000002
   17.06750107  135.33799744    0.36000001    2.75000000
   17.07083511  135.30700684    0.34000000    2.71000004
   17.07194519  135.98699951    0.34000000    2.73000002
   17.07444572  138.12199402    0.34000000    2.73000002
   17.07750130  135.10400391    0.34000000    2.71000004
   17.08083344  137.40800476    0.34000000    2.71000004
   17.08416748  136.16999817    0.34000000    2.75000000
   17.08722305  131.46699524    0.34000000    2.73000002
   17.09055710  133.10899353    0.34000000    2.73000002
   17.09361267  131.78399658    0.34000000    2.71000004
   17.09694481  132.46400452    0.34000000    2.73000002
   17.10027885  131.48699951    0.31999999    2.73000002
   17.10639000  131.48699951    0.34000000    2.73000002
   17.11055565  138.14199829    0.34000000    2.73000002
   17.11361122  134.57099915    0.34000000    2.71000004
   17.11694527  135.05000305    0.31999999    2.73000002
   17.12000084  135.88299561    0.31999999    2.73000002
   17.12333298  132.59700012    0.31999999    2.73000002
   17.12666702  135.71200562    0.34000000    2.73000002
   17.13000107  130.58099365    0.34000000    2.71000004
   17.13305473  141.30799866    0.34000000    2.71000004
   17.13638878  133.94799805    0.34000000    2.73000002
   17.13861084  134.60299683    0.34000000    2.73000002
   17.13999939  137.67799377    0.34000000    2.73000002
   17.14333344  137.32400513    0.36000001    2.73000002
   17.14916611  137.32400513    0.36000001    2.73000002
   17.15333366  133.38200378    0.34000000    2.73000002
   17.15638924  136.33500671    0.34000000    2.73000002
   17.15972137  133.48199463    0.36000001    2.73000002
   17.16305542  134.72999573    0.61000001    2.73000002
   17.16611099  130.69000244    0.61000001    2.73000002
   17.16944313  140.24200439    0.44000000    2.73000002
   17.17194366  133.80299377    0.40000001    2.71000004
   17.17305565  130.26699829    0.40000001    2.71000004
   17.17611122  131.21800232    0.38000000    2.73000002
   17.17944336  134.07600403    0.38000000    2.73000002
   17.18277740  130.44099426    0.38000000    2.73000002
   17.18583298  134.55799866    0.38000000    2.73000002
   17.19194412  134.55799866    0.40000001    2.71000004
   17.19610977  135.54400635    0.40000001    2.73000002
   17.19944382  132.30000305    0.41999999    2.73000002
   17.20250130  146.26899719    0.44000000    2.71000004
   17.20527840  136.69700623    0.44000000    2.71000004
   17.20611191  134.17999268    0.44000000    2.71000004
   17.20916748  134.17399597    0.44000000    2.71000004
   17.21250153  139.28999329    0.41999999    2.71000004
   17.21583366  140.56100464    0.41999999    2.73000002
   17.21888924  140.73899841    0.40000001    2.73000002
   17.22222328  138.46499634    0.40000001    2.73000002
   17.22555542  136.27299500    0.40000001    2.73000002
   17.22861099  134.69900513    0.40000001    2.73000002
   17.23500061  134.69900513    0.40000001    2.73000002
   17.23888969  146.45599365    0.38000000    2.73000002
   17.24222183  148.02400208    0.38000000    2.73000002
   17.24555588  142.26199341    0.38000000    2.73000002
   17.24861145  142.95599365    0.38000000    2.71000004
   17.25194359  135.91299438    0.38000000    2.71000004
   17.25499916  144.75300598    0.38000000    2.73000002
   17.25833321  135.50300598    0.38000000    2.73000002
   17.26166725  133.99499512    0.40000001    2.73000002
   17.26472282  140.57000732    0.40000001    2.73000002
   17.26805496  139.16700745    0.40000001    2.73000002
   17.27138901  133.56500244    0.40000001    2.71000004
   17.27194405  131.95799255    0.40000001    2.71000004
   17.27777672  131.95799255    0.40000001    2.71000004
   17.28194427  181.79600525    0.40000001    2.73000002
   17.28499985  135.13200378    0.40000001    2.73000002
   17.28833199  143.68400574    0.40000001    2.73000002
   17.29166603  143.55299377    0.40000001    2.73000002
   17.29472160  139.33799744    0.40000001    2.73000002
   17.29805565  141.03399658    0.40000001    2.73000002
   17.30138779  140.23100281    0.40000001    2.73000002
   17.30444336  137.55099487    0.40000001    2.73000002
   17.30527687  139.01400757    0.40000001    2.73000002
   17.30805397  138.11199951    0.41999999    2.73000002
   17.31110954  134.28300476    0.41999999    2.71000004
   17.31444359  136.93600464    0.41999999    2.71000004
   17.32055664  136.93600464    0.44000000    2.71000004
   17.32472229  138.75300598    0.41999999    2.73000002
   17.32805634  135.26899719    0.41999999    2.71000004
   17.33111191  133.69099426    0.44000000    2.71000004
   17.33444595  131.02900696    0.44000000    2.71000004
   17.33750153  132.81300354    0.44000000    2.73000002
   17.33861160  132.35299683    0.44000000    2.73000002
   17.34111214  131.16099548    0.44000000    2.71000004
   17.34416771  124.39800262    0.46000001    2.71000004
   17.34749985  134.90699768    0.44000000    2.71000004
   17.35083389  132.88099670    0.44000000    2.71000004
   17.35388947  131.32200623    0.44000000    2.71000004
   17.35722351  135.97999573    0.44000000    2.71000004
   17.36333466  135.97999573    0.46000001    2.71000004
   17.36750031  137.76800537    0.44000000    2.71000004
   17.37083435  139.57899475    0.44000000    2.73000002
   17.37194443  138.45700073    0.44000000    2.73000002
   17.37444496  131.12600708    0.44000000    2.71000004
   17.37777710  137.61099243    0.44000000    2.71000004
   17.38083267  134.48599243    0.44000000    2.71000004
   17.38416672  137.57499695    0.44000000    2.71000004
   17.38750076  135.63699341    0.44000000    2.71000004
   17.39055634  138.93699646    0.44000000    2.71000004
   17.39388847  142.44299316    0.44000000    2.71000004
   17.39694405  131.66000366    0.44000000    2.71000004
   17.40027809  132.11599731    0.44000000    2.71000004
   17.40611076  132.11599731    0.46000001    2.71000004
   17.41027832  134.37500000    0.47999999    2.71000004
   17.41361046  134.94099426    0.46000001    2.71000004
   17.41694450  138.88600159    0.46000001    2.71000004
   17.42000008  133.15800476    0.47999999    2.71000004
   17.42333221  133.90100098    0.47999999    2.71000004
   17.42666626  132.56500244    0.51999998    2.71000004
   17.42972183  136.86799622    0.47999999    2.73000002
   17.43305397  132.93099976    0.47999999    2.71000004
   17.43610954  135.22999573    0.47999999    2.71000004
   17.43861008  134.62600708    0.46000001    2.71000004
   17.43972206  141.11700439    0.46000001    2.71000004
   17.44305420  135.73300171    0.47999999    2.71000004
   17.44916534  135.73300171    0.41999999    2.71000004
   17.45333481  134.77000427    0.41999999    2.73000002
   17.45639038  132.08099365    0.41999999    2.73000002
   17.45972252  135.93200684    0.41999999    2.73000002
   17.46305656  138.95100403    0.41999999    2.73000002
   17.46611214  137.74099731    0.41999999    2.71000004
   17.46944427  132.86900330    0.41999999    2.73000002
   17.47222328  133.33000183    0.41999999    2.71000004
   17.47333336  132.12699890    0.41999999    2.71000004
   17.47638893  131.52900696    0.41999999    2.71000004
   17.47972298  131.07899475    0.44000000    2.71000004
   17.48305511  135.05000305    0.44000000    2.73000002
   17.48638916  128.93499756    0.44000000    2.73000002
   17.49194527  128.93499756    0.44000000    2.71000004
   17.49611092  136.82600403    0.44000000    2.71000004
   17.49944496  132.28599548    0.44000000    2.73000002
   17.50250053  129.61099243    0.44000000    2.73000002
   17.50527763  133.83599854    0.44000000    2.73000002
   17.50611115  134.33999634    0.44000000    2.71000004
   17.50944519  132.56599426    0.44000000    2.71000004
   17.51250076  133.75500488    0.44000000    2.73000002
   17.51583290  136.86099243    0.44000000    2.71000004
   17.51888847  132.74499512    0.41999999    2.71000004
   17.52222252  136.53900146    0.41999999    2.71000004
   17.52555466  131.76400757    0.41999999    2.73000002
   17.52861023  131.01800537    0.41999999    2.73000002
   17.53472137  131.01800537    0.44000000    2.71000004
   17.53888893  131.89199829    0.44000000    2.71000004
   17.54222107  133.97799683    0.44000000    2.71000004
   17.54527664  131.36399841    0.44000000    2.71000004
   17.54861069  132.26800537    0.41999999    2.69000006
   17.55194283  128.21299744    0.44000000    2.71000004
   17.55499840  131.48699951    0.44000000    2.71000004
   17.55833244  137.94200134    0.44000000    2.71000004
   17.56166649  133.86999512    0.44000000    2.71000004
   17.56472206  138.73399353    0.44000000    2.73000002
   17.56805611  136.46200562    0.44000000    2.73000002
   17.57111168  133.29499817    0.44000000    2.73000002
   17.57194519  136.38900757    0.44000000    2.73000002
   17.57777786  136.38900757    0.44000000    2.73000002
   17.58194542  127.91000366    0.44000000    2.71000004
   17.58500099  132.20700073    0.44000000    2.71000004
   17.58833313  133.30299377    0.44000000    2.71000004
   17.59138870  131.28500366    0.44000000    2.69000006
   17.59472275  125.68399811    0.41999999    2.71000004
   17.59805679  133.02299500    0.40000001    2.73000002
   17.60111237  128.55799866    0.40000001    2.71000004
   17.60444450  130.12100220    0.40000001    2.71000004
   17.60527802  130.51600647    0.40000001    2.71000004
   17.60805511  133.36300659    0.40000001    2.71000004
   17.61138916  132.33799744    0.40000001    2.71000004
   17.61444473  134.47900391    0.40000001    2.73000002
   17.62055588  134.47900391    0.40000001    2.71000004
   17.62472153  133.82000732    0.40000001    2.71000004
   17.62805557  137.01899719    0.40000001    2.71000004
   17.63111115  129.53599548    0.40000001    2.73000002
   17.63444519  132.31500244    0.40000001    2.71000004
   17.63777733  129.88200378    0.40000001    2.71000004
   17.63861084  127.85399628    0.40000001    2.71000004
   17.64111137  128.55700684    0.40000001    2.71000004
   17.64444351  133.70100403    0.40000001    2.71000004
   17.64749908  133.69500732    0.40000001    2.71000004
   17.65083313  128.74099731    0.40000001    2.71000004
   17.65416718  133.48199463    0.40000001    2.71000004
   17.65722275  130.09300232    0.40000001    2.71000004
   17.66333389  130.09300232    0.40000001    2.71000004
   17.66749954  132.52999878    0.40000001    2.71000004
   17.67055511  131.35899353    0.40000001    2.71000004
   17.67194366  130.56100464    0.40000001    2.71000004
   17.67416573  132.63000488    0.40000001    2.71000004
   17.67749977  130.77200317    0.40000001    2.71000004
   17.68055534  134.53999329    0.38000000    2.71000004
   17.68388748  132.49600220    0.40000001    2.71000004
   17.68722153  134.33900452    0.40000001    2.71000004
   17.69027710  137.70399475    0.40000001    2.71000004
   17.69361115  140.55599976    0.40000001    2.71000004
   17.69666672  135.72000122    0.40000001    2.71000004
   17.70000076  134.81900024    0.40000001    2.71000004
   17.70611191  134.81900024    0.40000001    2.71000004
   17.71027946  133.80400085    0.40000001    2.71000004
   17.71361160  134.68499756    0.40000001    2.71000004
   17.71666718  133.03999329    0.41999999    2.71000004
   17.72000122  136.86700439    0.41999999    2.71000004
   17.72333336  134.81500244    0.41999999    2.71000004
   17.72638893  138.12500000    0.41999999    2.71000004
   17.72972298  138.05400085    0.41999999    2.71000004
   17.73277855  134.94500732    0.41999999    2.71000004
   17.73611069  134.48899841    0.41999999    2.71000004
   17.73861122  136.07600403    0.41999999    2.71000004
   17.75944519  136.07600403    0.41999999    2.71000004
   17.76333427  138.76899719    0.41999999    2.71000004
   17.76666641  139.47200012    0.41999999    2.71000004
   17.77000046  139.09500122    0.41999999    2.71000004
   17.77194405  137.16099548    0.40000001    2.71000004
   17.77361107  138.15800476    0.40000001    2.71000004
   17.77694511  133.74899292    0.40000001    2.71000004
   17.78000069  132.37600708    0.40000001    2.71000004
   17.78333282  135.34399414    0.44000000    2.71000004
   17.78666687  136.80700684    0.44000000    2.71000004
   17.78972244  136.29400635    0.44000000    2.71000004
   17.79305458  135.83200073    0.41999999    2.71000004
   17.79611015  136.19599915    0.41999999    2.71000004
   17.80194283  136.19599915    0.41999999    2.71000004
   17.80611038  136.78599548    0.41999999    2.71000004
   17.80944443  140.31199646    0.41999999    2.71000004
   17.81250000  141.53999329    0.41999999    2.71000004
   17.81583214  140.56199646    0.41999999    2.71000004
   17.81916809  136.13600159    0.40000001    2.69000006
   17.82222366  138.77799988    0.41999999    2.69000006
   17.82555580  138.51499939    0.41999999    2.69000006
   17.82888985  135.01800537    0.44000000    2.71000004
   17.83194542  142.71099854    0.44000000    2.71000004
   17.83527756  139.25999451    0.44000000    2.69000006
   17.83833313  136.96600342    0.41999999    2.71000004
   17.83889008  137.46400452    0.41999999    2.71000004
   17.84500122  137.46400452    0.41999999    2.71000004
   17.84916687  141.79600525    0.40000001    2.69000006
   17.85222244  140.40600586    0.40000001    2.71000004
   17.85555649  153.12500000    0.40000001    2.71000004
   17.85861206  149.12699890    0.40000001    2.71000004
   17.86194420  144.38499451    0.40000001    2.69000006
   17.86527824  159.69799805    0.41999999    2.69000006
   17.86833382  149.03300476    0.41999999    2.69000006
   17.87166595  152.18600464    0.41999999    2.71000004
   17.87222290  154.40499878    0.41999999    2.71000004
   17.87527847  153.64100647    0.44000000    2.71000004
   17.87833405  166.97099304    0.44000000    2.71000004
   17.88166618  161.99299622    0.41999999    2.71000004
   17.88777733  161.99299622    0.41999999    2.69000006
   17.89194489  153.73399353    0.44000000    2.71000004
   17.89500046  153.88699341    0.44000000    2.71000004
   17.89833260  143.34899902    0.44000000    2.69000006
   17.90166664  145.89900208    0.44000000    2.69000006
   17.90472221  150.29299927    0.44000000    2.71000004
   17.90555573  151.27900696    0.44000000    2.71000004
   17.90833282  147.99800110    0.44000000    2.71000004
   17.91166687  139.23800659    0.44000000    2.69000006
   17.91472244  144.29499817    0.46000001    2.71000004
   17.91805458  144.01199341    0.46000001    2.71000004
   17.92111015  134.97099304    0.46000001    2.71000004
   17.92444420  144.89100647    0.46000001    2.71000004
   17.93055534  144.89100647    0.47999999    2.69000006
   17.93472099  138.86300659    0.47999999    2.69000006
   17.93805504  135.38600159    0.46000001    2.71000004
   17.93888855  138.79200745    0.46000001    2.71000004
   17.94166565  145.92999268    0.47999999    2.71000004
   17.94499969  142.67500305    0.47999999    2.71000004
   17.94805527  145.96499634    0.47999999    2.71000004
   17.95138931  143.42500305    0.47999999    2.69000006
   17.95444489  147.62100220    0.47999999    2.71000004
   17.95777893  145.81799316    0.47999999    2.71000004
   17.96111107  155.68800354    0.50000000    2.71000004
   17.96416664  148.28100586    0.47999999    2.69000006
   17.96750069  148.67199707    0.47999999    2.69000006
   17.97333336  148.67199707    0.47999999    2.69000006
   17.97750092  147.60499573    0.47999999    2.71000004
   17.98083305  142.03599548    0.47999999    2.71000004
   17.98388863  140.77299500    0.47999999    2.69000006
   17.98722267  135.00799561    0.47999999    2.69000006
   17.99055672  141.37100220    0.47999999    2.69000006
   17.99361229  141.47999573    0.47999999    2.69000006
   17.99694443  137.49499512    0.50000000    2.69000006
   18.00027847  137.11099243    0.50000000    2.69000006
   18.00333405  129.46400452    0.50000000    2.69000006
   18.00555611  132.29600525    0.47999999    2.69000006
   18.00694466  139.00300598    0.47999999    2.69000006
   18.01000023  132.47900391    0.47999999    2.69000006
   18.01638794  132.47900391    0.47999999    2.71000004
   18.02027702  135.24400330    0.47999999    2.69000006
   18.02361107  135.82499695    0.47999999    2.69000006
   18.02694511  135.85899353    0.47999999    2.69000006
   18.03000069  135.65499878    0.47999999    2.71000004
   18.03333282  135.51800537    0.47999999    2.71000004
   18.03666687  134.47700500    0.47999999    2.71000004
   18.03888893  140.02499390    0.47999999    2.69000006
   18.04027748  139.08599854    0.47999999    2.69000006
   18.04361153  134.91200256    0.47999999    2.69000006
   18.04666710  138.46600342    0.46000001    2.71000004
   18.04999924  138.91099548    0.46000001    2.69000006
   18.05333328  137.60400391    0.46000001    2.69000006
   18.05916595  137.60400391    0.47999999    2.69000006
   18.06333351  138.98100281    0.47999999    2.71000004
   18.06638718  139.97300720    0.47999999    2.69000006
   18.06972313  133.25900269    0.47999999    2.71000004
   18.07222366  137.79600525    0.47999999    2.71000004
   18.07333374  132.79800415    0.47999999    2.69000006
   18.07666779  136.60499573    0.47999999    2.69000006
   18.07972336  134.74600220    0.47999999    2.69000006
   18.08305550  133.38299561    0.47999999    2.69000006
   18.08638954  132.72300720    0.47999999    2.71000004
   18.08944511  132.12199402    0.47999999    2.69000006
   18.09277916  135.35200500    0.47999999    2.69000006
   18.09611130  135.61199951    0.47999999    2.69000006
   18.10194397  135.61199951    0.47999999    2.69000006
   18.10611153  134.93299866    0.46000001    2.69000006
   18.10944557  135.40600586    0.47999999    2.69000006
   18.11250114  141.65899658    0.47999999    2.69000006
   18.11583328  133.13400269    0.50000000    2.69000006
   18.11888885  133.97099304    0.50000000    2.69000006
   18.12222290  140.91099548    0.50000000    2.69000006
   18.12555504  141.47599792    0.47999999    2.69000006
   18.12861061  136.28700256    0.47999999    2.69000006
   18.13194466  136.97799683    0.47999999    2.71000004
   18.13527679  138.84800720    0.47999999    2.69000006
   18.13833237  138.17900085    0.47999999    2.69000006
   18.13888931  133.57099915    0.47999999    2.69000006
   18.14472198  133.57099915    0.47999999    2.69000006
   18.14888954  130.55299377    0.47999999    2.69000006
   18.15222168  134.79100037    0.47999999    2.69000006
   18.15527725  135.63000488    0.47999999    2.69000006
   18.15861130  134.72399902    0.47999999    2.69000006
   18.16194344  136.73899841    0.50000000    2.69000006
   18.16499901  129.64799500    0.51999998    2.69000006
   18.16833305  132.77299500    0.51999998    2.69000006
   18.17166519  137.20700073    0.51999998    2.69000006
   18.17249870  139.33500671    0.51999998    2.69000006
   18.17527771  136.91200256    0.51999998    2.69000006
   18.17833328  136.07600403    0.51999998    2.69000006
   18.18166542  129.64999390    0.51999998    2.71000004
   18.18777657  129.64999390    0.51999998    2.69000006
   18.19166565  137.67599487    0.51999998    2.69000006
   18.19499969  137.36099243    0.51999998    2.69000006
   18.19833183  139.49499512    0.51999998    2.69000006
   18.20138931  140.15199280    0.52999997    2.69000006
   18.20472336  149.79899597    0.52999997    2.69000006
   18.20555687  136.42500305    0.52999997    2.69000006
   18.20833397  133.78999329    0.55000001    2.69000006
   18.21166801  145.88000488    0.55000001    2.69000006
   18.21472359  133.19700623    0.55000001    2.67000008
   18.21805573  136.26800537    0.55000001    2.69000006
   18.22111130  136.85299683    0.56999999    2.69000006
   18.22444534  134.34399414    0.55000001    2.67000008
   18.23055649  134.34399414    0.55000001    2.69000006
   18.23472214  146.51199341    0.55000001    2.69000006
   18.23777771  147.29899597    0.55000001    2.69000006
   18.23888969  143.75100708    0.55000001    2.69000006
   18.24138832  149.18800354    0.61000001    2.69000006
   18.24472237  149.41299438    0.56999999    2.69000006
   18.24777794  140.67300415    0.56999999    2.69000006
   18.25111198  136.83799744    0.52999997    2.69000006
   18.25444412  139.53399658    0.51999998    2.69000006
   18.25749969  142.57699585    0.51999998    2.69000006
   18.26083374  135.42799377    0.51999998    2.69000006
   18.26388931  138.22000122    0.50000000    2.69000006
   18.26722145  136.04400635    0.50000000    2.69000006
   18.27333260  136.04400635    0.51999998    2.69000006
   18.27750015  139.54299927    0.51999998    2.69000006
   18.28083229  133.20700073    0.51999998    2.69000006
   18.28388786  131.34700012    0.51999998    2.69000006
   18.28722191  136.38400269    0.51999998    2.69000006
   18.29027748  130.79600525    0.51999998    2.69000006
   18.29361153  131.29600525    0.51999998    2.69000006
   18.29694366  142.91000366    0.50000000    2.69000006
   18.29999924  142.16799927    0.50000000    2.69000006
   18.30333328  129.10600281    0.51999998    2.69000006
   18.30555534  139.84300232    0.51999998    2.69000006
   18.30694389  134.50700378    0.51999998    2.69000006
   18.31027794  141.27699280    0.51999998    2.69000006
   18.31611061  141.27699280    0.51999998    2.69000006
   18.32027817  127.22899628    0.52999997    2.67000008
   18.32361221  131.60699463    0.52999997    2.67000008
   18.32666779  135.95300293    0.52999997    2.69000006
   18.33000183  136.38299561    0.52999997    2.69000006
   18.33333397  138.39300537    0.52999997    2.69000006
   18.33638954  136.05200195    0.52999997    2.67000008
   18.33889008  139.51600647    0.51999998    2.69000006
   18.34000015  133.65400696    0.51999998    2.69000006
   18.34333420  132.60099792    0.51999998    2.67000008
   18.34638977  128.91600037    0.51999998    2.69000006
   18.34972191  134.53199768    0.51999998    2.67000008
   18.35305595  137.27999878    0.51999998    2.67000008
   18.35916710  137.27999878    0.47999999    2.69000006
   18.36305618  135.96200562    0.47999999    2.69000006
   18.36638832  135.82099915    0.47999999    2.67000008
   18.36972237  135.60299683    0.47999999    2.69000006
   18.37222290  134.02400208    0.47999999    2.69000006
   18.37333298  138.36399841    0.47999999    2.69000006
   18.37666702  135.16600037    0.47999999    2.69000006
   18.37972260  135.95500183    0.47999999    2.67000008
   18.38305473  142.76400757    0.47999999    2.69000006
   18.38638878  134.62399292    0.47999999    2.69000006
   18.38944435  133.67100525    0.47999999    2.69000006
   18.39277840  134.87399292    0.47999999    2.69000006
   18.39583397  132.20300293    0.47999999    2.67000008
   18.40194321  132.20300293    0.47999999    2.69000006
   18.40611076  139.08399963    0.47999999    2.67000008
   18.40944481  139.49099731    0.47999999    2.67000008
   18.41250038  140.91900635    0.47999999    2.67000008
   18.41583252  138.81700134    0.50000000    2.67000008
   18.41916656  137.68299866    0.50000000    2.67000008
   18.42222214  137.15499878    0.50000000    2.67000008
   18.42555428  127.83499908    0.50000000    2.69000006
   18.42860985  137.00999451    0.51999998    2.69000006
   18.43194389  136.17999268    0.51999998    2.69000006
   18.43527603  134.56300354    0.51999998    2.69000006
   18.43833160  134.76300049    0.51999998    2.69000006
   18.43916512  137.05499268    0.51999998    2.69000006
   18.44472122  137.05499268    0.51999998    2.67000008
   18.44888878  137.45599365    0.52999997    2.69000006
   18.45222282  132.48100281    0.52999997    2.67000008
   18.45527840  140.49899292    0.55000001    2.69000006
   18.45861244  130.91400146    0.55000001    2.67000008
   18.46166801  134.21299744    0.55000001    2.67000008
   18.46500015  132.58099365    0.55000001    2.69000006
   18.46833420  136.41900635    0.55000001    2.69000006
   18.47138977  133.36999512    0.56999999    2.69000006
   18.47222328  134.35600281    0.56999999    2.69000006
   18.47500038  133.25100708    0.56999999    2.67000008
   18.47833443  138.50000000    0.55000001    2.67000008
   18.48139000  130.23800659    0.55000001    2.67000008
   18.48750114  130.23800659    0.55000001    2.67000008
   18.49166679  136.00500488    0.55000001    2.69000006
   18.49500084  140.76600647    0.55000001    2.69000006
   18.49833298  132.22500610    0.55000001    2.69000006
   18.50138855  136.23800659    0.55000001    2.69000006
   18.50472260  149.86500549    0.55000001    2.69000006
   18.50583267  140.02499390    0.52999997    2.69000006
   18.50805473  137.08599854    0.52999997    2.69000006
   18.51138878  135.66499329    0.52999997    2.67000008
   18.51472282  136.03999329    0.52999997    2.69000006
   18.51777840  140.35099792    0.52999997    2.67000008
   18.52111053  135.38699341    0.52999997    2.67000008
   18.52416611  136.89799500    0.52999997    2.67000008
   18.53055573  136.89799500    0.55000001    2.69000006
   18.53472137  139.19700623    0.52999997    2.69000006
   18.53805542  140.12399292    0.55000001    2.69000006
   18.53916550  144.33900452    0.55000001    2.69000006
   18.54138756  139.02999878    0.52999997    2.67000008
   18.54472160  146.38699341    0.52999997    2.67000008
   18.54777718  136.36799622    0.52999997    2.69000006
   18.55111122  145.75599670    0.52999997    2.69000006
   18.55444336  148.43699646    0.52999997    2.67000008
   18.55749893  141.52499390    0.52999997    2.69000006
   18.56083298  141.35499573    0.52999997    2.69000006
   18.56416512  140.79299927    0.55000001    2.67000008
   18.56722260  143.54400635    0.55000001    2.67000008
   18.57333374  143.54400635    0.52999997    2.69000006
   18.57750130  144.44099426    0.52999997    2.67000008
   18.58055687  143.94200134    0.52999997    2.67000008
   18.58388901  141.22000122    0.52999997    2.67000008
   18.58722305  141.50500488    0.52999997    2.66000009
   18.59027863  138.01100159    0.52999997    2.67000008
   18.59361267  136.54800415    0.52999997    2.67000008
   18.59694481  148.60600281    0.52999997    2.67000008
   18.60000038  144.83500671    0.52999997    2.67000008
   18.60333443  140.76199341    0.55000001    2.67000008
   18.60583305  149.07200623    0.55000001    2.67000008
   18.60694504  143.65499878    0.55000001    2.67000008
   18.61027908  140.25500488    0.55000001    2.67000008
   18.61611176  140.25500488    0.56999999    2.69000006
   18.62027740  137.60400391    0.58999997    2.67000008
   18.62361145  133.39799500    0.58999997    2.67000008
   18.62666702  138.08999634    0.61000001    2.67000008
   18.63000107  138.41400146    0.61000001    2.67000008
   18.63333321  137.25199890    0.61000001    2.67000008
   18.63638878  139.14999390    0.61000001    2.67000008
   18.63916588  136.84100342    0.61000001    2.67000008
   18.63999939  137.21000671    0.61000001    2.67000008
   18.64333344  137.26899719    0.61000001    2.67000008
   18.64666748  134.71099854    0.61000001    2.67000008
   18.64972115  135.58700562    0.61000001    2.67000008
   18.65305519  132.75199890    0.61000001    2.67000008
   18.65888786  132.75199890    0.61000001    2.67000008
   18.66305542  130.27699280    0.58999997    2.67000008
   18.66638756  134.46499634    0.58999997    2.67000008
   18.66972160  136.52400208    0.58999997    2.67000008
   18.67249870  132.80700684    0.56999999    2.67000008
   18.67305565  133.94799805    0.56999999    2.67000008
   18.67638779  135.20500183    0.56999999    2.67000008
   18.67944336  140.74600220    0.56999999    2.67000008
   18.68277740  138.91900635    0.56999999    2.67000008
   18.68610954  135.11900330    0.56999999    2.67000008
   18.68916512  131.91099548    0.56999999    2.67000008
   18.69249916  138.48699951    0.56999999    2.67000008
   18.69583321  133.37300110    0.56999999    2.67000008
   18.70194435  133.37300110    0.55000001    2.66000009
   18.70583344  131.28500366    0.52999997    2.67000008
   18.70916748  136.32600403    0.52999997    2.67000008
   18.71250153  141.34500122    0.52999997    2.67000008
   18.71555710  142.68699646    0.52999997    2.67000008
   18.71888924  144.53399658    0.52999997    2.67000008
   18.72222328  143.87600708    0.52999997    2.66000009
   18.72527885  137.50599670    0.52999997    2.67000008
   18.72861099  147.01100159    0.52999997    2.67000008
   18.73166656  147.95599365    0.55000001    2.66000009
   18.73500061  145.57499695    0.55000001    2.67000008
   18.73833275  140.76899719    0.52999997    2.67000008
   18.73916626  142.67999268    0.52999997    2.67000008
   18.74472237  142.67999268    0.52999997    2.66000009
   18.74888992  135.21099854    0.55000001    2.67000008
   18.75194359  146.15699768    0.55000001    2.67000008
   18.75527763  138.97999573    0.55000001    2.66000009
   18.77277756  138.05700684    0.56999999    2.66000009
   18.77527809  136.45300293    0.56999999    2.66000009
   18.77833366  138.62600708    0.56999999    2.66000009
   18.78166580  137.55599976    0.56999999    2.67000008
   18.78777695  137.55599976    0.56999999    2.66000009
   18.79194450  137.43600464    0.56999999    2.66000009
   18.79500008  138.48399353    0.58999997    2.66000009
   18.79833221  137.71299744    0.58999997    2.66000009
   18.80138779  138.83599854    0.61000001    2.66000009
   18.80472183  144.20899963    0.64999998    2.66000009
   18.80611038  147.66099548    0.69000000    2.66000009
   18.80805397  147.59300232    0.70999998    2.67000008
   18.81138802  152.13000488    0.70999998    2.66000009
   18.81472206  152.86999512    0.73000002    2.67000008
   18.81777954  152.09899902    0.73000002    2.66000009
   18.82111168  147.37800598    0.75000000    2.66000009
   18.82444572  159.00000000    0.75000000    2.66000009
   18.83055687  159.00000000    0.63000000    2.66000009
   18.83472252  151.16900635    0.63000000    2.66000009
   18.83777809  151.62399292    0.64999998    2.66000009
   18.83944511  149.29899597    0.64999998    2.66000009
   18.84166718  143.36300659    0.69000000    2.66000009
   18.84472275  142.39300537    0.73000002    2.66000009
   18.84805679  140.62199402    0.64999998    2.66000009
   18.85111237  139.94200134    0.61000001    2.66000009
   18.85444450  140.33299255    0.61000001    2.66000009
   18.85777855  144.77099609    0.58999997    2.66000009
   18.86111069  141.46299744    0.56999999    2.66000009
   18.86416626  142.42700195    0.55000001    2.66000009
   18.86750031  143.65800476    0.56999999    2.66000009
   18.87333298  143.65800476    0.56999999    2.66000009
   18.87750053  137.37500000    0.56999999    2.66000009
   18.88083267  134.07299805    0.56999999    2.66000009
   18.88388824  137.51300049    0.56999999    2.66000009
   18.88722229  136.65400696    0.56999999    2.66000009
   18.89027786  133.96400452    0.56999999    2.66000009
   18.89361191  137.72300720    0.58999997    2.66000009
   18.89694405  130.50100708    0.58999997    2.66000009
   18.89999962  139.35000610    0.58999997    2.66000009
   18.90333366  134.21699524    0.61000001    2.64000010
   18.90611076  133.02200317    0.61000001    2.66000009
   18.90694427  134.00399780    0.61000001    2.66000009
   18.90999985  134.80200195    0.63000000    2.66000009
   18.91611099  134.80200195    0.63000000    2.66000009
   18.92027664  135.72700500    0.64999998    2.66000009
   18.92361069  138.36599731    0.67000002    2.66000009
   18.92666626  132.55599976    0.67000002    2.64000010
   18.93000031  136.10499573    0.64999998    2.66000009
   18.93333244  135.01899719    0.64999998    2.66000009
   18.93638802  133.84899902    0.64999998    2.66000009
   18.93944359  134.21299744    0.63000000    2.66000009
   18.94027710  136.16600037    0.63000000    2.66000009
   18.94333267  133.32499695    0.63000000    2.66000009
   18.94666672  134.63400269    0.63000000    2.66000009
   18.94972038  131.55999756    0.63000000    2.66000009
   18.95305634  134.87300110    0.63000000    2.66000009
   18.95916748  134.87300110    0.63000000    2.66000009
   18.96305656  138.70799255    0.63000000    2.66000009
   18.96638870  134.01699829    0.63000000    2.66000009
   18.96972275  137.09199524    0.67000002    2.64000010
   18.97277832  138.34199524    0.63000000    2.66000009
   18.97333336  139.88299561    0.63000000    2.66000009
   18.97638893  135.74600220    0.63000000    2.66000009
   18.97972298  141.20300293    0.63000000    2.66000009
   18.98305511  139.37699890    0.63000000    2.66000009
   18.98611069  134.28799438    0.63000000    2.64000010
   18.98944473  135.31900024    0.63000000    2.66000009
   18.99250031  137.91299438    0.63000000    2.64000010
   18.99583435  137.81700134    0.63000000    2.64000010
   19.00194359  137.81700134    0.63000000    2.64000010
   19.00611115  134.11199951    0.63000000    2.66000009
   19.00638962  133.38299561    0.63000000    2.66000009
   19.00972176  137.57299805    0.63000000    2.66000009
   19.01305580  132.18099976    0.63000000    2.66000009
   19.01611137  135.13600159    0.63000000    2.66000009
   19.01944351  132.27499390    0.64999998    2.64000010
   19.02249908  130.48699951    0.64999998    2.64000010
   19.02583313  137.29899597    0.64999998    2.64000010
   19.02916718  132.77499390    0.64999998    2.64000010
   19.03222275  137.31599426    0.64999998    2.64000010
   19.03555489  142.22099304    0.64999998    2.64000010
   19.03888893  136.93299866    0.64999998    2.64000010
   19.03972244  145.92700195    0.64999998    2.64000010
   19.04472160  145.92700195    0.64999998    2.64000010
   19.04888916  137.03599548    0.64999998    2.64000010
   19.05222130  141.84899902    0.64999998    2.64000010
   19.05527687  137.85200500    0.64999998    2.64000010
   19.05861092  138.86199951    0.64999998    2.64000010
   19.06166649  137.24800110    0.67000002    2.64000010
   19.06499863  140.25999451    0.67000002    2.64000010
   19.06833458  136.20899963    0.67000002    2.64000010
   19.07139015  134.45300293    0.67000002    2.64000010
   19.07305717  137.24299622    0.67000002    2.64000010
   19.07500076  142.13299561    0.67000002    2.64000010
   19.07833481  140.47200012    0.67000002    2.64000010
   19.08139038  138.13699341    0.67000002    2.64000010
   19.08750153  138.13699341    0.69000000    2.64000010
   19.09166718  136.45199585    0.69000000    2.64000010
   19.09500122  135.94999695    0.69000000    2.64000010
   19.09805679  135.97200012    0.69000000    2.64000010
   19.10138893  133.72799683    0.69000000    2.64000010
   19.10472298  136.19999695    0.69000000    2.64000010
   19.10666656  131.08799744    0.69000000    2.64000010
   19.10861206  143.33200073    0.69000000    2.64000010
   19.11166763  135.26300049    0.69000000    2.64000010
   19.11499977  134.66200256    0.70999998    2.61999989
   19.11805534  134.89599609    0.70999998    2.64000010
   19.12138939  134.67700195    0.70999998    2.64000010
   19.12472153  136.41799927    0.70999998    2.64000010
   19.13027763  136.41799927    0.70999998    2.61999989
   19.13444519  133.84100342    0.70999998    2.64000010
   19.13777733  134.18600464    0.70999998    2.64000010
   19.13972282  133.49699402    0.70999998    2.61999989
   19.14138794  136.24200439    0.70999998    2.61999989
   19.14472198  143.10600281    0.70999998    2.64000010
   19.14777756  135.23800659    0.70999998    2.64000010
   19.15111160  140.08099365    0.70999998    2.61999989
   19.15444374  139.51899719    0.70999998    2.61999989
   19.15749931  131.21299744    0.73000002    2.64000010
   19.16083336  133.11300659    0.70999998    2.61999989
   19.16416550  130.27799988    0.73000002    2.64000010
   19.16722107  136.79400635    0.73000002    2.61999989
   19.17333221  136.79400635    1.34000003    2.61999989
   19.17749977  136.74099731    1.01999998    2.61999989
   19.18055534  132.71400452    0.98000002    2.61999989
   19.18388748  136.65199280    0.98000002    2.61999989
   19.18694305  136.63600159    0.88000000    2.61999989
   19.19027710  135.29600525    0.83999997    2.61999989
   19.19361115  134.69200134    0.76999998    2.61999989
   19.19666672  132.90499878    0.76999998    2.64000010
   19.20000076  131.98199463    0.76999998    2.61999989
   19.20333481  135.26499939    0.75000000    2.61999989
   19.20639038  139.01499939    0.75000000    2.61999989
   19.20694542  135.77299500    0.75000000    2.61999989
   19.21027946  136.44099426    0.75000000    2.61999989
   19.21611214  136.44099426    0.76999998    2.61999989
