    HOUR (UT)   FLARE FACTOR    SKY TESTER    SUN TESTER
   14.69055557   -1.00000000   -1.00000000   -1.00000000
   15.01138878  163.37699890    0.00000000    0.00000000
   15.01583290  137.28599548    0.00000000    0.00000000
   15.01916599  149.64799500    0.00000000    0.00000000
   15.02250004  129.53399658    0.00000000    0.00000000
   15.02555561  138.83299255    0.00000000    0.00000000
   15.02888870  130.99400330    0.00000000    0.00000000
   15.03194427  140.03700256    0.00000000    0.00000000
   15.03527832  147.95399475    0.00000000    0.00000000
   15.03861141  163.44799805    0.00000000    0.00000000
   15.04166698  139.89399719    0.00000000    0.00000000
   15.04416752  138.41799927    0.00000000    0.00000000
   15.04527855  146.94400024    0.00000000    0.00000000
   15.04861164  140.79600525    0.00000000    0.00000000
   15.05194473  131.50199890    0.00000000    0.00000000
   15.05500031  161.07800293    0.00000000    0.00000000
   15.05833340  145.39300537    0.00000000    0.00000000
   15.06138897  141.39399719    0.00000000    0.00000000
   15.06472206  123.49500275    0.00000000    0.00000000
   15.06805515  125.83300018    0.00000000    0.00000000
   15.07111073  130.25999451    0.00000000    0.00000000
   15.07444477  138.00799561    0.00000000    0.00000000
   15.07750034  138.94900513    0.00000000    0.00000000
   15.07777786  131.70799255    0.00000000    0.00000000
   15.08111095  141.93400574    0.00000000    0.00000000
   15.08444405  135.67199707    0.00000000    0.00000000
   15.08749962  133.78999329    0.00000000    0.00000000
   15.09083271  135.96400452    0.00000000    0.00000000
   15.09388828  131.21400452    0.00000000    0.00000000
   15.09722233  123.22499847    0.00000000    0.00000000
   15.10055637  136.15600586    0.00000000    0.00000000
   15.10361195  130.75599670    0.00000000    0.00000000
   15.10694504  136.19099426    0.00000000    0.00000000
   15.11027813  135.61500549    0.00000000    0.00000000
   15.11083412  132.84500122    0.00000000    0.00000000
   15.11388969  129.23399353    0.00000000    0.00000000
   15.11694431  144.66299438    0.00000000    0.00000000
   15.12027836  125.11399841    0.00000000    0.00000000
   15.12361145  137.20799255    0.00000000    0.00000000
   15.12666702  130.68499756    0.00000000    0.00000000
   15.13000011  128.78199768    0.00000000    0.00000000
   15.13305569  128.48500061    0.00000000    0.00000000
   15.13638878  133.68299866    0.00000000    0.00000000
   15.13972187  156.97599792    0.00000000    0.00000000
   15.14277744  136.54299927    0.00000000    0.00000000
   15.14416695  135.03900146    0.00000000    0.00000000
   15.14666653  131.21499634    0.00000000    0.00000000
   15.14972210  132.35899353    0.00000000    0.00000000
   15.15305519  121.84799957    0.00000000    0.00000000
   15.15611076  121.99500275    0.00000000    0.00000000
   15.15944386  133.35299683    0.00000000    0.00000000
   15.16277695  124.77500153    0.00000000    0.00000000
   15.16583252  126.55799866    0.00000000    0.00000000
   15.16916656  139.62199402    0.00000000    0.00000000
   15.17250061  127.90299988    0.00000000    0.00000000
   15.17555618  141.88200378    0.00000000    0.00000000
   15.17750072  124.34799957    0.00000000    0.00000000
   15.17944431  137.51499939    0.00000000    0.00000000
   15.18249989  145.03599548    0.00000000    0.00000000
   15.18583298  149.34599304    0.00000000    0.00000000
   15.18916702  139.17799377    0.00000000    0.00000000
   15.19222260  133.18800354    0.00000000    0.00000000
   15.19583321  140.69700623    0.00000000    0.00000000
   15.19916630  125.18299866    0.00000000    0.00000000
   15.20222187  139.57699585    0.00000000    0.00000000
   15.20555496  142.20899963    0.00000000    0.00000000
   15.20916653  152.53199768    0.00000000    0.00000000
   15.21083355  164.27099609    0.00000000    0.00000000
   15.21277714  122.55200195    0.00000000    0.00000000
   15.21583271  142.46600342    0.00000000    0.00000000
   15.21916580  114.67800140    0.00000000    0.00000000
   15.22249985  115.69100189    0.00000000    0.00000000
   15.22555542  129.52000427    0.00000000    0.00000000
   15.22888851  144.09599304    0.00000000    0.00000000
   15.23194408  121.91200256    0.00000000    0.00000000
   15.23527813  134.43400574    0.00000000    0.00000000
   15.23861122  165.09700012    0.00000000    0.00000000
   15.24166679  142.08999634    0.00000000    0.00000000
   15.24416733  206.49299622    0.00000000    0.00000000
   15.24555588  197.05099487    0.00000000    0.00000000
   15.24861145  226.63200378    0.00000000    0.00000000
   15.25194454  191.49600220    0.00000000    0.00000000
   15.25527763  174.46200562    0.00000000    0.00000000
   15.25833321  171.37399292    0.00000000    0.00000000
   15.26166630  243.60499573    0.00000000    0.00000000
   15.26500034  221.69500732    0.00000000    0.00000000
   15.26805496  206.06799316    0.00000000    0.00000000
   15.27138901  174.50500488    0.00000000    0.00000000
   15.27444458  218.93299866    0.00000000    0.00000000
   15.27750015  350.67999268    0.00000000    0.00000000
   15.27833271  309.68200684    0.00000000    0.00000000
   15.28027725  174.25000000    0.00000000    0.00000000
   15.28027725  191.49600220    0.00000000    0.00000000
   15.28027725  174.46200562    0.00000000    0.00000000
   15.28027725  171.37399292    0.00000000    0.00000000
   15.28027725  243.60499573    0.00000000    0.00000000
   15.28055573  221.69500732    0.00000000    0.00000000
   15.28055573  206.06799316    0.00000000    0.00000000
   15.28055573  174.50500488    0.00000000    0.00000000
   15.28055573  218.93299866    0.00000000    0.00000000
   15.28083324  309.68200684    0.00000000    0.00000000
   15.28249931  253.22500610    0.00000000    0.00000000
   15.28555584  363.76300049    0.00000000    0.00000000
   15.28750038  315.74301147    0.00000000    0.00000000
   15.28888893  383.13400269    0.00000000    0.00000000
   15.29027843  232.99099731    0.00000000    0.00000000
   15.29166698  278.10101318    0.00000000    0.00000000
   15.29305553  180.09800720    0.00000000    0.00000000
   15.29305553  253.22500610    0.00000000    0.00000000
   15.29305553  363.76300049    0.00000000    0.00000000
   15.29361153  209.86399841    0.00000000    0.00000000
   15.29694462  222.28199768    0.00000000    0.00000000
   15.30027771  183.53599548    0.00000000    0.00000000
   15.30333328  138.03900146    0.00000000    0.00000000
   15.30666733  134.70500183    0.00000000    0.00000000
   15.31000042  173.47599792    0.00000000    0.00000000
   15.31388950  173.47599792    0.00000000    0.00000000
   15.31805515  183.66299438    0.00000000    0.00000000
   15.32138920  244.06599426    0.00000000    0.00000000
   15.32444477  150.34300232    0.00000000    0.00000000
   15.32694435  236.22399902    0.00000000    0.00000000
   15.32805538  189.62399292    0.00000000    0.00000000
   15.33138847  236.08000183    0.00000000    0.00000000
   15.33472157  200.20399475    0.00000000    0.00000000
   15.33777714  165.20399475    0.00000000    0.00000000
   15.34111118  184.25300598    0.00000000    0.00000000
   15.34444427  206.80499268    0.00000000    0.00000000
   15.34749985  170.89700317    0.00000000    0.00000000
   15.35083389  219.34599304    0.00000000    0.00000000
   15.35666752  219.34599304    0.00000000    0.00000000
   15.36083412  115.74199677    0.00000000    0.00000000
   15.36416721  115.29599762    0.00000000    0.00000000
   15.36722279  120.84200287    0.00000000    0.00000000
   15.37055588  119.54900360    0.00000000    0.00000000
   15.37388897  129.18600464    0.00000000    0.00000000
   15.37722206  116.08300018    0.00000000    0.00000000
   15.38027763  115.77899933    0.00000000    0.00000000
   15.38361073  132.35800171    0.00000000    0.00000000
   15.48111057   -1.00000000   -1.00000000   -1.00000000
   15.57833290   -1.00000000   -1.00000000   -1.00000000
   15.68861103   -1.00000000   -1.00000000   -1.00000000
   15.80472279   94.87709808    4.00000000    2.25000000
   15.80777836  178.92799377    4.09999990    2.25000000
   15.81111145  165.19299316    4.03999996    2.23000002
   15.81444454  158.11999512    3.80999994    2.23000002
   15.81750011  150.10899353    1.21000004    1.09000003
   15.82083321  140.93600464    4.90999985    2.46000004
   15.82499981  140.93600464    4.90999985    2.48000002
   15.82916641  143.99400330    4.90999985    2.42000008
   15.83222198  148.22399902    4.90999985    2.48000002
   15.83555508  154.26600647    4.90999985    2.42000008
   15.83805561  152.49800110    4.90999985    2.42000008
   15.83916664  131.96400452    4.90999985    2.42000008
   15.84249973  142.46000671    4.90999985    2.44000006
   15.84555531  148.94799805    4.90999985    2.39000010
   15.84888840  137.06900024    4.90999985    2.34999990
   15.85222244  138.21499634    4.90999985    2.36999989
   15.85527802  138.63099670    4.90999985    2.42000008
   15.85861111  145.70399475    4.90999985    2.42000008
   15.86194515  161.48599243    4.90999985    2.42000008
   15.86777782  161.48599243    4.90999985    2.30999994
   15.87194443  152.08500671    4.90999985    2.34999990
   15.87500000  148.61900330    4.90999985    2.36999989
   15.87833309  139.55000305    4.90999985    2.36999989
   15.88166714  140.42700195    4.90999985    2.40000010
   15.88472176  136.05700684    4.90999985    2.34999990
   15.88805580  144.66000366    4.90999985    2.36999989
   15.89138889  138.50100708    4.90999985    2.34999990
   15.89444447  151.11500549    4.90999985    2.42000008
   15.89777756  120.06099701    4.90999985    2.42000008
   15.90083313  141.31399536    4.90999985    2.44000006
   15.90416622  126.18099976    4.90999985    2.48000002
   15.90472221  124.96299744    4.90999985    2.50000000
   15.91055489  124.96299744    4.90999985    2.36999989
   15.91472149  128.41700745    4.90999985    2.46000004
   15.91805553  114.73999786    4.90999985    2.50000000
   15.92111111  129.69500732    4.90999985    2.50000000
   15.92444515  114.72899628    4.90999985    2.46000004
   15.92777824  131.76800537    4.90999985    2.50000000
   15.93083382  124.38400269    4.90999985    2.44000006
   15.93416691  123.76799774    4.90999985    2.44000006
   15.93722248  121.68699646    4.90999985    2.50000000
   15.93805599  129.02600098    4.90999985    2.50000000
   15.94111156  118.59100342    4.90999985    2.51999998
   15.94416714  125.66799927    4.90999985    2.50000000
   15.94750023  125.83499908    4.90999985    2.46000004
   15.95333290  125.83499908    4.90999985    2.46000004
   15.95749950  121.80100250    4.90999985    2.50000000
   15.96083355  121.55400085    4.90999985    2.50000000
   15.96416664  132.71200562    4.90999985    2.53999996
   15.96722221  135.10499573    4.90999985    2.51999998
   15.97055531  122.18800354    4.90999985    2.51999998
   15.97138882  125.19000244    4.90999985    2.50000000
   15.97416592  141.16400146    4.90999985    2.50000000
   15.97722149  128.49099731    4.90999985    2.53999996
   15.98055553  124.16600037    4.90999985    2.50000000
   15.98361111  112.80799866    4.90999985    2.53999996
   15.98694515  119.21700287    4.90999985    2.57999992
   15.99027824  118.75499725    4.90999985    2.59999990
   15.99638939  118.75499725    4.90999985    2.51999998
   16.00055504  123.30300140    4.90999985    2.57999992
   16.00361061  126.76300049    4.90999985    2.57999992
   16.00472260  116.60199738    4.90999985    2.57999992
   16.00749969  121.48000336    4.90999985    2.55999994
   16.01055527  118.25000000    4.90999985    2.51999998
   16.01388931  122.78600311    4.90999985    2.53999996
   16.01694489  118.20500183    4.90999985    2.53999996
   16.02027702  113.68000031    4.90999985    2.53999996
   16.02361107  112.47399902    4.90999985    2.53999996
   16.02666664  103.81099701    4.90999985    2.53999996
   16.03000069  127.91100311    4.90999985    2.51999998
   16.03333282  114.61299896    4.90999985    2.51999998
   16.03916550  114.61299896    4.90999985    2.51999998
   16.04333305  134.36300659    4.90999985    2.48000002
   16.04638863  110.82800293    4.90999985    2.42000008
   16.04972076  130.83099365    4.90999985    2.34999990
   16.05305481  119.86399841    4.90999985    2.26999998
   16.05611038  131.68899536    4.90999985    2.34999990
   16.05944443  147.79100037    4.90999985    2.26999998
   16.06277657  216.59500122    4.90999985    2.17000008
   16.06583214  274.20199585    4.90999985    2.01999998
   16.06916809  368.98999023    4.90999985    1.94000006
   16.07111168  147.90400696    4.90999985    1.89999998
   16.07111168  119.86399841    4.90999985    2.26999998
   16.07111168  131.68899536    4.90999985    2.34999990
   16.07139015  147.79100037    4.90999985    2.26999998
   16.07139015  216.59500122    4.90999985    2.17000008
   16.07139015  274.20199585    4.90999985    2.01999998
   16.07139015  368.98999023    4.90999985    1.94000006
   16.07166672  134.36300659    4.90999985    2.48000002
   16.07166672  110.82800293    4.90999985    2.42000008
   16.07166672  130.83099365    4.90999985    2.34999990
   16.07361221  183.85499573    4.90999985    2.11999989
   16.07694626  139.32600403    4.90999985    2.21000004
   16.08000183  110.03700256    4.90999985    2.46000004
   16.08333397  122.29900360    4.90999985    2.64000010
   16.08666801  118.61799622    4.90999985    2.64000010
   16.09194565  118.61799622    4.90999985    2.48000002
   16.09611130  110.89900208    4.90999985    2.59999990
   16.09916687  118.13999939    4.90999985    2.50000000
   16.10250092  117.61100006    4.90999985    2.57999992
   16.10499954  110.52500153    4.90999985    2.57999992
   16.10583305  109.07099915    4.90999985    2.55999994
   16.10916710  111.15000153    4.90999985    2.57999992
   16.11250114  103.29299927    4.90999985    2.51999998
   16.11555672  111.34500122    4.90999985    2.57999992
   16.11888885  100.71199799    4.90999985    2.57999992
   16.12222290  101.00199890    4.90999985    2.57999992
   16.12527847   99.92780304    4.90999985    2.59999990
   16.12861061  101.76599884    4.90999985    2.57999992
   16.13472176  101.76599884    4.90999985    2.59999990
   16.13888931  112.93699646    4.90999985    2.59999990
   16.14222145  125.87000275    4.90999985    2.55999994
   16.14527702  132.62600708    4.90999985    2.44000006
   16.14861107  119.97699738    4.90999985    2.40000010
   16.15166664  101.77999878    4.90999985    2.55999994
   16.15499878  104.94300079    4.90999985    2.55999994
   16.15833282  103.32700348    4.90999985    2.59999990
   16.16138840  119.78099823    4.90999985    2.55999994
   16.16472244  101.00199890    4.90999985    2.57999992
   16.16805458  111.10900116    4.90999985    2.57999992
   16.17111015  110.41300201    4.90999985    2.57999992
   16.17166519  102.47499847    4.90999985    2.57999992
   16.17749977  102.47499847    4.90999985    2.57999992
   16.18166542  112.10299683    4.90999985    2.55999994
   16.18499947  120.43000031    4.90999985    2.51999998
   16.18805504  117.75099945    4.90999985    2.51999998
   16.19138718  142.36199951    4.90999985    2.36999989
   16.19472122  138.75399780    4.90999985    2.23000002
   16.19777679  115.26300049    4.90999985    2.40000010
   16.20111275  114.66699982    4.90999985    2.50000000
   16.20444489  119.78099823    4.90999985    2.55999994
   16.20499992  118.48200226    4.90999985    2.53999996
   16.20805550  112.86299896    4.90999985    2.50000000
   16.21111107  114.80699921    4.90999985    2.50000000
   16.21444511  119.92700195    4.90999985    2.50000000
   16.22055626  119.92700195    4.90999985    2.51999998
   16.22444534  118.75399780    4.90999985    2.51999998
   16.22777748  143.37899780    4.90999985    2.55999994
   16.23111153  149.75799561    4.90999985    2.57999992
   16.23444557  151.00199890    4.90999985    2.53999996
   16.23750114  169.11500549    4.90999985    2.53999996
   16.23833275  145.07800293    4.90999985    2.53999996
   16.24138832  145.30299377    4.90999985    2.53999996
   16.24444389  222.87100220    4.90999985    2.51999998
   16.24777794  261.61599731    4.90999985    2.46000004
   16.25111198  351.78298950    4.90999985    2.44000006
   16.25305557  468.85400391    4.90999985    2.46000004
   16.25416756  404.98498535    4.90999985    2.42000008
   16.25555611  465.80499268    4.90999985    2.44000006
   16.25694466  451.05099487    4.90999985    2.46000004
   16.25833321  434.71499634    4.90999985    2.46000004
   16.25972176  312.79299927    4.90999985    2.48000002
   16.26111031  152.95799255    4.90999985    2.46000004
   16.26138878  261.61599731    4.90999985    2.46000004
   16.26138878  351.78298950    4.90999985    2.44000006
   16.26138878  118.75399780    4.90999985    2.51999998
   16.26138878  143.37899780    4.90999985    2.55999994
   16.26138878  149.75799561    4.90999985    2.57999992
   16.26166725  151.00199890    4.90999985    2.53999996
   16.26166725  169.11500549    4.90999985    2.53999996
   16.26166725  145.30299377    4.90999985    2.53999996
   16.26166725  222.87100220    4.90999985    2.51999998
   16.26222229  112.33100128    4.90999985    2.44000006
   16.26555634  106.78500366    4.90999985    2.48000002
   16.26888847   73.14689636    4.90999985    2.51999998
   16.27194405   79.54820251    4.90999985    2.55999994
   16.27527809   -1.00000000    4.90999985    2.51999998
   16.28194427   -1.00000000    4.90999985    2.55999994
   16.28610992   -1.00000000    4.90999985    2.55999994
   16.28944397   -1.00000000    4.90999985    2.59999990
   16.29249954   -1.00000000    4.90999985    2.57999992
   16.29611015   -1.00000000    4.90999985    2.57999992
   16.29916573   -1.00000000    4.90999985    2.57999992
   16.30249977   -1.00000000    4.90999985    2.57999992
   16.30555534   -1.00000000    4.90999985    2.59999990
   16.30888748   -1.00000000    4.90999985    2.59999990
   16.31222153   -1.00000000    4.90999985    2.59999990
   16.31527710   -1.00000000    4.90999985    2.59999990
   16.31861115   -1.00000000    4.90999985    2.59999990
   16.32888985   -1.00000000    4.90999985    2.61999989
   16.33222389   -1.00000000    4.90999985    2.61999989
   16.33527756   -1.00000000    4.90999985    2.61999989
   16.33861160   -1.00000000    4.53000021    2.64000010
   16.34194565   -1.00000000    3.95000005    2.61999989
   16.34500122   -1.00000000    3.32999992    2.64000010
   16.34833336   -1.00000000    2.78999996    2.61999989
   16.35138893   -1.00000000    2.59999990    2.64000010
   16.35472298   -1.00000000    2.44000006    2.61999989
   16.35805511   -1.00000000    2.36999989    2.61999989
   16.36111069   -1.00000000    2.55999994    2.61999989
   16.37166595   -1.00000000    3.36999989    2.59999990
   16.37500000   -1.00000000    3.75000000    2.59999990
   16.37833405   -1.00000000    4.32999992    2.57999992
   16.38138962   -1.00000000    4.86999989    2.57999992
   16.38472176   -1.00000000    4.90999985    2.59999990
   16.38777733   -1.00000000    4.55999994    2.59999990
   16.39111137   -1.00000000    4.26000023    2.59999990
   16.39444351   -1.00000000    4.38999987    2.59999990
   16.39805603   -1.00000000    4.78000021    2.55999994
   16.40111160   -1.00000000    4.90999985    2.55999994
   16.40444374   -1.00000000    4.90999985    2.57999992
   16.41472244   -1.00000000    4.90999985    2.61999989
   16.41777802   -1.00000000    4.90999985    2.59999990
   16.42111015   -1.00000000    4.90999985    2.57999992
   16.42444420   -1.00000000    4.90999985    2.59999990
   16.42749977   -1.00000000    4.90999985    2.57999992
   16.43111038   -1.00000000    4.90999985    2.59999990
   16.43416595   -1.00000000    4.90999985    2.57999992
   16.43750000   -1.00000000    4.90999985    2.55999994
   16.44083214   -1.00000000    4.90999985    2.55999994
   16.44388771   -1.00000000    4.90999985    2.55999994
   16.44722176   -1.00000000    4.90999985    2.59999990
   16.45750046   -1.00000000    4.90999985    2.57999992
   16.46083450   -1.00000000    4.90999985    2.57999992
   16.46444511   -1.00000000    4.90999985    2.57999992
   16.46750069   -1.00000000    4.90999985    2.57999992
   16.47083473   -1.00000000    4.90999985    2.59999990
   16.47416687   -1.00000000    4.90999985    2.59999990
   16.47722244   -1.00000000    4.90999985    2.59999990
   16.48055649   -1.00000000    4.90999985    2.59999990
   16.48361206   -1.00000000    4.90999985    2.59999990
   16.48694420   -1.00000000    4.90999985    2.57999992
   16.49027824   -1.00000000    4.82999992    2.59999990
   16.50027847   -1.00000000    4.48999977    2.59999990
   16.50361061   -1.00000000    4.48999977    2.59999990
   16.50666618   -1.00000000    4.48999977    2.59999990
   16.51000023   -1.00000000    4.53999996    2.59999990
   16.51333427   -1.00000000    4.61999989    2.59999990
   16.51638794   -1.00000000    4.71999979    2.59999990
   16.51972198   -1.00000000    4.86999989    2.59999990
   16.52305603   -1.00000000    4.90999985    2.59999990
   16.52611160   -1.00000000    4.90999985    2.57999992
   16.52972221   -1.00000000    4.90999985    2.59999990
   16.53277779   -1.00000000    4.90999985    2.57999992
   16.54305458   -1.00000000    4.90999985    2.55999994
   16.54638863   -1.00000000    4.90999985    2.55999994
   16.54972076   -1.00000000    4.90999985    2.57999992
   16.55277634   -1.00000000    4.90999985    2.57999992
   16.55611038   -1.00000000    4.90999985    2.57999992
   16.55944443   -1.00000000    4.90999985    2.57999992
   16.56305504   -1.00000000    4.90999985    2.55999994
   16.56611061   -1.00000000    4.90999985    2.55999994
   16.56944466   -1.00000000    4.90999985    2.55999994
   16.57277870   -1.00000000    4.90999985    2.57999992
   16.57583427   -1.00000000    4.90999985    2.57999992
   16.58611107   -1.00000000    4.90999985    2.55999994
   16.58916664   -1.00000000    4.90999985    2.55999994
   16.59250069   -1.00000000    4.90999985    2.53999996
   16.59611130   -1.00000000    4.90999985    2.53999996
   16.59916687   -1.00000000    4.90999985    2.55999994
   16.60250092   -1.00000000    4.90999985    2.51999998
   16.60583305   -1.00000000    4.90999985    2.53999996
   16.60888863   -1.00000000    4.90999985    2.55999994
   16.61222267   -1.00000000    4.90999985    2.55999994
   16.61555672   -1.00000000    4.90999985    2.53999996
   16.61861038   -1.00000000    4.90999985    2.57999992
   16.62888908   -1.00000000    4.80000019    2.57999992
   16.63222313   -1.00000000    4.59999990    2.57999992
   16.63527679   -1.00000000    4.71999979    2.59999990
   16.63861084   -1.00000000    4.90999985    2.59999990
   16.64166641   -1.00000000    4.90999985    2.57999992
   16.64500046   -1.00000000    4.90999985    2.57999992
   16.64833260   -1.00000000    4.90999985    2.57999992
   16.65138817   -1.00000000    4.90999985    2.55999994
   16.65472221   -1.00000000    4.90999985    2.57999992
   16.65805435   -1.00000000    4.90999985    2.57999992
   16.66110992   -1.00000000    4.90999985    2.55999994
   16.67166519   -1.00000000    4.90999985    2.57999992
   16.67499924   -1.00000000    4.90999985    2.55999994
   16.67805481   -1.00000000    4.90999985    2.51999998
   16.68138885   -1.00000000    4.90999985    2.55999994
   16.68472099   -1.00000000    4.90999985    2.53999996
   16.68777657   -1.00000000    4.90999985    2.55999994
   16.69111061   -1.00000000    4.90999985    2.57999992
   16.69444275   -1.00000000    4.90999985    2.55999994
   16.69777679   -1.00000000    4.90999985    2.55999994
   16.70083427   -1.00000000    4.90999985    2.55999994
   16.70416832   -1.00000000    4.90999985    2.55999994
   16.71444511   -1.00000000    4.90999985    2.55999994
   16.71777916   -1.00000000    4.90999985    2.55999994
   16.72111130   -1.00000000    4.90999985    2.53999996
   16.72416687   -1.00000000    4.90999985    2.55999994
   16.72750092   -1.00000000    4.90999985    2.55999994
   16.73111153   -1.00000000    4.90999985    2.55999994
   16.73416710   -1.00000000    4.90999985    2.57999992
   16.73750114   -1.00000000    4.90999985    2.57999992
   16.74083328   -1.00000000    4.90999985    2.57999992
   16.74388885   -1.00000000    4.90999985    2.59999990
   16.74722290   -1.00000000    4.90999985    2.59999990
   16.75749969   -1.00000000    4.69999981    2.59999990
   16.76055527   -1.00000000    4.80000019    2.59999990
   16.76416588   -1.00000000    4.90999985    2.57999992
   16.76749992   -1.00000000    4.90999985    2.57999992
   16.77055550   -1.00000000    4.90999985    2.57999992
   16.77388954   -1.00000000    4.90999985    2.57999992
   16.77694511   -1.00000000    4.59999990    2.59999990
   16.78027725   -1.00000000    3.86999989    2.61999989
   16.78361130   -1.00000000    3.26999998    2.61999989
   16.78666687   -1.00000000    2.86999989    2.64000010
   16.78999901   -1.00000000    2.51999998    2.61999989
   16.80027771   -1.00000000    2.21000004    2.61999989
   16.80360985   -1.00000000    2.30999994    2.64000010
   16.82305717   -1.00000000    4.90999985    2.55999994
   16.82638931   -1.00000000    4.90999985    2.55999994
   16.82972336   -1.00000000    4.90999985    2.57999992
   16.83305550   -1.00000000    4.90999985    2.57999992
   16.84333420   -1.00000000    4.90999985    2.57999992
   16.84638977   -1.00000000    4.90999985    2.57999992
   16.84972191   -1.00000000    4.90999985    2.53999996
   16.85305595   -1.00000000    4.90999985    2.57999992
   16.85611153   -1.00000000    4.90999985    2.59999990
   16.85944557   -1.00000000    4.90999985    2.57999992
   16.86277771   -1.00000000    4.90999985    2.59999990
   16.86611176   -1.00000000    4.90999985    2.59999990
   16.86944389   -1.00000000    4.90999985    2.57999992
   16.87249947   -1.00000000    4.90999985    2.61999989
   16.87583351   -1.00000000    4.90999985    2.61999989
   16.88611031   -1.00000000    4.90999985    2.57999992
   16.88944435   -1.00000000    4.78000021    2.55999994
   16.89249992   -1.00000000    4.80000019    2.57999992
   16.89611053   -1.00000000    4.13999987    2.61999989
   16.89944458   -1.00000000    4.26000023    2.59999990
   16.90277672   -1.00000000    4.65999985    2.61999989
   16.90583229   -1.00000000    4.90999985    2.55999994
   16.90916634   -1.00000000    4.90999985    2.59999990
   16.91250038   -1.00000000    4.88999987    2.59999990
   16.91555595   -1.00000000    4.51000023    2.61999989
   16.91888809   -1.00000000    4.42999983    2.59999990
   16.92888832   -1.00000000    4.13999987    2.59999990
   16.93222237   -1.00000000    3.78999996    2.61999989
   16.93527603   -1.00000000    3.36999989    2.61999989
   16.93861008   -1.00000000    3.00000000    2.61999989
   16.94194412   -1.00000000    2.69000006    2.59999990
   16.94499969   -1.00000000    2.19000006    2.61999989
   16.94833183   -1.00000000    1.96000004    2.64000010
   16.95166779   -1.00000000    4.90999985    2.71000004
   16.95472336   -1.00000000    4.90999985    2.71000004
   16.95805550   -1.00000000    4.90999985    2.71000004
   16.96111107   -1.00000000    4.90999985    2.71000004
   16.97166634   -1.00000000    4.90999985    2.71000004
   16.97500038   -1.00000000    4.90999985    2.71000004
   16.97833443   -1.00000000    4.90999985    2.69000006
   16.98139000   -1.00000000    4.90999985    2.71000004
   16.98472214   -1.00000000    4.90999985    2.71000004
   16.98805618   -1.00000000    4.90999985    2.71000004
   16.99111176   -1.00000000    4.90999985    2.71000004
   16.99444389   -1.00000000    4.90999985    2.71000004
   16.99805641   -1.00000000    4.90999985    2.71000004
   17.00111198   -1.00000000    4.90999985    2.71000004
   17.00444412   -1.00000000    4.90999985    2.71000004
   17.01472282   -1.00000000    4.90999985    2.69000006
   17.01777840   -1.00000000    4.90999985    2.69000006
   17.02111053   -1.00000000    4.90999985    2.71000004
   17.02416611   -1.00000000    4.90999985    2.71000004
   17.02750015   -1.00000000    4.90999985    2.71000004
   17.03083229   -1.00000000    4.90999985    2.71000004
   17.03416634   -1.00000000    4.90999985    2.71000004
   17.03750038   -1.00000000    4.90999985    2.69000006
   17.04055595   -1.00000000    4.90999985    2.69000006
   17.04388809   -1.00000000    4.90999985    2.69000006
   17.04722214   -1.00000000    4.90999985    2.69000006
   17.05749893   -1.00000000    4.90999985    2.67000008
   17.06055450   -1.00000000    4.90999985    2.67000008
   17.06416512   -1.00000000    4.90999985    2.67000008
   17.06750107   -1.00000000    4.90999985    2.67000008
   17.07083511   -1.00000000    4.90999985    2.69000006
   17.07389069   -1.00000000    4.90999985    2.69000006
   17.07722282   -1.00000000    4.90999985    2.69000006
   17.08055687   -1.00000000    4.90999985    2.67000008
   17.08361244   -1.00000000    4.90999985    2.69000006
   17.08694458   -1.00000000    4.90999985    2.69000006
   17.09000015   -1.00000000    4.90999985    2.69000006
   17.10027885   -1.00000000    4.90999985    2.69000006
   17.10361099   -1.00000000    4.90999985    2.69000006
   17.10666656   -1.00000000    4.90999985    2.69000006
   17.11000061   -1.00000000    4.90999985    2.67000008
   17.11333466   -1.00000000    4.90999985    2.67000008
   17.11638832   -1.00000000    4.90999985    2.69000006
   17.11972237   -1.00000000    4.90999985    2.69000006
   17.12305641   -1.00000000    4.90999985    2.67000008
   17.12611198   -1.00000000    4.90999985    2.69000006
   17.12972260   -1.00000000    4.90999985    2.69000006
   17.13277817   -1.00000000    4.90999985    2.67000008
   17.14305496   -1.00000000    4.90999985    2.69000006
   17.14638901   -1.00000000    4.90999985    2.69000006
   17.14972115   -1.00000000    4.90999985    2.69000006
   17.15277672  335.98599243    4.90999985    2.69000006
   17.15472221  317.86700439    4.90999985    2.69000006
   17.15499878   -1.00000000    4.90999985    2.67000008
   17.15499878   -1.00000000    4.90999985    2.69000006
   17.15499878   -1.00000000    4.90999985    2.69000006
   17.15499878   -1.00000000    4.90999985    2.67000008
   17.15527725   -1.00000000    4.90999985    2.69000006
   17.15527725   -1.00000000    4.90999985    2.69000006
   17.15527725   -1.00000000    4.90999985    2.69000006
   17.15527725  335.98599243    4.90999985    2.69000006
   17.15527725   -1.00000000    4.90999985    2.69000006
   17.22138977  143.45100403    4.90999985    2.67000008
   17.22472191  137.97000122    4.90999985    2.67000008
   17.22777748  128.68299866    4.90999985    2.69000006
   17.23111153  115.66500092    4.90999985    2.67000008
   17.23416710  130.85600281    4.90999985    2.69000006
   17.23750114  133.53999329    4.90999985    2.69000006
   17.24166679  133.53999329    4.90999985    2.67000008
   17.24583435  125.40499878    4.90999985    2.67000008
   17.24888992  119.59899902    4.90999985    2.67000008
   17.25222206  130.30999756    4.90999985    2.67000008
   17.25472260  132.09599304    4.90999985    2.67000008
   17.25583267  126.39800262    4.90999985    2.67000008
   17.25888824  131.78399658    4.90999985    2.67000008
   17.26222229  134.50900269    4.90999985    2.67000008
   17.26527786  124.30699921    4.90999985    2.67000008
   17.26861000  116.35700226    4.90999985    2.67000008
   17.27194405  127.42199707    4.90999985    2.69000006
   17.27499962  127.68900299    4.90999985    2.67000008
   17.27833366  125.40699768    4.90999985    2.67000008
   17.28444481  125.40699768    4.90999985    2.67000008
   17.28861046  121.09400177    4.90999985    2.66000009
   17.29194450  127.01599884    4.90999985    2.67000008
   17.29500008  124.77300262    4.90999985    2.67000008
   17.29833221  119.02400208    4.90999985    2.67000008
   17.30166626  120.18299866    4.90999985    2.67000008
   17.30472183  118.98500061    4.90999985    2.69000006
   17.30805397  117.26399994    4.90999985    2.69000006
   17.31110954  114.07599640    4.90999985    2.67000008
   17.31444359  119.04499817    4.90999985    2.69000006
   17.31777954  115.89700317    4.90999985    2.69000006
   17.32083511  120.15299988    4.90999985    2.67000008
   17.32139015  115.87300110    4.90999985    2.67000008
   17.32722282  115.87300110    4.90999985    2.67000008
   17.33139038  111.10800171    4.90999985    2.69000006
   17.33472252  117.65399933    4.90999985    2.69000006
   17.33805656  120.51899719    4.90999985    2.67000008
   17.34111214  118.57499695    4.90999985    2.66000009
   17.34444427  124.36699677    4.90999985    2.67000008
   17.34749985  115.81099701    4.90999985    2.67000008
   17.35083389  119.00399780    4.90999985    2.67000008
   17.35416794  111.35399628    4.90999985    2.67000008
   17.35472298  119.31199646    4.90999985    2.66000009
   17.35777855  111.31700134    4.90999985    2.66000009
   17.36083412  115.44000244    4.90999985    2.66000009
   17.36416626  112.52100372    4.90999985    2.66000009
   17.37027740  112.52100372    4.90999985    2.66000009
   17.37444496  124.65000153    4.90999985    2.66000009
   17.37750053  123.64199829    4.90999985    2.67000008
   17.38083267  118.09899902    4.90999985    2.66000009
   17.38388824  120.80100250    4.90999985    2.64000010
   17.38722229  126.61599731    4.90999985    2.66000009
   17.38805580  119.09999847    4.90999985    2.66000009
   17.39083290  122.71700287    4.90999985    2.66000009
   17.39388847  122.10099792    4.90999985    2.66000009
   17.39722252  116.69000244    4.90999985    2.66000009
   17.40055466  117.95899963    4.90999985    2.66000009
   17.40361023  113.39600372    4.90999985    2.66000009
   17.40694427  110.59799957    4.90999985    2.66000009
   17.41305542  110.59799957    4.90999985    2.66000009
   17.41722107  110.90100098    4.90999985    2.66000009
   17.42027664  115.25800323    4.90999985    2.66000009
   17.42138863  113.57499695    4.90999985    2.66000009
   17.42416573  110.51100159    4.90999985    2.64000010
   17.42722130  109.17700195    4.90999985    2.64000010
   17.43055534  115.29799652    4.90999985    2.64000010
   17.43388748  111.51799774    4.90999985    2.64000010
   17.43694305  119.24700165    4.90999985    2.61999989
   17.44027710  116.31999969    4.90999985    2.61999989
   17.44361115  116.99500275    4.90999985    2.61999989
   17.44666672  118.94499969    4.90999985    2.61999989
   17.45000076  114.37200165    4.90999985    2.61999989
   17.45583344  114.37200165    4.90999985    2.64000010
   17.46000099  114.72100067    4.90999985    2.64000010
   17.46333504  107.41200256    4.90999985    2.64000010
   17.46666718  121.60700226    4.90999985    2.61999989
   17.46972275  113.30000305    4.90999985    2.61999989
   17.47305679  116.91699982    4.90999985    2.61999989
   17.47638893  118.30000305    4.90999985    2.61999989
   17.47944450  120.20500183    4.90999985    2.61999989
   17.48277855  122.66600037    4.90999985    2.61999989
   17.48583412  111.44100189    4.90999985    2.61999989
   17.48805618  114.80200195    4.90999985    2.61999989
   17.48972321  119.51200104    4.90999985    2.61999989
   17.49277878  115.40699768    4.90999985    2.61999989
   17.49861145  115.40699768    4.90999985    2.57999992
   17.50277710  128.89100647    4.90999985    2.59999990
   17.50611115  121.95400238    4.90999985    2.61999989
   17.50944519  113.44899750    4.90999985    2.59999990
   17.51250076  129.33200073    4.90999985    2.59999990
   17.51583290  127.10299683    4.90999985    2.59999990
   17.51888847  120.89399719    4.90999985    2.59999990
   17.52138901  120.84999847    4.90999985    2.59999990
   17.52277756  124.29100037    4.90999985    2.59999990
   17.52583313  124.34300232    4.90999985    2.59999990
   17.52916718  122.44200134    4.90999985    2.61999989
   17.53249931  125.03399658    4.90999985    2.59999990
   17.53555489  126.07900238    4.90999985    2.59999990
   17.54166603  126.07900238    4.90999985    2.61999989
   17.54583359  130.09500122    4.90999985    2.59999990
   17.54888916  124.43800354    4.90999985    2.61999989
   17.55222130  132.94099426    4.90999985    2.61999989
   17.55472183  125.43099976    4.90999985    2.61999989
   17.55583191  126.03299713    4.90999985    2.61999989
   17.55888748  134.10600281    4.90999985    2.64000010
   17.56222153  134.76800537    4.90999985    2.64000010
   17.56555557  144.38000488    4.90999985    2.64000010
   17.56861115  138.02400208    4.90999985    2.64000010
   17.57194519  137.63299561    4.90999985    2.66000009
   17.57527924  134.92599487    4.90999985    2.66000009
   17.57833481  136.28100586    4.90999985    2.66000009
   17.58444595  136.28100586    4.90999985    2.66000009
   17.58861160  131.09100342    4.90999985    2.66000009
   17.59166718  117.57099915    4.90999985    2.66000009
   17.59500122  127.29499817    4.90999985    2.66000009
   17.59833336  123.31500244    4.90999985    2.67000008
   17.60138893  122.43000031    4.90999985    2.66000009
   17.60472298  112.33499908    4.90999985    2.64000010
   17.60805511  123.77799988    4.90999985    2.64000010
   17.61111069  121.83999634    4.90999985    2.64000010
   17.61444473  123.85700226    4.90999985    2.64000010
   17.61750031  119.85299683    4.90999985    2.64000010
   17.62083435  128.56199646    4.90999985    2.64000010
   17.62138939  130.91900635    4.90999985    2.64000010
   17.62722206  130.91900635    4.90999985    2.66000009
   17.63138962  119.65799713    4.90999985    2.64000010
   17.63472176  136.90600586    4.90999985    2.64000010
   17.63777733  124.88400269    4.90999985    2.61999989
   17.64111137  127.95500183    4.90999985    2.57999992
   17.64444351  109.77500153    4.90999985    2.57999992
   17.64749908  116.10099792    4.90999985    2.57999992
   17.65083313  123.78399658    4.90999985    2.59999990
   17.65388870  112.77700043    4.90999985    2.57999992
   17.65472221  122.03099823    4.90999985    2.57999992
   17.65749931  126.68699646    4.90999985    2.57999992
   17.66083336  112.79799652    4.90999985    2.57999992
   17.66388893  114.24099731    4.90999985    2.55999994
   17.67000008  114.24099731    4.90999985    2.57999992
   17.67416573  123.24299622    4.90999985    2.57999992
   17.67749977  121.31500244    4.90999985    2.57999992
   17.68083191  116.76499939    4.90999985    2.59999990
   17.68388748  124.38300323    4.90999985    2.59999990
   17.68722153  118.57800293    4.90999985    2.59999990
   17.68805504  120.04499817    4.90999985    2.59999990
   17.69083214  110.51699829    4.90999985    2.59999990
   17.69388771  126.08200073    4.90999985    2.59999990
   17.69722176  114.17099762    4.90999985    2.59999990
   17.70055580  108.02999878    4.90999985    2.59999990
   17.70361137  113.15399933    4.90999985    2.61999989
   17.70694542  107.73500061    4.90999985    2.61999989
   17.71305656  107.73500061    4.90999985    2.59999990
   17.71722221  113.40899658    4.90999985    2.59999990
   17.72027779  111.61000061    4.90999985    2.59999990
   17.72138977  113.71800232    4.90999985    2.59999990
   17.72389030  116.93000031    4.90999985    2.59999990
   17.72722244  115.75800323    4.90999985    2.59999990
   17.73027802  126.37699890    4.90999985    2.61999989
   17.73361206  109.65799713    4.90999985    2.61999989
   17.73666763  112.80000305    4.90999985    2.61999989
   17.73999977  109.81600189    4.90999985    2.61999989
   17.74333382  116.25700378    4.90999985    2.64000010
   17.74638939  114.40499878    4.90999985    2.64000010
   17.74972153  111.32499695    4.90999985    2.64000010
   17.75583267  111.32499695    4.90999985    2.61999989
   17.76000023  109.54599762    4.90999985    2.66000009
   17.76305580  118.72499847    4.90999985    2.59999990
   17.76638794  126.11699677    4.90999985    2.59999990
   17.76972198  117.08599854    4.90999985    2.55999994
   17.77277756  107.62999725    4.90999985    2.57999992
   17.77611160  117.06700134    4.90999985    2.55999994
   17.77916718  109.50800323    4.90999985    2.61999989
   17.78249931  107.03299713    4.90999985    2.59999990
   17.78583336  118.70400238    4.90999985    2.57999992
   17.78805542  109.59400177    4.90999985    2.57999992
   17.78944397   99.81320190    4.90999985    2.55999994
   17.79249954  120.53199768    4.90999985    2.55999994
   17.79861069  120.53199768    4.90999985    2.59999990
   17.80277634  107.25099945    4.90999985    2.57999992
   17.80611038  114.42800140    4.90999985    2.61999989
   17.80916595  112.12799835    4.90999985    2.61999989
   17.81250000  109.87400055    4.90999985    2.61999989
   17.81583214  121.26599884    4.90999985    2.61999989
   17.81916809  106.47000122    4.90999985    2.64000010
   17.82139015  119.40299988    4.90999985    2.64000010
   17.82277870  117.39499664    4.90999985    2.64000010
   17.82583427  125.05000305    4.90999985    2.64000010
   17.82916832  113.40000153    4.90999985    2.64000010
   17.83250046  121.47599792    4.90999985    2.64000010
   17.83555603  122.76999664    4.90999985    2.64000010
   17.84138870  122.76999664    4.90999985    2.61999989
   17.84555626  127.75599670    4.90999985    2.59999990
   17.84889030  123.31199646    4.90999985    2.59999990
   17.85222244  122.60600281    4.90999985    2.61999989
   17.85472298  121.24400330    4.90999985    2.61999989
   17.85583305  125.60900116    4.90999985    2.61999989
   17.85916710  117.75199890    4.90999985    2.59999990
   17.86222267  121.38800049    4.90999985    2.57999992
   17.86555672  118.03199768    4.90999985    2.55999994
   17.86861038  135.51199341    4.90999985    2.53999996
   17.87194443  137.69700623    4.90999985    2.46000004
   17.87527847  147.55299377    4.90999985    2.40000010
   17.87833405  132.06199646    4.90999985    2.40000010
   17.88444519  132.06199646    4.90999985    2.53999996
   17.88861084  118.63800049    4.90999985    2.53999996
   17.89166641  130.74299622    4.90999985    2.57999992
   17.89500046  115.30599976    4.90999985    2.57999992
   17.89805603  123.65100098    4.90999985    2.57999992
   17.90138817  114.49700165    4.90999985    2.57999992
   17.90472221  145.19500732    4.90999985    2.57999992
   17.90805435  114.97799683    4.90999985    2.55999994
   17.91110992  127.34899902    4.90999985    2.61999989
   17.91444397  130.54200745    4.90999985    2.57999992
   17.91749954  114.14900208    4.90999985    2.55999994
   17.92083359  127.21399689    4.90999985    2.61999989
   17.92138863  126.65499878    4.90999985    2.59999990
   17.92722130  126.65499878    4.90999985    2.59999990
   17.93138885  117.88500214    4.90999985    2.61999989
   17.93444443  115.33200073    4.90999985    2.64000010
   17.93777657  126.53399658    4.90999985    2.66000009
   17.94111061  116.91999817    4.90999985    2.64000010
   17.94416618  111.46399689    4.90999985    2.66000009
   17.94749832  114.16400146    4.90999985    2.66000009
   17.95055580  115.48500061    4.90999985    2.64000010
   17.95388985  115.65200043    4.90999985    2.64000010
   17.95472336  115.03199768    4.90999985    2.64000010
   17.95750046  122.03900146    4.90999985    2.64000010
   17.96083450  126.01599884    4.90999985    2.64000010
   17.96389008  117.37799835    4.90999985    2.64000010
   17.97000122  117.37799835    4.90999985    2.64000010
   17.97416687  109.93399811    4.90999985    2.66000009
   17.97750092  124.76999664    4.90999985    2.64000010
   17.98055649  130.26699829    4.90999985    2.66000009
   17.98388863  122.03099823    4.90999985    0.67000002
   17.98694420  107.52300262    4.90999985    0.46000001
   17.98805618  119.62100220    4.90999985    0.40000001
   17.99055672  116.02200317    4.90999985    0.28000000
   17.99388885  115.72499847    4.90999985    0.11000000
   17.99694443  119.65100098    4.90999985    0.03000000
   18.00027847  117.51100159    4.90999985    0.01000000
   18.00361061  117.65299988    4.90999985    0.01000000
   18.00666618  109.13700104    4.90999985    0.01000000
   18.01277733  109.13700104    4.90999985    2.64000010
   18.01694489  118.62100220    4.90999985    2.64000010
   18.02027702  129.67900085    4.90999985    2.64000010
   18.02138901  110.85600281    4.90999985    2.61999989
   18.02388954  105.12000275    4.90999985    2.64000010
   18.02722168  105.89099884    4.90999985    2.64000010
   18.03027725  131.41400146    4.90999985    2.64000010
   18.03361130  130.63800049    4.90999985    2.64000010
   18.03694344  133.07699585    4.90999985    2.64000010
   18.03999901  135.41700745    4.90999985    2.64000010
   18.04333305  127.10299683    4.90999985    2.64000010
   18.04638863  121.87400055    4.90999985    2.64000010
   18.04972076  128.42999268    4.90999985    2.64000010
   18.05583191  128.42999268    4.90999985    2.64000010
   18.05999947  152.79499817    4.90999985    2.66000009
   18.06305504  142.34500122    4.90999985    2.64000010
   18.06638718  140.18400574    4.90999985    2.61999989
   18.06972313  133.58099365    4.90999985    2.64000010
   18.07277870  114.93099976    4.90999985    2.64000010
   18.07611275  136.48500061    4.90999985    2.61999989
   18.07944489  117.95700073    4.90999985    2.61999989
   18.08250046  142.93600464    4.90999985    2.59999990
   18.08583450  141.67100525    4.90999985    2.61999989
   18.08805656  145.67799377    4.90999985    2.59999990
   18.08944511  125.97799683    4.90999985    2.59999990
   18.09277916  138.25300598    4.90999985    2.57999992
   18.09861183  138.25300598    4.90999985    2.57999992
   18.10277748  145.00300598    4.90999985    2.57999992
   18.10583305  130.06799316    4.90999985    2.57999992
   18.10916710  140.74499512    4.90999985    2.57999992
   18.11250114  148.67399597    4.90999985    2.57999992
   18.11555672  134.71400452    4.90999985    2.57999992
   18.11888885  130.58399963    4.90999985    2.57999992
   18.12138939  136.88900757    4.90999985    2.55999994
   18.12249947  145.83399963    4.90999985    2.57999992
   18.12583351  144.53500366    4.90999985    2.57999992
   18.12888908  129.19000244    4.90999985    2.55999994
   18.13222313  146.18800354    4.90999985    2.55999994
   18.13527679  136.10200500    4.90999985    2.57999992
   18.14138794  136.10200500    4.90999985    2.55999994
   18.14555550  142.54100037    4.90999985    2.55999994
   18.14888954  134.89599609    4.90999985    2.53999996
   18.15194321  126.90799713    4.90999985    2.53999996
   18.15472221  142.38999939    4.90999985    2.53999996
   18.15555573  134.16099548    4.90999985    2.53999996
   18.15888786  131.89300537    4.90999985    2.55999994
   18.16194344  126.10399628    4.90999985    2.55999994
   18.16527748  140.04299927    4.90999985    2.57999992
   18.16833305  131.16799927    4.90999985    2.57999992
   18.17166519  140.65400696    4.90999985    2.59999990
   18.17499924  116.21299744    4.90999985    2.55999994
   18.17805481  143.18099976    4.90999985    2.57999992
   18.18416595  143.18099976    4.90999985    2.55999994
   18.18833160  154.65699768    4.90999985    2.57999992
   18.19166565  139.64100647    4.90999985    2.55999994
   18.19499969  148.77499390    4.90999985    2.57999992
   18.19805527  157.52200317    4.90999985    2.53999996
   18.20138931  143.55799866    4.90999985    2.50000000
   18.20444489  147.56599426    4.90999985    2.50000000
   18.20777893  153.33299255    4.90999985    2.53999996
   18.21111107  148.15899658    4.90999985    2.51999998
   18.21416664  140.53999329    4.90999985    2.53999996
   18.21750069  153.37100220    4.90999985    2.51999998
   18.22083473  134.47999573    4.90999985    2.51999998
   18.22138977  137.14199829    4.90999985    2.51999998
   18.24222183  137.14199829    4.90999985    2.59999990
   18.24638939  136.43699646    4.90999985    2.55999994
   18.24972153  133.92599487    4.90999985    2.55999994
   18.25277710  139.31500244    4.90999985    2.55999994
   18.25472260  136.83900452    4.90999985    2.57999992
   18.25638962  135.03199768    4.90999985    2.55999994
   18.25972176  135.86099243    4.90999985    2.55999994
   18.26277733  132.22300720    4.90999985    2.57999992
   18.26611137  140.64300537    4.90999985    2.57999992
   18.26944351  125.96600342    4.90999985    2.51999998
   18.27249908  129.26100159    4.90999985    2.55999994
   18.27583313  134.02999878    4.90999985    2.53999996
   18.27888870  125.87100220    4.90999985    2.51999998
   18.28499985  125.87100220    4.90999985    2.51999998
   18.28916550  118.76599884    4.90999985    2.55999994
   18.29222107  144.06700134    4.90999985    2.50000000
   18.29555511  138.95300293    4.90999985    2.51999998
   18.29888916  134.32099915    4.90999985    2.51999998
   18.30194283  128.69700623    4.90999985    2.48000002
   18.30527687  116.40899658    4.90999985    2.51999998
   18.30861092  136.67199707    4.90999985    2.53999996
   18.31166649  143.37600708    4.90999985    2.53999996
   18.31499863  129.56500244    4.90999985    2.53999996
   18.31805611  140.86799622    4.90999985    2.48000002
   18.32139015  130.05200195    4.90999985    2.51999998
   18.32194519  131.19999695    4.90999985    2.50000000
   18.32777786  131.19999695    4.90999985    2.50000000
   18.33194542  138.60400391    4.90999985    2.53999996
   18.33527756  136.91299438    4.90999985    2.53999996
   18.33833313  129.71499634    4.90999985    2.51999998
   18.34166718  135.29100037    4.90999985    2.51999998
   18.34500122  124.50099945    4.90999985    2.51999998
   18.34805679  121.04599762    4.90999985    2.51999998
   18.35138893  122.56300354    4.90999985    2.51999998
   18.35444450  129.60899353    4.90999985    2.50000000
   18.35527802  125.41899872    4.90999985    2.50000000
   18.35805511  135.79899597    4.90999985    2.46000004
   18.36138916  129.59399414    4.90999985    2.50000000
   18.36472321  131.02299500    4.90999985    2.48000002
   18.37055588  131.02299500    4.90999985    2.51999998
   18.37472153  156.34800720    4.90999985    2.46000004
   18.37805557  136.75199890    4.90999985    2.36999989
   18.38138962  134.16499329    4.90999985    2.36999989
   18.38444519  115.56300354    4.90999985    2.44000006
   18.38777733  119.36599731    4.90999985    2.53999996
   18.38861084  114.23600006    4.90999985    2.55999994
   18.39138794  121.54399872    4.90999985    2.53999996
   18.39444351  115.27600098    4.90999985    2.51999998
   18.39777756  112.56600189    4.90999985    2.55999994
   18.40083313  114.82700348    4.90999985    2.57999992
   18.40416718  109.52500153    4.90999985    2.59999990
   18.40749931  120.95200348    4.90999985    2.53999996
   18.41361046  120.95200348    4.90999985    2.50000000
   18.41777802  119.34200287    4.90999985    2.50000000
   18.42083359  122.31099701    4.90999985    2.51999998
   18.42194366  124.17199707    4.90999985    2.51999998
   18.42472076  107.34500122    4.90999985    2.51999998
   18.42777634  116.99800110    4.90999985    2.53999996
   18.43111038  118.14800262    4.90999985    2.55999994
   18.43416595  118.54299927    4.90999985    2.55999994
   18.43750000  120.36699677    4.90999985    2.51999998
   18.44083214  117.45300293    4.90999985    2.51999998
   18.44388771  117.34100342    4.90999985    2.53999996
   18.44722176  122.47699738    4.90999985    2.50000000
   18.45055580  136.16799927    4.90999985    2.50000000
   18.45639038  136.16799927    4.90999985    2.46000004
   18.46055603  136.99899292    4.90999985    2.46000004
   18.46361160  119.92299652    4.90999985    2.42000008
   18.46694565  130.14799500    4.90999985    2.44000006
   18.47027779  126.12100220    4.90999985    2.44000006
   18.47333336  116.37200165    4.90999985    2.40000010
   18.47666740  119.11399841    4.90999985    2.39000010
   18.48000145  133.89100647    4.90999985    2.42000008
   18.48305511  125.39299774    4.90999985    2.40000010
   18.48638916  122.04900360    4.90999985    2.44000006
   18.48861122  112.59300232    4.90999985    2.44000006
   18.48999977  121.41999817    4.90999985    2.44000006
   18.49305534  115.37599945    4.90999985    2.46000004
   18.49916649  115.37599945    4.90999985    2.39000010
   18.50333405  125.52300262    4.90999985    2.39000010
   18.50666618  121.48200226    4.90999985    2.39000010
   18.50972176  123.73500061    4.90999985    2.44000006
   18.51305580  123.34500122    4.90999985    2.44000006
   18.51638794  118.37300110    4.90999985    2.46000004
   18.51944351  120.33100128    4.90999985    2.44000006
   18.52194405  132.19299316    4.90999985    2.44000006
   18.52333260  125.72100067    4.90999985    2.46000004
   18.52638817  112.51399994    4.90999985    2.46000004
   18.52972221  113.06300354    4.90999985    2.44000006
   18.53305435  131.16499329    4.90999985    2.44000006
   18.53610992  118.93599701    4.90999985    2.46000004
   18.54222107  118.93599701    4.90999985    2.46000004
   18.54611015  122.51899719    4.90999985    2.46000004
   18.54944420  128.39799500    4.90999985    2.46000004
   18.55277634  128.75599670    4.90999985    2.46000004
   18.55527687  127.19300079    4.90999985    2.46000004
   18.55638885  120.62999725    4.90999985    2.46000004
   18.55944443  112.67800140    4.90999985    2.48000002
   18.56277657  115.99199677    4.90999985    2.50000000
   18.56611061  121.16300201    4.90999985    2.46000004
   18.56916809  113.33100128    4.90999985    2.48000002
   18.57250023  109.72399902    4.90999985    2.51999998
   18.57555580  118.41999817    4.90999985    2.51999998
   18.57888985  135.19299316    4.90999985    2.51999998
   18.58500099  135.19299316    4.90999985    2.50000000
   18.58916664  121.76999664    4.90999985    2.48000002
   18.59222221  125.98000336    4.90999985    2.48000002
   18.59555626  115.95400238    4.90999985    2.46000004
   18.59861183  117.64299774    4.90999985    2.46000004
   18.60194397  109.89299774    4.90999985    2.46000004
   18.60527802  114.67800140    4.90999985    2.46000004
   18.60833359  124.70200348    4.90999985    2.46000004
   18.61166763  126.46800232    4.90999985    2.46000004
   18.61499977  125.16100311    4.90999985    2.46000004
   18.61805534  115.16200256    4.90999985    2.48000002
   18.62138939  119.29499817    4.90999985    2.48000002
   18.62194443  115.66600037    4.90999985    2.48000002
   18.62777710  115.66600037    4.90999985    2.46000004
   18.63194466  124.66400146    4.90999985    2.48000002
   18.63500023  119.60099792    4.90999985    2.48000002
   18.63833237  110.72599792    4.90999985    2.50000000
   18.64166641  112.87899780    4.90999985    2.51999998
   18.64472198  113.56700134    4.90999985    2.50000000
   18.64805603  122.29299927    4.90999985    2.50000000
   18.65138817  107.55200195    4.90999985    2.50000000
   18.65444374  120.14299774    4.90999985    2.51999998
   18.65527725  114.33899689    4.90999985    2.48000002
   18.65805435  123.28900146    4.90999985    2.46000004
   18.66110992  123.78600311    4.90999985    2.42000008
   18.66444397  122.91000366    4.90999985    2.40000010
   18.67055511  122.91000366    4.90999985    2.42000008
   18.67472076  142.32899475    4.90999985    2.36999989
   18.67805481  146.04299927    4.90999985    2.32999992
   18.68111038  163.31199646    4.90999985    2.28999996
   18.68444443  131.29800415    4.90999985    2.23000002
   18.68777657  140.87899780    4.90999985    2.23000002
   18.68861008  175.06700134    4.90999985    2.21000004
   18.69138718  162.92900085    4.90999985    2.23000002
   18.69444275  198.71499634    4.90999985    2.21000004
   18.69777679  171.24099731    4.90999985    2.19000006
   18.70111275  163.76400757    4.90999985    2.21000004
   18.70416832  200.25100708    4.90999985    2.23000002
   18.70750046  568.24902344    4.90999985    2.15000010
   18.70944595  167.76499939    4.90999985    2.17000008
   18.70944595  163.31199646    4.90999985    2.28999996
   18.70944595  131.29800415    4.90999985    2.23000002
   18.70972252  140.87899780    4.90999985    2.23000002
   18.70972252  162.92900085    4.90999985    2.23000002
   18.70972252  198.71499634    4.90999985    2.21000004
   18.70972252  171.24099731    4.90999985    2.19000006
   18.70972252  163.76400757    4.90999985    2.21000004
   18.71000099  200.25100708    4.90999985    2.23000002
   18.71416664  200.25100708    4.90999985    2.32999992
   18.71833420  137.60600281    4.90999985    2.34999990
   18.72138977  158.16799927    4.90999985    2.39000010
   18.72472191  143.47700500    4.90999985    2.40000010
   18.72777748  134.03100586    4.90999985    2.42000008
   18.73111153  153.72900391    4.90999985    2.44000006
   18.73444557  142.00599670    4.90999985    2.46000004
   18.73750114  121.20200348    4.90999985    2.46000004
   18.74083328  131.02900696    4.90999985    2.48000002
   18.74333382  135.73800659    4.90999985    2.48000002
   18.74416733  139.66299438    4.90999985    2.48000002
   18.74749947  158.38099670    4.90999985    2.42000008
   18.75083351  153.20500183    4.90999985    2.40000010
   18.75694466  153.20500183    4.90999985    2.34999990
   18.76111031  145.76699829    4.90999985    2.42000008
   18.76416588  160.29600525    4.90999985    2.42000008
   18.76749992  142.61399841    4.90999985    2.42000008
   18.77055550  148.23199463    4.90999985    2.42000008
   18.77388954  141.35099792    4.90999985    2.42000008
   18.77666664  162.70599365    4.90999985    2.42000008
   18.77722168  162.48399353    4.90999985    2.40000010
   18.78055573  149.92599487    4.90999985    2.36999989
   18.78388786  146.33500671    4.90999985    2.36999989
   18.78694344  169.00900269    4.90999985    2.36999989
   18.79027748  157.74899292    4.90999985    2.36999989
   18.79361153  155.11300659    4.90999985    2.36999989
   18.79972076  155.11300659    4.90999985    2.44000006
   18.80388832  147.82499695    4.90999985    2.44000006
   18.80694389  161.36500549    4.90999985    2.42000008
   18.80999947  139.38499451    4.90999985    2.40000010
   18.81055450  139.12899780    4.90999985    2.40000010
   18.81388855  148.46000671    4.90999985    2.44000006
   18.81722260  141.08900452    4.90999985    2.44000006
   18.82027817  151.75799561    4.90999985    2.42000008
   18.82361221  156.52799988    4.90999985    2.40000010
   18.82694626  170.93299866    4.90999985    2.40000010
   18.83000183  176.13099670    4.90999985    2.40000010
   18.83333397  190.53700256    4.90999985    2.40000010
   18.83638954  163.84199524    4.90999985    2.42000008
   18.84250069  163.84199524    4.90999985    2.42000008
   18.84666824  215.52699280    4.90999985    2.39000010
   18.85000038  177.94700623    4.90999985    2.40000010
   18.85305595  200.18600464    4.90999985    2.40000010
   18.85639000  189.57000732    4.90999985    2.30999994
   18.85944557  187.41600037    4.90999985    2.34999990
   18.86277771  200.03599548    4.90999985    2.34999990
   18.86611176  172.88800049    4.90999985    2.30999994
   18.86916733  192.65600586    4.90999985    2.32999992
   18.87249947  191.66400146    4.90999985    2.30999994
   18.87583351  222.10099792    4.90999985    2.28999996
   18.87750053  202.03999329    4.90999985    2.28999996
   18.87944412  188.33999634    4.90999985    2.28999996
   18.88527679  188.33999634    4.90999985    2.26999998
   18.88944435  256.83999634    4.90999985    2.23000002
   18.89277840  287.71301270    4.90999985    2.23000002
   18.89583397  205.12199402    4.90999985    2.19000006
   18.89916611  202.74600220    4.90999985    2.26999998
   18.90250015  239.48899841    4.90999985    2.26999998
   18.90555573  211.26199341    4.90999985    2.30999994
   18.90888786  170.01800537    4.90999985    2.23000002
   18.91083336  214.45199585    4.90999985    2.26999998
   18.91250038  169.36300659    4.90999985    2.28999996
   18.91555595  174.21000671    4.90999985    2.30999994
   18.91888809  178.40899658    4.90999985    2.32999992
   18.92222214  167.97099304    4.90999985    2.36999989
   18.92833328  167.97099304    4.90999985    2.36999989
   18.93222237  170.35200500    4.90999985    2.32999992
   18.93555450  194.42399597    4.90999985    2.30999994
   18.93888855  179.18099976    4.90999985    2.30999994
   18.94194412  167.35299683    4.90999985    2.28999996
   18.94444275  166.42100525    4.90999985    2.26999998
   18.94555473  174.58000183    4.90999985    2.28999996
   18.94888878  174.13699341    4.90999985    2.28999996
   18.95222282  178.89599609    4.90999985    2.28999996
   18.95527840  174.61099243    4.90999985    2.28999996
   18.95861244  181.80900574    4.90999985    2.30999994
   18.96194458  185.92900085    4.90999985    2.28999996
   18.96500015  165.87300110    4.90999985    2.26999998
   18.97111130  165.87300110    4.90999985    2.23000002
   18.97527885  171.96499634    4.90999985    2.19000006
   18.97777748  179.93499756    4.90999985    2.23000002
   18.97861099  186.25900269    4.90999985    2.23000002
   18.98194504  156.21299744    4.90999985    2.30999994
   18.98527718  163.37899780    4.90999985    2.30999994
   18.98833275  157.13999939    4.90999985    2.30999994
   18.99166679  165.59300232    4.90999985    2.30999994
   18.99500084  157.21899414    4.90999985    2.30999994
   18.99805641  163.88800049    4.90999985    2.28999996
   19.00138855  155.77099609    4.90999985    2.26999998
   19.00444412  169.68899536    4.90999985    2.26999998
   19.00777817  168.88299561    4.90999985    2.26999998
   19.01388931  168.88299561    4.90999985    2.23000002
   19.01805496  194.84800720    4.90999985    2.19000006
   19.02138901  183.12600708    4.90999985    2.21000004
   19.02444458  206.74600220    4.90999985    2.19000006
   19.02777672  196.54100037    4.90999985    2.23000002
   19.03083229  205.98899841    4.90999985    2.25000000
   19.03416634  188.64100647    4.90999985    2.25000000
   19.03750038  229.22999573    4.90999985    2.19000006
   19.04055595  224.89599609    4.90999985    2.17000008
   19.04388809  197.23800659    4.90999985    2.19000006
   19.04472160  202.83099365    4.90999985    2.21000004
   19.04749870  250.84500122    4.90999985    2.21000004
   19.05083275  203.92700195    4.90999985    2.17000008
   19.05666542  203.92700195    4.90999985    2.19000006
   19.06083298  250.98599243    4.90999985    2.15000010
   19.06416512  221.55700684    4.90999985    2.15000010
   19.06722260  224.23300171    4.90999985    2.17000008
   19.07055664  194.23800659    4.90999985    2.23000002
   19.07389069  165.99800110    4.90999985    2.23000002
   19.07694626  204.58200073    4.90999985    2.23000002
   19.07805634  192.73899841    4.90999985    2.23000002
   19.08055687  175.24600220    4.90999985    2.26999998
   19.08388901  212.57499695    4.90999985    2.30999994
   19.08694458  210.56199646    4.90999985    2.26999998
   19.09027863  205.26899719    4.90999985    2.28999996
   19.09361267  200.67900085    4.90999985    2.25000000
   19.09972191  200.67900085    4.90999985    2.32999992
   19.10388947  161.48500061    4.90999985    2.30999994
   19.10694504  186.25500488    4.90999985    2.26999998
   19.11027908  217.01300049    4.90999985    2.23000002
   19.11166763  193.98500061    4.90999985    2.21000004
   19.11388969  184.52200317    4.90999985    2.21000004
   19.11694527  170.69099426    4.90999985    2.28999996
   19.12027740  188.55499268    4.90999985    2.34999990
   19.12361145  184.37399292    4.90999985    2.26999998
   19.12694550  192.33599854    4.90999985    2.21000004
   19.13000107  190.98399353    4.90999985    2.19000006
   19.13333321  182.40899658    4.90999985    2.26999998
   19.13666725  196.54299927    4.90999985    2.15000010
   19.14249992  196.54299927    4.90999985    2.15000010
   19.14666748  169.97300720    4.90999985    2.21000004
   19.14972115  197.50100708    4.90999985    2.23000002
   19.15305519  198.25500488    4.90999985    2.19000006
   19.15638924  222.58299255    4.90999985    2.21000004
   19.15944481  258.82901001    4.90999985    2.11999989
   19.16277695  335.81500244    4.90999985    2.11999989
   19.16472244  368.84600830    4.90999985    2.07999992
   19.16611099  277.12100220    4.90999985    2.03999996
   19.16749954  416.52200317    4.90999985    2.03999996
   19.16888809  394.71200562    4.90999985    2.07999992
   19.17027664  284.21398926    4.90999985    2.05999994
   19.17166519  228.06700134    4.90999985    2.07999992
   19.17305565  236.16600037    4.90999985    2.11999989
   19.17444420  350.93301392    4.90999985    2.11999989
   19.17583275  290.94799805    4.90999985    2.09999990
   19.17722130  265.25000000    4.90999985    2.03999996
   19.17860985  340.75900269    4.90999985    2.03999996
   19.18000031  312.29800415    4.90999985    2.03999996
   19.18138885  486.82199097    4.90999985    2.05999994
   19.18277740  170.61199951    4.90999985    2.05999994
   19.18277740  182.40899658    4.90999985    2.26999998
   19.18277740  196.54299927    4.90999985    2.15000010
   19.18277740  169.97300720    4.90999985    2.21000004
   19.18305397  197.50100708    4.90999985    2.23000002
   19.18305397  198.25500488    4.90999985    2.19000006
   19.18305397  222.58299255    4.90999985    2.21000004
   19.18305397  258.82901001    4.90999985    2.11999989
   19.18333244  335.81500244    4.90999985    2.11999989
   19.18333244  190.98399353    4.90999985    2.19000006
   19.18388748  295.33700562    4.90999985    2.07999992
   19.18694305  319.43099976    4.90999985    2.13000011
   19.18888855  287.84600830    4.90999985    2.11999989
   19.19027710  282.12200928    4.90999985    2.09999990
   19.19194412  243.94000244    4.90999985    2.09999990
   19.19305420  250.13600159    4.90999985    2.11999989
   19.19444275  247.10899353    4.90999985    2.09999990
   19.19583321  250.88800049    4.90999985    2.13000011
   19.19722176  215.10600281    4.90999985    2.13000011
   19.19722176  295.33700562    4.90999985    2.07999992
   19.19749832  319.43099976    4.90999985    2.13000011
   19.19805527  180.88400269    4.90999985    2.11999989
   19.20111275  231.47399902    4.90999985    2.19000006
   19.20444489  222.29499817    4.90999985    2.15000010
   19.20750046  233.20399475    4.90999985    2.19000006
   19.21111107  211.21800232    4.90999985    2.13000011
   19.21805573  211.21800232    4.90999985    2.19000006
   19.22222328  182.55299377    4.90999985    2.23000002
   19.22527885  182.93200684    4.90999985    2.23000002
   19.22861099  194.89399719    4.90999985    2.26999998
   19.23111153  151.46299744    4.90999985    2.28999996
   19.23222351  217.40800476    4.90999985    2.30999994
   19.23527718  197.03599548    4.90999985    2.30999994
   19.23861122  165.85600281    4.90999985    2.30999994
   19.26111031  165.85600281    4.90999985    2.46000004
   19.26527786  150.15600586    4.90999985    2.44000006
   19.26861000  139.14900208    4.90999985    2.46000004
   19.27166557  142.17500305    4.90999985    2.42000008
   19.27499962  148.66499329    4.90999985    2.42000008
   19.27833366  145.71000671    4.90999985    2.40000010
   19.28138924  140.33099365    4.90999985    2.39000010
   19.28472137  157.03300476    4.90999985    2.39000010
   19.28777695  159.30599976    4.90999985    2.42000008
   19.29111099  160.21099854    4.90999985    2.42000008
   19.29444313  171.75500488    4.90999985    2.34999990
   19.29749870  176.12199402    4.90999985    2.39000010
   19.29805565  170.11700439    4.90999985    2.39000010
   19.30388832  170.11700439    4.90999985    2.17000008
   19.30805397  167.27499390    4.90999985    2.23000002
   19.31138802  172.14700317    4.90999985    2.39000010
   19.31444359  197.91099548    4.90999985    2.28999996
   19.31777954  190.03799438    4.90999985    2.23000002
   19.32083511  241.59700012    4.90999985    2.19000006
   19.32416725  308.29598999    4.90999985    2.00000000
   19.32611275  237.93699646    4.90999985    2.09999990
   19.32750130  374.20901489    4.90999985    2.13000011
   19.32888985  378.60998535    4.90999985    2.11999989
   19.33027840  110.34300232    4.90999985    2.05999994
   19.33027840  308.29598999    4.90999985    2.00000000
   19.33027840  160.21099854    4.90999985    2.42000008
   19.33027840  171.75500488    4.90999985    2.34999990
   19.33055687  176.12199402    4.90999985    2.39000010
   19.33055687  167.27499390    4.90999985    2.23000002
   19.33055687  172.14700317    4.90999985    2.39000010
   19.33055687  197.91099548    4.90999985    2.28999996
   19.33083344  190.03799438    4.90999985    2.23000002
   19.33083344  241.59700012    4.90999985    2.19000006
   19.33139038  113.03299713    4.90999985    1.98000002
   19.33444595  358.25100708    4.90999985    1.88000000
   19.33638954  456.12899780    4.90999985    1.91999996
   19.33777809  427.82000732    4.90999985    1.96000004
   19.33916664  202.61199951    4.90999985    1.98000002
   19.33916664  113.03299713    4.90999985    1.98000002
   19.33944511  358.25100708    4.90999985    1.88000000
   19.34000015  384.29901123    4.90999985    1.96000004
   19.34194565  429.39599609    4.90999985    1.96000004
   19.34305573  214.65199280    4.90999985    2.00000000
   19.34333420  384.29901123    4.90999985    1.96000004
   19.34444427   92.94120026    4.90999985    1.96000004
   19.34749985   74.02760315    4.90999985    1.85000002
   19.35083389   96.26640320    4.90999985    1.78999996
   19.35416794   66.06500244    4.90999985    1.78999996
   19.35722351   62.98289871    4.90999985    1.78999996
   19.36388969   62.98289871    4.90999985    1.83000004
   19.36805534   -1.00000000    4.90999985    1.66999996
   19.37138939   -1.00000000    4.90999985    1.48000002
   19.37444496   -1.00000000    4.90999985    1.28999996
   19.37805557   -1.00000000    4.90999985    1.33000004
   19.38111115   -1.00000000    4.90999985    1.48000002
   19.38444519   -1.00000000    4.90999985    1.46000004
   19.38777733   -1.00000000    4.90999985    1.51999998
   19.39083290   42.63529968    4.90999985    1.64999998
   19.39416695   -1.00000000    4.90999985    1.61000001
   19.39722252   -1.00000000    4.90999985    1.50000000
   19.40055466   -1.00000000    4.90999985    1.39999998
   19.41083336   -1.00000000    4.90999985    1.36000001
   19.41416550   -1.00000000    4.90999985    1.36000001
   19.41722107   -1.00000000    4.90999985    1.46000004
   19.42055511   -1.00000000    4.90999985    1.51999998
   19.42388916   -1.00000000    4.90999985    1.51999998
   19.42722130   -1.00000000    4.90999985    1.51999998
   19.43027687   -1.00000000    4.90999985    1.60000002
   19.43361092   73.10260010    4.90999985    1.66999996
   19.43666649   84.44719696    4.90999985    1.69000006
   19.43999863   76.53500366    4.90999985    1.75000000
   19.44333267   87.78309631    4.90999985    1.71000004
   19.44361115   80.31610107    4.90999985    1.71000004
   19.44972038   80.31610107    4.90999985    1.88000000
   19.45388985  110.30699921    4.90999985    1.88000000
   19.45694542   69.96080017    4.90999985    1.86000001
   19.46027946  582.93701172    4.90999985    1.88000000
   19.46222305  496.39300537    4.90999985    1.98000002
   19.46361160  440.56399536    4.90999985    1.98000002
   19.46500015  377.38400269    4.90999985    2.00000000
   19.46638870  321.62799072    4.90999985    2.03999996
   19.46777916  395.59500122    4.90999985    2.05999994
   19.46916771  271.57400513    4.90999985    2.07999992
   19.47055626  262.69500732    4.90999985    2.09999990
   19.47194481  230.14500427    4.90999985    2.11999989
   19.47333336  288.10101318    4.90999985    2.17000008
   19.47472191  254.74800110    4.90999985    2.19000006
   19.47611237  204.65899658    4.90999985    2.19000006
   19.47611237  110.30699921    4.90999985    1.88000000
   19.47611237   69.96080017    4.90999985    1.86000001
   19.47611237  582.93701172    4.90999985    1.88000000
   19.47638893   -1.00000000    4.90999985    1.51999998
   19.47638893   -1.00000000    4.90999985    1.60000002
   19.47638893   73.10260010    4.90999985    1.66999996
   19.47638893   84.44719696    4.90999985    1.69000006
   19.47638893   76.53500366    4.90999985    1.75000000
   19.47666740   87.78309631    4.90999985    1.71000004
   19.47722244  226.94500732    4.90999985    2.19000006
   19.48027802  211.49899292    4.90999985    2.32999992
   19.48361206  214.69700623    4.90999985    2.30999994
   19.48694420  151.58900452    4.90999985    2.32999992
   19.48999977  215.99600220    4.90999985    2.44000006
   19.49694443  215.99600220    4.90999985    2.15000010
   19.50083351  219.44900513    4.90999985    2.13000011
   19.50416756  207.66099548    4.90999985    2.15000010
   19.50749969  192.89300537    4.90999985    2.19000006
   19.51000023  165.72799683    4.90999985    2.23000002
   19.51083374  212.49800110    4.90999985    2.26999998
   19.51416588  179.34700012    4.90999985    2.26999998
   19.51722145  139.90899658    4.90999985    2.32999992
   19.52055550  170.46200562    4.90999985    2.39000010
   19.52388954  167.40699768    4.90999985    2.46000004
   19.52694511  146.11399841    4.90999985    2.51999998
   19.53027725  153.16900635    4.90999985    2.53999996
   19.53361130  153.52099609    4.90999985    2.50000000
   19.53972244  153.52099609    4.90999985    2.46000004
   19.54388809  184.14199829    4.90999985    2.40000010
   19.54694366  153.55799866    4.90999985    2.46000004
   19.55027771  163.67100525    4.90999985    2.50000000
   19.55360985  167.10899353    4.90999985    2.50000000
   19.55666542  150.54100037    4.90999985    2.44000006
   19.55999947  155.42999268    4.90999985    2.48000002
   19.56333351  159.09100342    4.90999985    2.51999998
   19.56638718  156.13699341    4.90999985    2.48000002
   19.56972313  149.35000610    4.90999985    2.50000000
   19.57277870  142.65299988    4.90999985    2.51999998
   19.57611275  134.59300232    4.90999985    2.50000000
   19.57666779  157.74800110    4.90999985    2.50000000
   19.58250046  157.74800110    4.90999985    2.46000004
   19.58666801  146.40299988    4.90999985    2.46000004
   19.59000015  170.14900208    4.90999985    2.40000010
   19.59305573  194.81100464    4.90999985    2.34999990
   19.59638977  159.16799927    4.90999985    2.25000000
   19.59944534  158.11500549    4.90999985    2.25000000
   19.60277748  188.86599731    4.90999985    2.28999996
   19.60611153  176.96800232    4.90999985    2.25000000
   19.60916710  213.83299255    4.90999985    2.21000004
   19.61000061  276.75201416    4.90999985    2.15000010
   19.61305618  246.41999817    4.90999985    2.11999989
   19.61611176  301.94500732    4.90999985    2.21000004
   19.61805534  417.59799194    4.90999985    2.26999998
   19.61944389  481.24200439    4.90999985    2.30999994
   19.62083435  416.73599243    4.90999985    2.32999992
   19.62222290  386.49301147    4.90999985    2.34999990
   19.62361145  174.31900024    4.90999985    2.21000004
   19.62361145  301.94500732    4.90999985    2.21000004
   19.62361145  170.14900208    4.90999985    2.40000010
   19.62388992  194.81100464    4.90999985    2.34999990
   19.62388992  159.16799927    4.90999985    2.25000000
   19.62388992  158.11500549    4.90999985    2.25000000
   19.62388992  188.86599731    4.90999985    2.28999996
   19.62388992  176.96800232    4.90999985    2.25000000
   19.62416649  213.83299255    4.90999985    2.21000004
   19.62416649  246.41999817    4.90999985    2.11999989
   19.62472153  193.46000671    4.90999985    2.13000011
   19.62777710   -1.00000000    4.90999985    2.01999998
   19.63111115   -1.00000000    4.90999985    1.88000000
   19.63444519   -1.00000000    4.90999985    1.78999996
   19.63750076   -1.00000000    4.90999985    1.83000004
   19.64861107   -1.00000000    4.90999985    1.63000000
   19.65166664   -1.00000000    4.90999985    1.63000000
   19.65499878   -1.00000000    4.90999985    1.66999996
   19.65833282   -1.00000000    4.90999985    1.63000000
   19.66166687   -1.00000000    4.90999985    1.71000004
   19.66499901   -1.00000000    4.90999985    1.64999998
   19.66805458   -1.00000000    4.90999985    1.63000000
   19.67138863   -1.00000000    4.90999985    1.55999994
   19.67444420   -1.00000000    4.90999985    1.55999994
   19.67777634   -1.00000000    4.90999985    1.60000002
   19.68111038   -1.00000000    4.90999985    1.58000004
   19.69138718   -1.00000000    4.90999985    1.44000006
   19.69444275   -1.00000000    4.90999985    1.50000000
   19.69777679   -1.00000000    4.90999985    1.41999996
   19.70111275   -1.00000000    4.90999985    1.44000006
   19.70416832   -1.00000000    4.90999985    1.50000000
   19.70750046   -1.00000000    4.90999985    1.46000004
   19.71083450   -1.00000000    4.90999985    1.39999998
   19.71389008   -1.00000000    4.90999985    1.50000000
   19.71722221   -1.00000000    4.90999985    1.50000000
   19.72027779   -1.00000000    4.90999985    1.51999998
   19.72361183   -1.00000000    4.90999985    1.51999998
   19.73416710   -1.00000000    4.90999985    1.41999996
   19.73750114   -1.00000000    4.90999985    1.48000002
   19.74055672   -1.00000000    4.90999985    1.63000000
   19.74388885   -1.00000000    4.90999985    1.53999996
   19.74722290   -1.00000000    4.90999985    1.55999994
   19.75027847   -1.00000000    4.90999985    1.60000002
   19.75361061   -1.00000000    4.90999985    1.83000004
   19.75666618   -1.00000000    4.90999985    1.80999994
   19.76027870   -1.00000000    4.90999985    1.69000006
   19.76361084   -1.00000000    4.90999985    1.48000002
   19.76694489   -1.00000000    4.90999985    1.41999996
   19.77694511   -1.00000000    4.90999985    1.85000002
   19.78027725   -1.00000000    4.90999985    1.80999994
   19.78333282   -1.00000000    4.90999985    1.61000001
   19.78666687   -1.00000000    4.90999985    1.55999994
   19.78999901   -1.00000000    4.90999985    1.63000000
   19.79333305   -1.00000000    4.90999985    1.69000006
   19.79666710   -1.00000000    4.90999985    1.53999996
   19.79999924   -1.00000000    4.90999985    1.69000006
   19.80305481   -1.00000000    4.90999985    1.63000000
   19.80638885   -1.00000000    4.90999985    1.55999994
   19.80944443   -1.00000000    4.90999985    1.69000006
   19.81972313   -1.00000000    4.90999985    1.75000000
   19.82305717   -1.00000000    4.90999985    1.76999998
   19.82666779   -1.00000000    4.90999985    1.76999998
   19.83000183   -1.00000000    4.90999985    1.60000002
   19.83333397   -1.00000000    4.90999985    1.63000000
   19.83638954   -1.00000000    4.90999985    1.78999996
   19.83972359   -1.00000000    4.90999985    1.75000000
   19.84277916   -1.00000000    4.90999985    1.73000002
   19.84611130   -1.00000000    4.90999985    1.69000006
   19.84944534   -1.00000000    4.90999985    1.80999994
   19.85250092   -1.00000000    4.90999985    1.94000006
   19.86277771   -1.00000000    4.90999985    1.26999998
   19.86583328   -1.00000000    4.90999985    1.09000003
   19.86916733   -1.00000000    4.90999985    1.09000003
   19.87249947   -1.00000000    4.90999985    1.19000006
   19.87555504   -1.00000000    4.90999985    1.14999998
   19.87888908   -1.00000000    4.90999985    1.39999998
   19.88194466   -1.00000000    4.90999985    1.55999994
   19.88527679   -1.00000000    4.90999985    1.66999996
   19.88861084   -1.00000000    4.90999985    1.85000002
   19.89194489   -1.00000000    4.90999985    1.96000004
   19.89527702   -1.00000000    4.90999985    2.17000008
   19.90555573   -1.00000000    4.90999985    2.15000010
   19.90888786   -1.00000000    4.90999985    2.17000008
   19.91194344   -1.00000000    4.90999985    2.26999998
   19.91527748   -1.00000000    4.90999985    2.28999996
   19.91860962   -1.00000000    4.90999985    2.21000004
   19.92166519   -1.00000000    4.90999985    2.21000004
   19.92527771   -1.00000000    4.90999985    2.15000010
   19.92860985   -1.00000000    4.90999985    2.13000011
   19.93194389   -1.00000000    4.90999985    2.13000011
   19.93499947   -1.00000000    4.90999985    2.09999990
   19.93833160   -1.00000000    4.90999985    2.21000004
   19.94833183   -1.00000000    4.90999985    1.98000002
   19.95166779   -1.00000000    4.90999985    1.94000006
   19.95472336   -1.00000000    4.90999985    1.88000000
   19.95833397   -1.00000000    4.90999985    2.00000000
   19.96166801   -1.00000000    4.90999985    1.89999998
   19.96500015   -1.00000000    4.90999985    1.85000002
   19.96805573   -1.00000000    4.90999985    1.89999998
   19.97138977   -1.00000000    4.90999985    2.07999992
   19.97472191   -1.00000000    4.90999985    2.19000006
   19.97777748   -1.00000000    4.90999985    2.19000006
   19.98111153   -1.00000000    4.90999985    2.26999998
   19.99138832   -1.00000000    4.90999985    2.32999992
   19.99444389   -1.00000000    4.90999985    2.28999996
   19.99777794   -1.00000000    4.90999985    2.30999994
