    HOUR (UT)   FLARE FACTOR    SKY TESTER    SUN TESTER
   12.27972221   -1.00000000   -1.00000000   -1.00000000
   12.32027817  153.82000732    4.90999985    1.89999998
   12.32333374   -1.00000000    4.90999985    1.94000006
   12.32666683  156.30999756    4.90999985    1.96000004
   12.32999992  157.72700500    4.90999985    1.98000002
   12.33305550  159.70700073    4.90999985    1.98000002
   12.33638859  153.07200623    4.90999985    2.00000000
   12.34055519  153.07200623    4.90999985    2.00000000
   12.34472179  168.88999939    4.90999985    2.00000000
   12.34777737  148.67700195    4.90999985    2.01999998
   12.35111141  158.52699280    4.90999985    2.01999998
   12.35361195  163.43499756    4.90999985    2.01999998
   12.35472298  160.67599487    4.90999985    2.01999998
   12.35805607  165.43499756    4.90999985    2.01999998
   12.36138916  155.81599426    4.90999985    2.01999998
   12.36444473  166.84399414    4.90999985    2.01999998
   12.36777782  163.22700500    4.90999985    2.03999996
   12.37083340  161.15899658    4.90999985    2.03999996
   12.37416649  162.78199768    4.90999985    2.03999996
   12.37750053  154.79100037    4.90999985    2.03999996
   12.38333321  154.79100037    4.90999985    2.03999996
   12.38749981  157.52000427    4.90999985    2.05999994
   12.39083290  156.68899536    4.90999985    2.05999994
   12.39388847  160.60899353    4.90999985    2.05999994
   12.39722252  160.11000061    4.90999985    2.05999994
   12.40055561  162.13000488    4.90999985    2.07999992
   12.40361118  166.97099304    4.90999985    2.07999992
   12.40694427  160.25599670    4.90999985    2.07999992
   12.41027737  166.74800110    4.90999985    2.07999992
   12.41333294  168.62600708    4.90999985    2.07999992
   12.41666698  163.04800415    4.90999985    2.07999992
   12.42000008  168.47399902    4.90999985    2.07999992
   12.42027855  168.30200195    4.90999985    2.07999992
   12.42611122  168.30200195    4.90999985    2.09999990
   12.43027782  161.21000671    4.90999985    2.09999990
   12.43361092  166.08599854    4.90999985    2.11999989
   12.43666649  158.73100281    4.90999985    2.11999989
   12.44000053  162.32699585    4.90999985    2.11999989
   12.44333363  169.22300720    4.90999985    2.11999989
   12.44638920  159.74000549    4.90999985    2.11999989
   12.44972229  162.00000000    4.90999985    2.11999989
   12.45305538  160.82899475    4.90999985    2.11999989
   12.45361137  169.80799866    4.90999985    2.11999989
   12.45638847  153.23899841    4.90999985    2.13000011
   12.45972157  163.87100220    4.90999985    2.13000011
   12.46277714  159.08099365    4.90999985    2.13000011
   12.46888828  159.08099365    4.90999985    2.13000011
   12.47305489  164.63900757    4.90999985    2.13000011
   12.47638798  160.12500000    4.90999985    2.13000011
   12.47972202  151.36099243    4.90999985    2.15000010
   12.48277760  161.13600159    4.90999985    2.15000010
   12.48611164  154.29200745    4.90999985    2.15000010
   12.48694515  152.60800171    4.90999985    2.15000010
   12.48972225  160.28500366    4.90999985    2.17000008
   12.49305534  162.77099609    4.90999985    2.17000008
   12.49611092  153.08399963    4.90999985    2.17000008
   12.49944496  161.27900696    4.90999985    2.17000008
   12.50249958  169.13499451    4.90999985    2.17000008
   12.50583363  176.66200256    4.90999985    2.15000010
   12.51194477  176.66200256    4.90999985    2.17000008
   12.51611137  166.43499756    4.90999985    2.17000008
   12.51916599  169.57499695    4.90999985    2.15000010
   12.52027798  151.87600708    4.90999985    2.17000008
   12.52277756  155.03599548    4.90999985    2.15000010
   12.52611065  172.09800720    4.90999985    2.15000010
   12.52916622  165.08200073    4.90999985    2.13000011
   12.53249931  163.50399780    4.90999985    2.09999990
   12.53583336  166.47200012    4.90999985    2.07999992
   12.53888893  192.94999695    4.90999985    2.03999996
   12.54222298  202.81599426    4.90999985    1.98000002
   12.54527855  199.41000366    4.90999985    1.94000006
   12.54888916  211.16900635    4.90999985    1.89999998
   12.55472279  211.16900635    4.90999985    1.85000002
   12.55888939  231.37199402    4.90999985    1.83000004
   12.56222248  229.87500000    4.90999985    1.85000002
   12.56527805  202.54299927    4.90999985    1.86000001
   12.56861115  208.52200317    4.90999985    1.89999998
   12.57194424  219.25700378    4.90999985    1.91999996
   12.57499981  188.32499695    4.90999985    1.96000004
   12.57833290  189.91000366    4.90999985    1.98000002
   12.58138847  167.84100342    4.90999985    2.00000000
   12.58472157  174.27099609    4.90999985    2.00000000
   12.58694458  186.88200378    4.90999985    2.00000000
   12.58833313  190.24299622    4.90999985    2.00000000
   12.59166622  185.41900635    4.90999985    1.98000002
   12.59749985  185.41900635    4.90999985    1.98000002
   12.60166740  176.73699951    4.90999985    2.00000000
   12.60500050  183.40100098    4.90999985    2.00000000
   12.60805607  176.64599609    4.90999985    2.00000000
   12.61138916  176.22599792    4.90999985    2.01999998
   12.61472225  184.45599365    4.90999985    2.03999996
   12.61777782  167.39500427    4.90999985    2.03999996
   12.62027836  168.66000366    4.90999985    2.05999994
   12.62138939  161.71299744    4.90999985    2.05999994
   12.62472248  180.42599487    4.90999985    2.01999998
   12.62777805  182.50799561    4.90999985    2.01999998
   12.63111115  173.84700012    4.90999985    2.01999998
   12.63416672  173.45799255    4.90999985    2.00000000
   12.64055538  173.45799255    4.90999985    1.96000004
   12.64444447  211.18699646    4.90999985    1.98000002
   12.64777756  191.81700134    4.90999985    1.98000002
   12.65111065  180.90400696    4.90999985    2.00000000
   12.65361118  204.86300659    4.90999985    2.01999998
   12.65472221  196.80599976    4.90999985    2.03999996
   12.65805531  182.28900146    4.90999985    2.03999996
   12.66111088  185.22300720    4.90999985    2.03999996
   12.66444397  174.03700256    4.90999985    2.01999998
   12.66777802  170.51100159    4.90999985    2.03999996
   12.67083359  171.36099243    4.90999985    2.05999994
   12.67416668  194.35299683    4.90999985    2.05999994
   12.67722225  166.74299622    4.90999985    2.03999996
   12.68333340  166.74299622    4.90999985    2.07999992
   12.68750000  180.85000610    4.90999985    2.07999992
   12.69055557  180.05900574    4.90999985    2.05999994
   12.69388866  204.46099854    4.90999985    2.01999998
   12.69722271  207.13299561    4.90999985    1.98000002
   12.70027733  253.35400391    4.90999985    1.88000000
   12.70361137  238.96299744    4.90999985    1.86000001
   12.70666695  256.95098877    4.90999985    1.86000001
   12.71000004  232.25700378    4.90999985    1.86000001
   12.71333313  242.38299561    4.90999985    1.88000000
   12.71638870  263.58200073    4.90999985    1.88000000
   12.71972179  222.32699585    4.90999985    1.89999998
   12.72027779  226.02900696    4.90999985    1.89999998
   12.72611046  226.02900696    4.90999985    1.94000006
   12.73027706  262.59899902    4.90999985    1.91999996
   12.73361111  247.63800049    4.90999985    1.89999998
   12.73666668  246.18299866    4.90999985    1.86000001
   12.74000072  259.88400269    4.90999985    1.86000001
   12.74333382  252.82000732    4.90999985    1.86000001
   12.74638939  267.47500610    4.90999985    1.83000004
   12.74972248  253.51199341    4.90999985    1.83000004
   12.75305557  249.23399353    4.90999985    1.85000002
   12.75361156  249.63900757    4.90999985    1.86000001
   12.75638866  270.88500977    4.90999985    1.86000001
   12.75972176  266.43200684    4.90999985    1.86000001
   12.76277733  249.12600708    4.90999985    1.89999998
   12.76888847  249.12600708    4.90999985    1.88000000
   12.77305508  254.73800659    4.90999985    1.80999994
   12.77638817  231.99299622    4.90999985    1.76999998
   12.77944374  261.99600220    4.90999985    1.76999998
   12.78277779  244.63400269    4.90999985    1.80999994
   12.78611183  260.60699463    4.90999985    1.83000004
   12.78694534  265.29199219    4.90999985    1.83000004
   12.78944492  264.86199951    4.90999985    1.85000002
   12.79277802  281.90399170    4.90999985    1.85000002
   12.79583359  279.79598999    4.90999985    1.83000004
   12.79916668  255.25199890    4.90999985    1.85000002
   12.80277824  242.06900024    4.90999985    1.83000004
   12.80583382  190.63299561    4.90999985    1.80999994
   12.81194496  190.63299561    4.90999985    1.61000001
   12.81583309  129.67100525    4.90999985    1.51999998
   12.81916618  119.81600189    4.90999985    1.58000004
   12.82027817  123.30300140    4.90999985    1.60000002
   12.82277775  108.11799622    4.90999985    1.61000001
   12.82611084  111.48500061    4.90999985    1.58000004
   12.82916641  133.56900024    4.90999985    1.58000004
   12.83249950  149.44799805    4.90999985    1.64999998
   12.83583260  131.10400391    4.90999985    1.71000004
   12.83888817   -1.00000000    4.90999985    1.60000002
   12.84222221   -1.00000000    4.90999985    1.46000004
   12.84527779   -1.00000000    4.90999985    1.41999996
   12.84861088   -1.00000000    4.90999985    1.44000006
   12.85472298   -1.00000000    4.90999985    1.50000000
   12.85888958   -1.00000000    4.90999985    1.51999998
   12.86194515   -1.00000000    4.90999985    1.51999998
   12.86527824   -1.00000000    4.90999985    1.48000002
   12.86833382   -1.00000000    4.90999985    1.48000002
   12.87166691   -1.00000000    4.90999985    1.48000002
   12.87500000   -1.00000000    4.90999985    1.46000004
   12.87805557   -1.00000000    4.90999985    1.44000006
   12.88138866   -1.00000000    4.90999985    1.41999996
   12.88444424   -1.00000000    4.90999985    1.41999996
   12.88805580   -1.00000000    4.90999985    1.44000006
   12.89111137   -1.00000000    4.90999985    1.41999996
   12.89750004   -1.00000000    4.90999985    1.48000002
   12.90166664   -1.00000000    4.90999985    1.53999996
   12.90472221   -1.00000000    4.90999985    1.50000000
   12.90805531   -1.00000000    4.90999985    1.46000004
   12.91138840   -1.00000000    4.90999985    1.46000004
   12.91444397   -1.00000000    4.90999985    1.38000000
   12.91777802   -1.00000000    4.90999985    1.33000004
   12.92166710   -1.00000000    4.90999985    1.26999998
   12.92500019   -1.00000000    4.90999985    1.26999998
   12.92805576   -1.00000000    4.90999985    1.30999994
   12.93138885   -1.00000000    4.90999985    1.46000004
   12.93472195   78.47850037    4.90999985    1.55999994
   12.94027805   78.47850037    4.90999985    1.58000004
   12.94444466   -1.00000000   -1.00000000   -1.00000000
   12.94777775   23.57019997    4.90999985    1.58000004
   12.95083332   -1.00000000    4.90999985    1.55999994
   12.95444393   -1.00000000    4.90999985    1.51999998
   12.95777798   -1.00000000    4.90999985    1.51999998
   12.96083355   -1.00000000    4.90999985    1.51999998
   12.96416664   -1.00000000    4.90999985    1.51999998
   12.96722221   -1.00000000    4.90999985    1.50000000
   12.97055531   23.57019997    4.90999985    1.50000000
   12.97388840   78.86679840    4.90999985    1.53999996
   12.97694397  113.77999878    4.90999985    1.60000002
   12.98305511  113.77999878    4.90999985    1.63000000
   12.98722267  128.72500610    4.90999985    1.66999996
   12.99055576  131.62199402    4.90999985    1.73000002
   12.99388885  118.10700226    4.90999985    1.71000004
   12.99694443  105.04199982    4.90999985    1.71000004
   13.00027752  120.80000305    4.90999985    1.69000006
   13.00333309  126.41999817    4.90999985    1.71000004
   13.00666714  117.05999756    4.90999985    1.71000004
   13.01000023  135.81300354    4.90999985    1.69000006
   13.01305580   -1.00000000    4.90999985    1.60000002
   13.01638889   -1.00000000    4.90999985    1.50000000
   13.01972198   -1.00000000    4.90999985    1.46000004
   13.02611065   -1.00000000    4.90999985    1.50000000
   13.02999973   -1.00000000   -1.00000000   -1.00000000
   13.03333378   -1.00000000   -1.00000000   -1.00000000
   13.03666687   23.57019997    4.90999985    1.58000004
   13.03972244   -1.00000000   -1.00000000   -1.00000000
   13.04305553   -1.00000000    4.90999985    1.53999996
   13.04638958   -1.00000000    4.90999985    1.51999998
   13.04944515   -1.00000000    4.90999985    1.50000000
   13.05277824  124.77400208    4.90999985    1.58000004
   13.05388927  172.15800476    4.90999985    1.61000001
   13.05638885  126.47399902    4.90999985    1.66999996
   13.05972195  146.55799866    4.90999985    1.69000006
   13.06277752  148.23599243    4.90999985    1.75000000
   13.06888866  148.23599243    4.90999985    1.73000002
   13.07305527  221.78500366    4.90999985    1.76999998
   13.07611084  251.80700684    4.90999985    1.83000004
   13.07944393  231.71899414    4.90999985    1.89999998
   13.08277798  194.49600220    4.90999985    2.00000000
   13.08583260  190.40699768    4.90999985    2.13000011
   13.08722210  179.85899353    4.90999985    2.15000010
   13.08944416  174.69099426    4.90999985    2.19000006
   13.09277725  172.39500427    4.90999985    2.23000002
   13.09583282  164.85099792    4.90999985    2.23000002
   13.09916592  178.88499451    4.90999985    2.17000008
   13.10249996  163.67300415    4.90999985    2.23000002
   13.10555553  158.34899902    4.90999985    2.28999996
   13.11166668  158.34899902    4.90999985    2.34999990
   13.11583328  153.75399780    4.90999985    2.30999994
   13.11916637  149.41799927    4.90999985    2.26999998
   13.12055588  140.95100403    4.90999985    2.28999996
   13.12250042  139.71000671    4.90999985    2.28999996
   13.12583351  153.11399841    4.90999985    2.32999992
   13.12888908  146.36099243    4.90999985    2.32999992
   13.13222218  156.98300171    4.90999985    2.28999996
   13.13555527  167.41299438    4.90999985    2.21000004
   13.13861084  175.21600342    4.90999985    2.13000011
   13.14194393  185.73500061    4.90999985    2.07999992
   13.14527798  159.91299438    4.90999985    2.11999989
   13.14833355  180.83599854    4.90999985    2.19000006
   13.15444374  180.83599854    4.90999985    2.01999998
   13.15861034  264.55499268    4.90999985    1.89999998
   13.16194439  259.37100220    4.90999985    1.83000004
   13.16499996  262.67401123    4.90999985    1.80999994
   13.16833401  242.62699890    4.90999985    1.85000002
   13.17166710  236.06599426    4.90999985    1.94000006
   13.17500019  208.45799255    4.90999985    1.98000002
   13.17805576  177.10499573    4.90999985    2.07999992
   13.18138885  171.26600647    4.90999985    2.15000010
   13.18444443  185.28100586    4.90999985    2.19000006
   13.18722248  171.01300049    4.90999985    2.19000006
   13.18805599  170.66700745    4.90999985    2.19000006
   13.19138908  160.00000000    4.90999985    2.23000002
   13.19750023  160.00000000    4.90999985    2.34999990
   13.20138836  151.62600708    4.90999985    2.34999990
   13.20472240  147.13200378    4.90999985    2.36999989
   13.20805550  148.70199585    4.90999985    2.32999992
   13.21111107  153.44500732    4.90999985    2.32999992
   13.21444416  146.34100342    4.90999985    2.34999990
   13.21777725  148.25500488    4.90999985    2.32999992
   13.22055531  154.10299683    4.90999985    2.32999992
   13.22111034  139.69500732    4.90999985    2.32999992
   13.22444439  147.67999268    4.90999985    2.36999989
   13.22777748  143.17500305    4.90999985    2.34999990
   13.23083305  142.58799744    4.90999985    2.32999992
   13.23416710  155.57400513    4.90999985    2.28999996
   13.24027824  155.57400513    4.90999985    2.21000004
   13.24444485  165.86099243    4.90999985    2.21000004
   13.24750042  180.66600037    4.90999985    2.13000011
   13.25083351  166.82899475    4.90999985    2.15000010
   13.25388908  163.22200012    4.90999985    2.17000008
   13.25444412  147.41999817    4.90999985    2.17000008
   13.25777817  159.34300232    4.90999985    2.25000000
   13.26111126  158.99200439    4.90999985    2.21000004
   13.26416683  155.44799805    4.90999985    2.26999998
   13.26749992  154.37199402    4.90999985    2.26999998
   13.27055550  154.19799805    4.90999985    2.34999990
   13.27388859  151.01800537    4.90999985    2.39000010
   13.27722168  149.86500549    4.90999985    2.36999989
   13.28305531  149.86500549    4.90999985    2.39000010
   13.28722286  145.38499451    4.90999985    2.39000010
   13.29055595  150.63200378    4.90999985    2.36999989
   13.29361153  142.74400330    4.90999985    2.36999989
   13.29694462  146.40299988    4.90999985    2.39000010
   13.30000019  147.84399414    4.90999985    2.39000010
   13.30333328  145.82299805    4.90999985    2.36999989
   13.30666733  140.32699585    4.90999985    2.39000010
   13.30972195  149.82000732    4.90999985    2.36999989
   13.31305599  141.23500061    4.90999985    2.36999989
   13.31638908  139.71899414    4.90999985    2.39000010
   13.31944466  139.65199280    4.90999985    2.39000010
   13.32055569  141.80900574    4.90999985    2.39000010
   13.34111118  141.80900574    4.90999985    2.39000010
   13.34527779  145.00999451    4.90999985    2.39000010
   13.34861088  139.96800232    4.90999985    2.39000010
   13.35166740  136.66799927    4.90999985    2.39000010
   13.35388947  138.08500671    4.90999985    2.39000010
   13.35527802  137.48300171    4.90999985    2.39000010
   13.35861111  141.01699829    4.90999985    2.39000010
   13.36194515  145.06900024    4.90999985    2.39000010
   13.36500072  142.00999451    4.90999985    2.39000010
   13.36833382  140.02699280    4.90999985    2.40000010
   13.37138939  145.33500671    4.90999985    2.39000010
   13.37472248  135.50000000    4.90999985    2.39000010
   13.37805557  137.88200378    4.90999985    2.39000010
   13.38388920  137.88200378    4.90999985    2.39000010
   13.38805580  141.98800659    4.90999985    2.39000010
   13.39111137  133.16299438    4.90999985    2.39000010
   13.39444447  146.95100403    4.90999985    2.39000010
   13.39777756  137.98599243    4.90999985    2.39000010
   13.40083313  132.66099548    4.90999985    2.39000010
   13.40416622  140.74600220    4.90999985    2.40000010
   13.40749931  142.97599792    4.90999985    2.39000010
   13.41055489  134.02200317    4.90999985    2.39000010
   13.41388893  134.68699646    4.90999985    2.40000010
   13.41694450  138.12300110    4.90999985    2.39000010
   13.42027855  139.69000244    4.90999985    2.40000010
   13.42083359  138.38900757    4.90999985    2.40000010
   13.42666721  138.38900757    4.90999985    2.40000010
   13.43083382  136.17199707    4.90999985    2.40000010
   13.43416691  121.37100220    4.90999985    2.40000010
   13.43722248  139.73500061    4.90999985    2.40000010
   13.44055557  136.78900146    4.90999985    2.40000010
   13.44388866  132.15400696    4.90999985    2.40000010
   13.44694424  137.15100098    4.90999985    2.40000010
   13.45027733  133.95300293    4.90999985    2.40000010
   13.45333290  135.59800720    4.90999985    2.40000010
   13.45416641  135.38600159    4.90999985    2.40000010
   13.45722198  133.73800659    4.90999985    2.40000010
   13.46027756  131.18099976    4.90999985    2.40000010
   13.46361065  126.60800171    4.90999985    2.40000010
   13.46944427  126.60800171    4.90999985    2.40000010
   13.47361088  131.02600098    4.90999985    2.40000010
   13.47694397  139.95700073    4.90999985    2.40000010
   13.48027706  131.26300049    4.90999985    2.42000008
   13.48333359  130.10899353    4.90999985    2.42000008
   13.48666668  136.79200745    4.90999985    2.40000010
   13.48750019  135.17399597    4.90999985    2.40000010
   13.49000072  138.17599487    4.90999985    2.42000008
   13.49333382  134.78100586    4.90999985    2.42000008
   13.49666691  137.14999390    4.90999985    2.42000008
   13.49972248  141.20199585    4.90999985    2.42000008
   13.50305557  137.38999939    4.90999985    2.42000008
   13.50638866  133.15800476    4.90999985    2.42000008
   13.51249981  133.15800476    4.90999985    2.42000008
   13.51666641  143.49600220    4.90999985    2.42000008
   13.51972198  145.35499573    4.90999985    2.42000008
   13.52083302  135.33000183    4.90999985    2.42000008
   13.52333355  132.15299988    4.90999985    2.42000008
   13.52638817  141.44500732    4.90999985    2.40000010
   13.52972221  140.14100647    4.90999985    2.42000008
   13.53277779  134.12300110    4.90999985    2.42000008
   13.53611183  147.24400330    4.90999985    2.42000008
   13.53944492  134.36300659    4.90999985    2.44000006
   13.54250050  139.69200134    4.90999985    2.42000008
   13.54583359  132.85000610    4.90999985    2.42000008
   13.54916668  131.99699402    4.90999985    2.42000008
   13.55527782  131.99699402    4.90999985    2.42000008
   13.55944443  132.53799438    4.90999985    2.44000006
   13.56250000  134.76800537    4.90999985    2.42000008
   13.56583309  141.57099915    4.90999985    2.42000008
   13.56916618  133.83399963    4.90999985    2.42000008
   13.57222176  137.97599792    4.90999985    2.42000008
   13.57555580  137.34500122    4.90999985    2.42000008
   13.57888889  134.60699463    4.90999985    2.42000008
   13.58194447  128.93800354    4.90999985    2.42000008
   13.58527756  140.92700195    4.90999985    2.44000006
   13.58749962  139.65299988    4.90999985    2.44000006
   13.58888817  144.02099609    4.90999985    2.42000008
   13.59194374  134.24800110    4.90999985    2.44000006
   13.59805489  134.24800110    4.90999985    2.44000006
   13.60222244  134.57600403    4.90999985    2.44000006
   13.60555553  135.25100708    4.90999985    2.42000008
   13.60861111  134.54299927    4.90999985    2.42000008
   13.61194515  139.47000122    4.90999985    2.42000008
   13.61527824  139.33599854    4.90999985    2.46000004
   13.61833382  135.74000549    4.90999985    2.44000006
   13.62083340  137.23599243    4.90999985    2.44000006
   13.62222195  134.76100159    4.90999985    2.44000006
   13.62527752  131.43699646    4.90999985    2.44000006
   13.62861156  132.98599243    4.90999985    2.44000006
   13.63166714  139.11999512    4.90999985    2.44000006
   13.63500023  134.81599426    4.90999985    2.44000006
   13.64083290  134.81599426    4.90999985    2.44000006
   13.64499950  141.81599426    4.90999985    2.44000006
   13.64833355  137.06199646    4.90999985    2.42000008
   13.65166664  138.66900635    4.90999985    2.44000006
   13.65416622  141.65600586    4.90999985    2.44000006
   13.65527725  136.97200012    4.90999985    2.44000006
   13.65833282  131.21499634    4.90999985    2.46000004
   13.66166592  133.59100342    4.90999985    2.44000006
   13.66472149  134.53900146    4.90999985    2.44000006
   13.66805553  139.72599792    4.90999985    2.46000004
   13.67138958  133.36900330    4.90999985    2.44000006
   13.67444515  138.56900024    4.90999985    2.44000006
   13.67777824  132.69000244    4.90999985    2.46000004
   13.68388939  132.69000244    4.90999985    2.46000004
   13.68805599  134.42900085    4.90999985    2.46000004
   13.69111156  133.05599976    4.90999985    2.46000004
   13.69444466  130.33999634    4.90999985    2.46000004
   13.69750023  137.26899719    4.90999985    2.46000004
   13.70083332  133.65899658    4.90999985    2.46000004
   13.70416641  133.37300110    4.90999985    2.46000004
   13.70722198  137.17199707    4.90999985    2.46000004
   13.71055508  132.23399353    4.90999985    2.46000004
   13.71388912  139.41999817    4.90999985    2.46000004
   13.71694374  133.46299744    4.90999985    2.46000004
   13.72027779  134.32400513    4.90999985    2.46000004
   13.72083282  139.86099243    4.90999985    2.46000004
   13.72666645  139.86099243    4.90999985    2.46000004
   13.73083305  133.38800049    4.90999985    2.46000004
   13.73388958  134.63400269    4.90999985    2.46000004
   13.73722267  137.19999695    4.90999985    2.46000004
   13.74055576  134.15699768    4.90999985    2.46000004
   13.74361134  139.38400269    4.90999985    2.46000004
   13.74694443  131.39999390    4.90999985    2.46000004
   13.75027752  134.19599915    4.90999985    2.46000004
   13.75333309  128.24899292    4.90999985    2.46000004
   13.75416660  136.97700500    4.90999985    2.46000004
   13.75694466  132.93699646    4.90999985    2.46000004
   13.76000023  136.87399292    4.90999985    2.46000004
   13.76333332  135.19000244    4.90999985    2.46000004
   13.76944447  135.19000244    4.90999985    2.46000004
   13.77361107  133.44900513    4.90999985    2.46000004
   13.77694416  133.82600403    4.90999985    2.46000004
   13.77999973  123.87000275    4.90999985    2.46000004
   13.78333378  129.68899536    4.90999985    2.46000004
   13.78666687  132.74699402    4.90999985    2.46000004
   13.78750038  132.85499573    4.90999985    2.46000004
   13.79027843  131.25300598    4.90999985    2.46000004
   13.79333401  128.11300659    4.90999985    2.46000004
   13.79666710  133.06199646    4.90999985    2.46000004
   13.80000019  134.22200012    4.90999985    2.46000004
   13.80305576  131.51100159    4.90999985    2.48000002
   13.80638885  130.62199402    4.90999985    2.46000004
   13.81222248  130.62199402    4.90999985    2.48000002
   13.81638908  129.10299683    4.90999985    2.46000004
   13.81972218  126.74900055    4.90999985    2.48000002
   13.82083321  134.58399963    4.90999985    2.46000004
   13.82333374  130.44700623    4.90999985    2.46000004
   13.82638836  129.66099548    4.90999985    2.46000004
   13.82972240  129.55299377    4.90999985    2.48000002
   13.83277798  131.43600464    4.90999985    2.48000002
   13.83611107  134.44299316    4.90999985    2.48000002
   13.83944416  137.13400269    4.90999985    2.48000002
   13.84249973  143.84899902    4.90999985    2.46000004
   13.84583282  159.18600464    4.90999985    2.46000004
   13.84916592  140.44999695    4.90999985    2.48000002
   13.85527802  140.44999695    4.90999985    2.46000004
   13.85944462  129.62199402    4.90999985    2.46000004
   13.86250019  137.22099304    4.90999985    2.46000004
   13.86583328  131.00100708    4.90999985    2.48000002
   13.86888885  133.09899902    4.90999985    2.48000002
   13.87222195  133.33799744    4.90999985    2.48000002
   13.87555599  130.84399414    4.90999985    2.48000002
   13.87861156  132.35000610    4.90999985    2.48000002
   13.88194466  128.79499817    4.90999985    2.48000002
   13.88527775  128.29499817    4.90999985    2.48000002
   13.88749981  134.93400574    4.90999985    2.48000002
   13.88888836  128.85600281    4.90999985    2.46000004
   13.89194393  130.72700500    4.90999985    2.48000002
   13.89805508  130.72700500    4.90999985    2.48000002
   13.90222168  125.56999969    4.90999985    2.48000002
   13.90527725  133.76499939    4.90999985    2.48000002
   13.90861034  135.94099426    4.90999985    2.48000002
   13.91194439  131.41099548    4.90999985    2.48000002
   13.91499996  131.96499634    4.90999985    2.48000002
   13.91833401  138.01100159    4.90999985    2.48000002
   13.92083359  129.94000244    4.90999985    2.48000002
   13.92194462  133.04699707    4.90999985    2.48000002
   13.92500019  124.81900024    4.90999985    2.48000002
   13.92833328  132.00300598    4.90999985    2.48000002
   13.93166733  129.99099731    4.90999985    2.48000002
   13.93472195  129.50999451    4.90999985    2.48000002
   13.94083309  129.50999451    4.90999985    2.48000002
   13.94499969  132.89999390    4.90999985    2.48000002
   13.94833374  128.34599304    4.90999985    2.48000002
   13.95138836  133.88600159    4.90999985    2.48000002
   13.95416641  133.27999878    4.90999985    2.48000002
   13.95527744  134.58099365    4.90999985    2.48000002
   13.95833302  133.87100220    4.90999985    2.48000002
   13.96166611  135.60499573    4.90999985    2.48000002
   13.96500015  132.30999756    4.90999985    2.48000002
   13.96805477  129.28799438    4.90999985    2.50000000
   13.97138882  125.97799683    4.90999985    2.48000002
   13.97444439  123.26399994    4.90999985    2.48000002
   13.97777748  124.92099762    4.90999985    2.48000002
   13.98361111  124.92099762    4.90999985    2.48000002
   13.98777771  125.18299866    4.90999985    2.50000000
   13.99111176  128.74600220    4.90999985    2.48000002
   13.99444485  134.19299316    4.90999985    2.48000002
   13.99750042  133.24699402    4.90999985    2.48000002
   14.00083351  134.67599487    4.90999985    2.50000000
   14.00388908  132.45599365    4.90999985    2.48000002
   14.00722218  130.63699341    4.90999985    2.48000002
   14.01055527  133.25300598    4.90999985    2.48000002
   14.01361084  137.29899597    4.90999985    2.50000000
   14.01694393  134.16700745    4.90999985    2.48000002
   14.02027798  134.34800720    4.90999985    2.48000002
   14.02083302  130.98699951    4.90999985    2.48000002
   14.02666664  130.98699951    4.90999985    2.48000002
   14.03083324  137.58900452    4.90999985    2.48000002
   14.03388977  134.00399780    4.90999985    2.50000000
   14.03722286  129.83000183    4.90999985    2.48000002
   14.04027843  129.63299561    4.90999985    2.48000002
   14.04361153  129.35800171    4.90999985    2.50000000
   14.04694462  132.55999756    4.90999985    2.48000002
   14.05000019  130.63299561    4.90999985    2.50000000
   14.05333328  131.14799500    4.90999985    2.48000002
   14.05416679  132.78900146    4.90999985    2.50000000
   14.05694485  135.39700317    4.90999985    2.50000000
   14.06000042  129.01199341    4.90999985    2.48000002
   14.06333351  128.80799866    4.90999985    2.50000000
   14.06944466  128.80799866    4.90999985    2.48000002
   14.07361126  136.47000122    4.90999985    2.48000002
   14.07666683  126.28700256    4.90999985    2.50000000
   14.07999992  123.31500244    4.90999985    2.50000000
   14.08333302  125.08799744    4.90999985    2.50000000
   14.08638859  123.19400024    4.90999985    2.50000000
   14.08749962  127.74099731    4.90999985    2.48000002
   14.09000015  122.51000214    4.90999985    2.50000000
   14.09305477  126.97000122    4.90999985    2.50000000
   14.09638882  127.12699890    4.90999985    2.50000000
   14.09972191  127.48400116    4.90999985    2.51999998
   14.10277843  126.71600342    4.90999985    2.50000000
   14.10611153  131.48699951    4.90999985    2.50000000
   14.11222267  131.48699951    4.90999985    2.50000000
   14.11638927  129.14399719    4.90999985    2.50000000
   14.11972237  124.76000214    4.90999985    2.50000000
   14.12083340  124.90899658    4.90999985    2.50000000
   14.12333393  126.46800232    4.90999985    2.50000000
   14.12638855  125.54399872    4.90999985    2.50000000
   14.12972260  132.92500305    4.90999985    2.51999998
   14.13305569  127.92700195    4.90999985    2.50000000
   14.13611126  130.00599670    4.90999985    2.50000000
   14.13944435  123.15799713    4.90999985    2.50000000
   14.14277744  129.61900330    4.90999985    2.50000000
   14.14583302  130.42599487    4.90999985    2.50000000
   14.14916611  131.05299377    4.90999985    2.51999998
   14.15499973  131.05299377    4.90999985    2.50000000
   14.15916634  127.60700226    4.90999985    2.50000000
   14.16249943  125.97599792    4.90999985    2.50000000
   14.16583252  129.63900757    4.90999985    2.50000000
   14.16888905  122.36299896    4.90999985    2.50000000
   14.17222214  122.08000183    4.90999985    2.50000000
   14.17555618  125.55899811    4.90999985    2.50000000
   14.17861176  131.80700684    4.90999985    2.50000000
   14.18194485  131.32800293    4.90999985    2.51999998
   14.18527794  127.84700012    4.90999985    2.50000000
   14.18750000  134.96499634    4.90999985    2.50000000
   14.18888855  129.33900452    4.90999985    2.50000000
   14.19194412  129.97900391    4.90999985    2.51999998
   14.19805527  129.97900391    4.90999985    2.50000000
   14.20222187  131.68299866    4.90999985    2.50000000
   14.20527744  117.77899933    4.90999985    2.51999998
   14.20861053  130.56199646    4.90999985    2.50000000
   14.21166611  123.76699829    4.90999985    2.51999998
   14.21500015  124.98899841    4.90999985    2.53999996
   14.21833324  125.47699738    4.90999985    2.51999998
   14.22083282  131.32600403    4.90999985    2.50000000
   14.22194386  127.47399902    4.90999985    2.51999998
   14.22499943  130.87699890    4.90999985    2.51999998
   14.22833252  127.06099701    4.90999985    2.51999998
   14.23166656  124.68000031    4.90999985    2.51999998
   14.23472214  132.69700623    4.90999985    2.51999998
   14.24083328  132.69700623    4.90999985    2.51999998
   14.24499989  131.98100281    4.90999985    2.51999998
   14.24805546  133.50799561    4.90999985    2.50000000
   14.25138855  137.42399597    4.90999985    2.51999998
   14.25416660  128.75100708    4.90999985    2.51999998
   14.25500011  126.89600372    4.90999985    2.51999998
   14.25805569  130.90499878    4.90999985    2.51999998
   14.26138878  131.55599976    4.90999985    2.50000000
   14.26472187  135.38499451    4.90999985    2.51999998
   14.26777744  135.07000732    4.90999985    2.51999998
   14.27111053  133.02099609    4.90999985    2.51999998
   14.27444458  131.52900696    4.90999985    2.51999998
   14.27750015  134.91999817    4.90999985    2.51999998
   14.28361130  134.91999817    4.90999985    2.51999998
   14.28777790  132.36300659    4.90999985    2.51999998
   14.29111195  130.36799622    4.90999985    2.51999998
   14.29416752  129.04200745    4.90999985    2.51999998
   14.29750061  131.87100220    4.90999985    2.51999998
   14.30083370  127.31900024    4.90999985    2.51999998
   14.30388927  123.80999756    4.90999985    2.51999998
   14.30722237  129.15199280    4.90999985    2.51999998
   14.31027794  126.03800201    4.90999985    2.51999998
   14.31361103  126.37999725    4.90999985    2.51999998
   14.31694412  132.10800171    4.90999985    2.51999998
   14.31999969  130.14500427    4.90999985    2.51999998
   14.32083321  132.83000183    4.90999985    2.51999998
   14.32638836  132.83000183    4.90999985    2.53999996
   14.33055592  126.93000031    4.90999985    2.53999996
   14.33388901  130.70899963    4.90999985    2.51999998
   14.33722210  128.86099243    4.90999985    2.53999996
   14.35472298  128.72399902    4.90999985    2.51999998
   14.35722256  125.43900299    4.90999985    2.51999998
   14.36027813  131.90199280    4.90999985    2.51999998
   14.36361122  131.24099731    4.90999985    2.53999996
   14.36944485  131.24099731    4.90999985    2.51999998
   14.37361145  126.98200226    4.90999985    2.51999998
   14.37694454  135.83500671    4.90999985    2.53999996
   14.38000011  132.04100037    4.90999985    2.51999998
   14.38333321  131.70500183    4.90999985    2.53999996
   14.38666630  129.66900635    4.90999985    2.53999996
   14.38805580  121.22399902    4.90999985    2.53999996
   14.39000034  128.75900269    4.90999985    2.51999998
   14.39333344  132.93800354    4.90999985    2.53999996
   14.39638901  119.44799805    4.90999985    2.53999996
   14.39972210  128.56500244    4.90999985    2.51999998
   14.40305519  126.93599701    4.90999985    2.53999996
   14.40611076  129.35099792    4.90999985    2.53999996
   14.41222191  129.35099792    4.90999985    2.53999996
   14.41638851  128.54600525    4.90999985    2.51999998
   14.41972256  128.95500183    4.90999985    2.51999998
   14.42138958  123.15100098    4.90999985    2.53999996
   14.42333412  131.11399841    4.90999985    2.53999996
   14.42666721  129.98500061    4.90999985    2.53999996
   14.42972279  125.30300140    4.90999985    2.53999996
   14.43305588  125.16300201    4.90999985    2.51999998
   14.43638897  127.97200012    4.90999985    2.53999996
   14.43944454  136.60899353    4.90999985    2.53999996
   14.44277763  130.74299622    4.90999985    2.53999996
   14.44611073  130.13900757    4.90999985    2.53999996
   14.44916630  126.61799622    4.90999985    2.53999996
   14.45527744  126.61799622    4.90999985    2.53999996
   14.45944405  123.79499817    4.90999985    2.51999998
   14.46249962  126.16899872    4.90999985    2.53999996
   14.46583271  129.65899658    4.90999985    2.53999996
   14.46888828  129.54299927    4.90999985    2.53999996
   14.47222137  130.09800720    4.90999985    2.53999996
   14.47555542  132.23500061    4.90999985    2.53999996
   14.47861099  127.30500031    4.90999985    2.53999996
   14.48194408  129.24000549    4.90999985    2.53999996
   14.48527813  125.19300079    4.90999985    2.53999996
   14.48805618  135.10499573    4.90999985    2.53999996
   14.48861122  129.32099915    4.90999985    2.53999996
   14.49194431  132.10600281    4.90999985    2.53999996
   14.49805546  132.10600281    4.90999985    2.53999996
   14.50222206  139.78900146    4.90999985    2.53999996
   14.50527763  131.21299744    4.90999985    2.53999996
   14.50861073  131.59700012    4.90999985    2.53999996
   14.51194477  123.53399658    4.90999985    2.53999996
   14.51500034  130.83500671    4.90999985    2.53999996
   14.51833344  130.80700684    4.90999985    2.53999996
   14.52138901  129.09399414    4.90999985    2.53999996
   14.52222157  127.19599915    4.90999985    2.53999996
   14.52527714  136.82200623    4.90999985    2.51999998
   14.52861118  134.77099609    4.90999985    2.55999994
   14.53166676  127.22899628    4.90999985    2.55999994
   14.53500080  130.61399841    4.90999985    2.53999996
   14.54083347  130.61399841    4.90999985    2.55999994
   14.54500008  123.29100037    4.90999985    2.53999996
   14.54833412  122.27899933    4.90999985    2.53999996
   14.55138874  124.62799835    4.90999985    2.53999996
   14.55472279  123.45999908    4.90999985    2.53999996
   14.55500031  115.51799774    4.90999985    2.53999996
   14.55833340  125.22000122    4.90999985    2.53999996
   14.56138897  122.33200073    4.90999985    2.53999996
   14.56472206  126.50199890    4.90999985    2.53999996
   14.56805515  121.01200104    4.90999985    2.53999996
   14.57111073  128.56100464    4.90999985    2.53999996
   14.57444477  126.13999939    4.90999985    2.53999996
   14.57777786  132.98500061    4.90999985    2.51999998
   14.58361053  132.98500061    4.90999985    2.53999996
   14.58777714  134.05299377    4.90999985    2.53999996
   14.58833313  124.86599731    4.90999985    2.53999996
   14.59166622  125.13700104    4.90999985    2.53999996
   14.59472179  120.39299774    4.90999985    2.53999996
   14.59805489  122.74500275    4.90999985    2.53999996
   14.60138893  125.92600250    4.90999985    2.53999996
   14.60444450  119.83699799    4.90999985    2.51999998
   14.60777855  120.33899689    4.90999985    2.53999996
   14.61083412  125.63800049    4.90999985    2.53999996
   14.61416721  123.21199799    4.90999985    2.53999996
   14.61750031  127.37799835    4.90999985    2.53999996
   14.62055588  124.60700226    4.90999985    2.53999996
   14.62166691  130.31700134    4.90999985    2.53999996
   14.62666702  130.31700134    4.90999985    2.53999996
   14.63055611  134.97000122    4.90999985    2.53999996
   14.63388920  130.57200623    4.90999985    2.53999996
   14.63722229  132.31599426    4.90999985    2.53999996
   14.64027786  129.88099670    4.90999985    2.53999996
   14.64361095  131.42900085    4.90999985    2.53999996
   14.64694405  125.71499634    4.90999985    2.53999996
   14.64999962  124.16400146    4.90999985    2.53999996
   14.65333271  122.54799652    4.90999985    2.53999996
   14.65499973  127.90799713    4.90999985    2.53999996
   14.65694427  134.53300476    4.90999985    2.55999994
   14.65999985  126.19100189    4.90999985    2.55999994
   14.66333294  127.30899811    4.90999985    2.53999996
   14.66944504  127.30899811    4.90999985    2.55999994
   14.67361164  119.00099945    4.90999985    2.53999996
   14.67666721  127.25900269    4.90999985    2.55999994
   14.68000031  128.65699768    4.90999985    2.53999996
   14.68333340  130.66900635    4.90999985    2.55999994
   14.68638897  129.97099304    4.90999985    2.53999996
   14.68833351  127.54900360    4.90999985    2.55999994
   14.69000053  123.01499939    4.90999985    2.53999996
   14.69305515  125.59400177    4.90999985    2.55999994
   14.69638920  123.08399963    4.90999985    2.55999994
   14.69972229  122.86699677    4.90999985    2.53999996
   14.70277786  125.35199738    4.90999985    2.53999996
   14.70611095  121.02300262    4.90999985    2.53999996
   14.71222210  121.02300262    4.90999985    2.55999994
   14.71638870  122.06900024    4.90999985    2.55999994
   14.71972179  127.66400146    4.90999985    2.55999994
   14.72166634  126.08699799    4.90999985    2.53999996
   14.72333336  123.33200073    4.90999985    2.55999994
   14.72638798  124.48799896    4.90999985    2.53999996
   14.72972202  118.04499817    4.90999985    2.57999992
   14.73305511  121.17700195    4.90999985    2.55999994
   14.73611164  116.31800079    4.90999985    2.55999994
   14.73944473  137.49200439    4.90999985    2.55999994
   14.74277782  122.25399780    4.90999985    2.53999996
   14.74583340  121.08499908    4.90999985    2.55999994
   14.74916649  119.94200134    4.90999985    2.53999996
   14.75500011  119.94200134    4.90999985    2.53999996
   14.75916672  126.24600220    4.90999985    2.53999996
   14.76249981  122.07099915    4.90999985    2.55999994
   14.76583290  126.77700043    4.90999985    2.55999994
   14.76888847  122.18199921    4.90999985    2.55999994
   14.77222157  126.15699768    4.90999985    2.55999994
   14.77555561  120.19400024    4.90999985    2.53999996
   14.77861118  139.57699585    4.90999985    2.55999994
   14.78194427  129.96299744    4.90999985    2.55999994
   14.78500080  124.76300049    4.90999985    2.55999994
   14.78833389  133.98800659    4.90999985    2.55999994
   14.78888893  137.94700623    4.90999985    2.57999992
   14.79194450  160.69200134    4.90999985    2.55999994
   14.79805565  160.69200134    4.90999985    2.55999994
   14.80194473  125.79699707    4.90999985    2.55999994
   14.80527782  128.92100525    4.90999985    2.55999994
   14.80861092  130.22900391    4.90999985    2.55999994
   14.81166649  139.61399841    4.90999985    2.55999994
   14.81500053  133.26100159    4.90999985    2.55999994
   14.81833363  122.69899750    4.90999985    2.55999994
   14.82138920  119.97000122    4.90999985    2.55999994
   14.82194424  144.25999451    4.90999985    2.55999994
   14.82527733  138.96699524    4.90999985    2.55999994
   14.82833290  132.63800049    4.90999985    2.55999994
   14.83166695  140.61099243    4.90999985    2.55999994
   14.83472157  126.41300201    4.90999985    2.55999994
   14.84083271  126.41300201    4.90999985    2.55999994
   14.84499931  128.33700562    4.90999985    2.55999994
   14.84805489  122.85700226    4.90999985    2.57999992
   14.85138893  128.56900024    4.90999985    2.55999994
   14.85472298  118.58300018    4.90999985    2.55999994
   14.85527802  115.87899780    4.90999985    2.55999994
   14.85833359  117.91100311    4.90999985    2.55999994
   14.86138916  128.21400452    4.90999985    2.55999994
   14.86472225  124.24299622    4.90999985    2.55999994
   14.86805534  129.60499573    4.90999985    2.55999994
   14.87111092  129.24400330    4.90999985    2.55999994
   14.87444496  126.74500275    4.90999985    2.55999994
   14.87777805  120.82499695    4.90999985    2.55999994
   14.88361073  120.82499695    4.90999985    2.55999994
   14.88777733  133.16600037    4.90999985    2.55999994
   14.88861084  122.60199738    4.90999985    2.55999994
   14.89138889  126.90200043    4.90999985    2.55999994
   14.89444447  116.52100372    4.90999985    2.57999992
   14.89777756  131.32600403    4.90999985    2.55999994
   14.90083313  123.78099823    4.90999985    2.57999992
   14.90416622  115.91600037    4.90999985    2.55999994
   14.90749931  127.57099915    4.90999985    2.55999994
   14.91055489  118.02999878    4.90999985    2.57999992
   14.91388893  120.47100067    4.90999985    2.55999994
   14.91722298  120.59700012    4.90999985    2.57999992
   14.92027855  122.92700195    4.90999985    2.57999992
   14.92194462  115.43000031    4.90999985    2.57999992
   14.92638874  115.43000031    4.90999985    2.57999992
   14.93055630  114.51899719    4.90999985    2.57999992
   14.93388939  122.15899658    4.90999985    2.55999994
   14.93722248  121.90100098    4.90999985    2.57999992
   14.94027805  122.66899872    4.90999985    2.57999992
   14.94361115  119.13899994    4.90999985    2.57999992
   14.94694424  121.93299866    4.90999985    2.57999992
   14.94999981  127.30000305    4.90999985    2.57999992
   14.95333290  120.94400024    4.90999985    2.57999992
   14.95527744  134.80099487    4.90999985    2.57999992
   14.95694447  125.78700256    4.90999985    2.57999992
   14.96000004  128.18200684    4.90999985    2.57999992
   14.96333313  116.79100037    4.90999985    2.57999992
   14.96944427  116.79100037    4.90999985    2.57999992
   14.97333336  126.22299957    4.90999985    2.57999992
   14.97666645  126.73799896    4.90999985    2.57999992
   14.97999954  127.05300140    4.90999985    2.57999992
   14.98305511  125.88300323    4.90999985    2.57999992
   14.98638916  122.48999786    4.90999985    2.55999994
   14.98861122  124.30699921    4.90999985    2.57999992
   14.99000072  123.64199829    4.90999985    2.57999992
   14.99305534  138.42700195    4.90999985    2.57999992
   14.99638939  128.05400085    4.90999985    2.55999994
   14.99972248  127.49900055    4.90999985    2.57999992
   15.00277805  130.33799744    4.90999985    2.57999992
   15.00611115  132.10099792    4.90999985    2.57999992
   15.01222229  132.10099792    4.90999985    2.57999992
   15.01638889  135.94099426    4.90999985    2.57999992
   15.01944447  126.28199768    4.90999985    2.57999992
   15.02194405  127.61000061    4.90999985    2.57999992
   15.02333355  125.53299713    4.90999985    2.57999992
   15.02638817  127.93199921    4.90999985    2.57999992
   15.02972221  128.33000183    4.90999985    2.59999990
   15.03305531  128.46400452    4.90999985    2.57999992
   15.03611183  130.87600708    4.90999985    2.57999992
   15.03944492  128.21899414    4.90999985    2.57999992
   15.04250050  127.79900360    4.90999985    2.55999994
   15.04583359  124.06400299    4.90999985    2.57999992
   15.04916668  125.58399963    4.90999985    2.57999992
   15.05500031  125.58399963    4.90999985    2.55999994
   15.05916691  128.39700317    4.90999985    2.57999992
   15.06250000  127.25599670    4.90999985    2.57999992
   15.06555557  130.11000061    4.90999985    2.59999990
   15.06888866  133.15100098    4.90999985    2.57999992
   15.07194424  125.65499878    4.90999985    2.57999992
   15.07527733  120.23699951    4.90999985    2.57999992
   15.07861137  129.70100403    4.90999985    2.57999992
   15.08166695  123.68299866    4.90999985    2.57999992
   15.08500004  128.07600403    4.90999985    2.59999990
   15.08833313  130.48800659    4.90999985    2.57999992
   15.09000015  127.50700378    4.90999985    2.57999992
   15.09194374  129.14500427    4.90999985    2.57999992
   15.09777737  129.14500427    4.90999985    2.57999992
   15.10194492  124.78900146    4.90999985    2.57999992
   15.10527802  121.26000214    4.90999985    2.59999990
   15.10861111  121.98699951    4.90999985    2.57999992
   15.11166668  130.47200012    4.90999985    2.57999992
   15.11500072  124.28299713    4.90999985    2.57999992
   15.11805534  110.02600098    4.90999985    2.57999992
   15.12138939  120.62500000    4.90999985    2.57999992
   15.12333393  123.99600220    4.90999985    2.57999992
   15.12500000  123.52200317    4.90999985    2.57999992
   15.22222137   -1.00000000   -1.00000000   -1.00000000
   15.44694424   -1.00000000   -1.00000000   -1.00000000
   15.66194439   -1.00000000   -1.00000000   -1.00000000
   15.95333290   83.93699646    4.90999985    2.59999990
   15.95666695  117.96600342    4.90999985    2.61999989
   15.96000004  119.59799957    4.90999985    2.61999989
   15.96305561  131.86900330    4.90999985    2.61999989
   15.96638870  124.29699707    4.90999985    2.59999990
   15.96972179  121.69300079    4.90999985    2.61999989
   15.97361088  121.69300079    4.90999985    2.59999990
   15.97777748  122.96499634    4.90999985    2.61999989
   15.98111057  128.45700073    4.90999985    2.59999990
   15.98416710  131.71499634    4.90999985    2.61999989
   15.98666668  128.39199829    4.90999985    2.61999989
   15.98777771  127.36299896    4.90999985    2.61999989
   15.99111176  122.23000336    4.90999985    2.59999990
   15.99416733  127.51100159    4.90999985    2.59999990
   15.99750042  130.30799866    4.90999985    2.59999990
   16.00055504  127.69400024    4.90999985    2.59999990
   16.00388908  128.97200012    4.90999985    2.59999990
   16.00722313  133.80900574    4.90999985    2.61999989
   16.01027870  120.10399628    4.90999985    2.61999989
   16.01638794  120.10399628    4.90999985    2.59999990
   16.02055550  123.66300201    4.90999985    2.61999989
   16.02388954  123.63700104    4.90999985    2.59999990
   16.02722168  122.73300171    4.90999985    2.59999990
   16.03027725  125.97200012    4.90999985    2.57999992
   16.03361130  116.26999664    4.90999985    2.59999990
   16.03666687  120.57099915    4.90999985    2.59999990
   16.03999901  124.23500061    4.90999985    2.61999989
   16.04333305  120.86399841    4.90999985    2.61999989
   16.04638863  125.25800323    4.90999985    2.61999989
   16.04972076  126.53700256    4.90999985    2.61999989
   16.05305481  124.54799652    4.90999985    2.61999989
   16.05333328  128.67700195    4.90999985    2.61999989
   16.05944443  128.67700195    4.90999985    2.59999990
   16.06361008  125.17600250    4.90999985    2.61999989
   16.06666756  126.93000031    4.90999985    2.61999989
   16.07000160  127.36799622    4.90999985    2.59999990
   16.07333374  123.02600098    4.90999985    2.59999990
   16.07638931  120.77799988    4.90999985    2.59999990
   16.07972336  124.62699890    4.90999985    2.59999990
   16.08277893  130.00100708    4.90999985    2.59999990
   16.08611107  120.53399658    4.90999985    2.61999989
   16.08666801  121.43499756    4.90999985    2.61999989
   16.08972359  121.34899902    4.90999985    2.61999989
   16.09305573  124.41300201    4.90999985    2.61999989
   16.09611130  128.58200073    4.90999985    2.61999989
   16.10222244  128.58200073    4.90999985    2.61999989
   16.10639000  129.30299377    4.90999985    2.59999990
   16.10972214  116.86000061    4.90999985    2.61999989
   16.11277771  129.42300415    4.90999985    2.61999989
   16.11611176  122.92099762    4.90999985    2.61999989
   16.11916733  123.92500305    4.90999985    2.61999989
   16.12000084  124.30799866    4.90999985    2.61999989
   16.12277794  133.14900208    4.90999985    2.61999989
   16.12611198  125.65599823    4.90999985    2.61999989
   16.12916756  123.36799622    4.90999985    2.61999989
   16.13249969  124.69300079    4.90999985    2.61999989
   16.13583374  126.90699768    4.90999985    2.64000010
   16.13888931  127.36900330    4.90999985    2.61999989
   16.14500046  127.36900330    4.90999985    2.59999990
   16.14916611  126.62899780    4.90999985    2.61999989
   16.15250015  127.88200378    4.90999985    2.61999989
   16.15333366  118.63099670    4.90999985    2.61999989
   16.15611076  118.54399872    4.90999985    2.61999989
   16.15944481  121.16699982    4.90999985    2.61999989
   16.16250038  122.34899902    4.90999985    2.61999989
   16.16583252  125.02100372    4.90999985    2.61999989
   16.16916656  125.64700317    4.90999985    2.61999989
   16.17222214  131.22399902    4.90999985    2.64000010
   16.17555428  125.48899841    4.90999985    2.64000010
   16.17860985  130.02900696    4.90999985    2.61999989
   16.18194389  127.23200226    4.90999985    2.61999989
   16.18777657  127.23200226    4.90999985    2.61999989
   16.19194412  121.57800293    4.90999985    2.61999989
   16.19527626  132.74800110    4.90999985    2.61999989
   16.19861031  122.02899933    4.90999985    2.61999989
   16.20166779  121.34400177    4.90999985    2.61999989
   16.20499992  127.32800293    4.90999985    2.64000010
   16.20805550  119.28299713    4.90999985    2.64000010
   16.21138954  118.35399628    4.90999985    2.61999989
   16.21472359  119.70899963    4.90999985    2.61999989
   16.21777916  122.54799652    4.90999985    2.61999989
   16.22000122  124.54599762    4.90999985    2.61999989
   16.22138977  121.50800323    4.90999985    2.61999989
   16.22472191  127.35600281    4.90999985    2.61999989
   16.23083305  127.35600281    4.90999985    2.61999989
   16.23472214  129.27299500    4.90999985    2.61999989
   16.23805618  127.28099823    4.90999985    2.64000010
   16.24138832  123.73000336    4.90999985    2.64000010
   16.24444389  120.70800018    4.90999985    2.64000010
   16.24777794  124.62599945    4.90999985    2.61999989
   16.25111198  127.28700256    4.90999985    2.64000010
   16.25333405  124.48799896    4.90999985    2.59999990
   16.25472260  124.96700287    4.90999985    2.61999989
   16.25805473  120.48699951    4.90999985    2.61999989
   16.26111031  118.79299927    4.90999985    2.61999989
   16.26444435  117.05599976    4.90999985    2.61999989
   16.26749992  128.01300049    4.90999985    2.64000010
   16.27361107  128.01300049    4.90999985    2.64000010
   16.27777672  129.27400208    4.90999985    2.61999989
   16.28083229  128.87100220    4.90999985    2.64000010
   16.28416634  124.45400238    4.90999985    2.61999989
   16.28666687  121.20800018    4.90999985    2.61999989
   16.28777695  120.38400269    4.90999985    2.64000010
   16.29111099  122.49500275    4.90999985    2.61999989
   16.29416656  126.63099670    4.90999985    2.61999989
   16.29749870  127.75099945    4.90999985    2.64000010
   16.30055428  118.33100128    4.90999985    2.61999989
   16.30388832  129.38099670    4.90999985    2.64000010
   16.30722237  130.62399292    4.90999985    2.64000010
   16.31027794  134.36700439    4.90999985    2.64000010
   16.31638718  134.36700439    4.90999985    2.64000010
   16.32055664  127.81400299    4.90999985    2.61999989
   16.32389069  119.82299805    4.90999985    2.61999989
   16.32694626  125.38099670    4.90999985    2.61999989
   16.33027840  123.35900116    4.90999985    2.61999989
   16.33361244  119.64800262    4.90999985    2.61999989
   16.33666801  125.34500122    4.90999985    2.64000010
   16.34000015  126.00900269    4.90999985    2.64000010
   16.34305573  129.34300232    4.90999985    2.64000010
   16.34638977  124.71499634    4.90999985    2.64000010
   16.34972191  120.29199982    4.90999985    2.64000010
   16.35277748  130.83700562    4.90999985    2.61999989
   16.35333443  126.16999817    4.90999985    2.64000010
   16.35916710  126.16999817    4.90999985    2.61999989
   16.36333466  128.28199768    4.90999985    2.64000010
   16.36666679  126.65699768    4.90999985    2.64000010
   16.37000084  123.22799683    4.90999985    2.64000010
   16.37305641  116.22899628    4.90999985    2.61999989
   16.37638855  126.94100189    4.90999985    2.64000010
   16.37944412  120.04599762    4.90999985    2.64000010
   16.38277817  124.08200073    4.90999985    2.64000010
   16.38611031  111.51999664    4.90999985    2.61999989
   16.38666725  129.42100525    4.90999985    2.64000010
   16.38944435  127.84500122    4.90999985    2.64000010
   16.39277840  121.89800262    4.90999985    2.64000010
   16.39583397  122.25099945    4.90999985    2.61999989
   16.40222168  122.25099945    4.90999985    2.64000010
   16.40611076  118.47200012    4.90999985    2.64000010
   16.40944481  123.55400085    4.90999985    2.61999989
   16.41277695  125.94400024    4.90999985    2.64000010
   16.41583252  125.71900177    4.90999985    2.64000010
   16.41916656  123.06500244    4.90999985    2.61999989
   16.42000008  120.24400330    4.90999985    2.64000010
   16.42277718  127.28399658    4.90999985    2.64000010
   16.42611122  125.15100098    4.90999985    2.61999989
   16.42916679  127.51000214    4.90999985    2.64000010
   16.43249893  121.11199951    4.90999985    2.61999989
   16.43583298  119.92700195    4.90999985    2.64000010
   16.43888855  113.07700348    4.90999985    2.64000010
   16.44499969  113.07700348    4.90999985    2.61999989
   16.44916534  126.18499756    4.90999985    2.64000010
   16.45222282  117.92900085    4.90999985    2.64000010
   16.45333481  116.87899780    4.90999985    2.64000010
   16.45583344  121.72599792    4.90999985    2.61999989
   16.45916748  114.64800262    4.90999985    2.64000010
   16.46222305  116.75099945    4.90999985    2.61999989
   16.46555710  119.80300140    4.90999985    2.64000010
   16.46888924  120.75299835    4.90999985    2.61999989
   16.47194481  122.25099945    4.90999985    2.64000010
   16.47527885  123.57399750    4.90999985    2.64000010
   16.47833443  124.29000092    4.90999985    2.64000010
   16.48166656  126.97699738    4.90999985    2.64000010
   16.48777771  126.97699738    4.90999985    2.64000010
   16.49194527  126.74099731    4.90999985    2.64000010
   16.49527740  124.33899689    4.90999985    2.64000010
   16.49833298  119.33100128    4.90999985    2.64000010
   16.50166702  127.30300140    4.90999985    2.64000010
   16.50472260  119.46199799    4.90999985    2.64000010
   16.50805473  120.80899811    4.90999985    2.64000010
   16.51138878  123.79900360    4.90999985    2.61999989
   16.51444435  124.28299713    4.90999985    2.61999989
   16.51777840  125.99600220    4.90999985    2.64000010
   16.52000046  125.64800262    4.90999985    2.61999989
   16.52138901  124.38500214    4.90999985    2.61999989
   16.52472115  124.41600037    4.90999985    2.61999989
   16.53055573  124.41600037    4.90999985    2.61999989
   16.53472137  115.35500336    4.90999985    2.61999989
   16.53805542  113.40699768    4.90999985    2.64000010
   16.54111099  120.77100372    4.90999985    2.64000010
   16.54444313  121.72899628    4.90999985    2.64000010
   16.54777718  123.53399658    4.90999985    2.64000010
   16.55083275  121.38700104    4.90999985    2.61999989
   16.55333328  121.52100372    4.90999985    2.61999989
   16.55444336  117.47499847    4.90999985    2.64000010
   16.55777740  123.18900299    4.90999985    2.64000010
   16.56083298  122.80899811    4.90999985    2.61999989
   16.56416512  120.07800293    4.90999985    2.64000010
   16.56750107  120.86699677    4.90999985    2.61999989
   16.57361221  120.86699677    4.90999985    2.64000010
   16.57777786  119.20800018    4.90999985    2.64000010
   16.58083344  123.77300262    4.90999985    2.64000010
   16.58416748  121.86799622    4.90999985    2.64000010
   16.58694458  124.76999664    4.90999985    2.64000010
   16.58777809  121.72799683    4.90999985    2.61999989
   16.59111214  125.53900146    4.90999985    2.61999989
   16.59416771  127.55500031    4.90999985    2.61999989
   16.59749985  125.66400146    4.90999985    2.61999989
   16.60083389  123.91899872    4.90999985    2.61999989
   16.60388947  124.22299957    4.90999985    2.64000010
   16.60722351  123.53900146    4.90999985    2.64000010
   16.61055565  123.87999725    4.90999985    2.64000010
   16.61638832  123.87999725    4.90999985    2.64000010
   16.62055588  121.22200012    4.90999985    2.64000010
   16.62361145  130.75300598    4.90999985    2.61999989
   16.62694550  129.05299377    4.90999985    2.61999989
   16.63027763  123.63800049    4.90999985    2.64000010
   16.63333321  125.81400299    4.90999985    2.61999989
   16.63666725  122.21399689    4.90999985    2.64000010
   16.63999939  120.35500336    4.90999985    2.64000010
   16.64305496  123.68800354    4.90999985    2.61999989
   16.64638901  127.27100372    4.90999985    2.61999989
   16.64972115  127.19100189    4.90999985    2.61999989
   16.65277672  124.52799988    4.90999985    2.61999989
   16.65361023  125.24600220    4.90999985    2.61999989
   16.65916634  125.24600220    4.90999985    2.61999989
   16.66333389  125.76699829    4.90999985    2.61999989
   16.66666603  126.67700195    4.90999985    2.61999989
   16.66972160  124.71600342    4.90999985    2.61999989
   16.67305565  132.92700195    4.90999985    2.61999989
   16.67611122  127.96800232    4.90999985    2.61999989
   16.67944336  125.71600342    4.90999985    2.61999989
   16.68277740  127.71399689    4.90999985    2.61999989
   16.68583298  126.79699707    4.90999985    2.61999989
   16.68694305  127.66699982    4.90999985    2.61999989
   16.68944359  127.10399628    4.90999985    2.61999989
   16.69277763  127.51399994    4.90999985    2.61999989
   16.69583321  129.94799805    4.90999985    2.59999990
   16.70194435  129.94799805    4.90999985    2.59999990
   16.70611191  124.36799622    4.90999985    2.61999989
   16.70944595  127.99099731    4.90999985    2.61999989
   16.71250153  126.70099640    4.90999985    2.61999989
   16.71583366  121.34999847    4.90999985    2.59999990
   16.71916771  123.27300262    4.90999985    2.61999989
   16.72027779  128.26499939    4.90999985    2.61999989
   16.72249985  119.27300262    4.90999985    2.59999990
   16.72583389  122.99900055    4.90999985    2.61999989
   16.72888947  123.91799927    4.90999985    2.61999989
   16.73222351  119.18599701    4.90999985    2.59999990
   16.73555565  120.92099762    4.90999985    2.59999990
   16.73861122  117.70400238    4.90999985    2.61999989
   16.74500084  117.70400238    4.90999985    2.61999989
   16.74888992  122.39700317    4.90999985    2.61999989
   16.75222206  122.66899872    4.90999985    2.59999990
   16.75361061  123.58300018    4.90999985    2.59999990
   16.75583267  121.89499664    4.90999985    2.61999989
   16.75916672  113.57800293    4.90999985    2.61999989
   16.76222229  117.51200104    4.90999985    2.61999989
   16.76555634  112.47599792    4.90999985    2.61999989
   16.76888847  117.37400055    4.90999985    2.61999989
   16.77194405  122.79100037    4.90999985    2.61999989
   16.77527809  125.08100128    4.90999985    2.64000010
   16.77861023  119.84200287    4.90999985    2.64000010
   16.78166580  128.38800049    4.90999985    2.61999989
   16.78777695  128.38800049    4.90999985    2.61999989
   16.79194450  120.26899719    4.90999985    2.64000010
   16.79500008  127.94200134    4.90999985    2.61999989
   16.79833221  122.70600128    4.90999985    2.61999989
   16.80166626  124.10900116    4.90999985    2.61999989
   16.80472183  126.01200104    4.90999985    2.61999989
   16.80805397  118.90699768    4.90999985    2.61999989
   16.81138802  125.12100220    4.90999985    2.64000010
   16.81444359  120.52999878    4.90999985    2.61999989
   16.81777954  128.31399536    4.90999985    2.61999989
   16.82027817  124.86199951    4.90999985    2.61999989
   16.82139015  119.47699738    4.90999985    2.61999989
   16.82472229  120.21600342    4.90999985    2.61999989
   16.83055687  120.21600342    4.90999985    2.61999989
   16.83472252  126.99800110    4.90999985    2.61999989
   16.83805656  123.56999969    4.90999985    2.61999989
   16.84111214  119.62100220    4.90999985    2.64000010
   16.84444427  127.72299957    4.90999985    2.61999989
   16.84749985  123.94100189    4.90999985    2.61999989
   16.85083389  124.33599854    4.90999985    2.61999989
   16.85361099  123.12899780    4.90999985    2.61999989
   16.85444450  125.46399689    4.90999985    2.61999989
   16.85777855  127.14299774    4.90999985    2.61999989
   16.86083412  124.16300201    4.90999985    2.61999989
   16.86416626  129.80700684    4.90999985    2.61999989
   16.86750031  124.05200195    4.90999985    2.61999989
   16.87333298  124.05200195    4.90999985    2.61999989
   16.87750053  121.58300018    4.90999985    2.61999989
   16.88083267  121.52600098    4.90999985    2.61999989
   16.88388824  120.81300354    4.90999985    2.61999989
   16.88694382  119.81900024    4.90999985    2.61999989
   16.88750076  117.10900116    4.90999985    2.61999989
   16.89083290  120.01499939    4.90999985    2.61999989
   16.89388847  115.29299927    4.90999985    2.64000010
   16.89722252  112.55300140    4.90999985    2.64000010
   16.90055466  128.70899963    4.90999985    2.61999989
   16.90361023  129.81399536    4.90999985    2.61999989
   16.90694427  121.65000153    4.90999985    2.61999989
   16.91027832  124.64900208    4.90999985    2.64000010
   16.91638756  124.64900208    4.90999985    2.64000010
   16.92027664  127.48100281    4.90999985    2.61999989
   16.92361069  125.41699982    4.90999985    2.61999989
   16.92694473  123.65200043    4.90999985    2.61999989
   16.93000031  123.68000031    4.90999985    2.61999989
   16.93333244  123.94400024    4.90999985    2.61999989
   16.93666649  120.08899689    4.90999985    2.64000010
   16.93972206  119.60900116    4.90999985    2.64000010
   16.94305420  117.92400360    4.90999985    2.64000010
   16.94610977  117.73799896    4.90999985    2.64000010
   16.94944382  116.69799805    4.90999985    2.64000010
   16.95277786  116.44300079    4.90999985    2.61999989
   16.95361137  121.88099670    4.90999985    2.61999989
   16.97416687  121.88099670    4.90999985    2.61999989
   16.97833443  126.36499786    4.90999985    2.61999989
   16.98139000  124.68699646    4.90999985    2.64000010
   16.98472214  121.58100128    4.90999985    2.64000010
   16.98694420  118.47000122    4.90999985    2.64000010
   16.98861122  122.26200104    4.90999985    2.61999989
   16.99166679  123.34400177    4.90999985    2.64000010
   16.99500084  123.96600342    4.90999985    2.61999989
   16.99805641  129.83299255    4.90999985    2.61999989
   17.00138855  123.49500275    4.90999985    2.61999989
   17.00472260  123.13700104    4.90999985    2.61999989
   17.00777817  126.17299652    4.90999985    2.64000010
   17.01111031  121.28900146    4.90999985    2.64000010
   17.01694489  121.28900146    4.90999985    2.64000010
   17.02111053  122.02200317    4.90999985    2.64000010
   17.02416611  124.68699646    4.90999985    2.64000010
   17.02750015  123.54100037    4.90999985    2.61999989
   17.03083229  123.58799744    4.90999985    2.64000010
   17.03388786  126.87899780    4.90999985    2.61999989
   17.03722191  126.26899719    4.90999985    2.64000010
   17.04055595  123.14199829    4.90999985    2.64000010
   17.04361153  118.67400360    4.90999985    2.61999989
   17.04694366  125.53500366    4.90999985    2.61999989
   17.04999924  123.76200104    4.90999985    2.61999989
   17.05333328  122.90599823    4.90999985    2.61999989
   17.05388832  118.38800049    4.90999985    2.61999989
   17.05972099  118.38800049    4.90999985    2.64000010
   17.06388855  125.49299622    4.90999985    2.61999989
   17.06722260  120.18299866    4.90999985    2.61999989
   17.07027817  122.87699890    4.90999985    2.64000010
   17.07361221  123.51100159    4.90999985    2.64000010
   17.07666779  119.84200287    4.90999985    2.64000010
   17.08000183  121.51799774    4.90999985    2.64000010
   17.08333397  120.41699982    4.90999985    2.64000010
   17.08638954  124.86599731    4.90999985    2.64000010
   17.08722305  118.45899963    4.90999985    2.64000010
   17.09027863  123.98000336    4.90999985    2.64000010
   17.09333420  123.37799835    4.90999985    2.61999989
   17.09666824  122.88999939    4.90999985    2.61999989
   17.10250092  122.88999939    4.90999985    2.61999989
   17.10666656  126.83999634    4.90999985    2.64000010
   17.11000061  127.65799713    4.90999985    2.61999989
   17.11333466  131.70300293    4.90999985    2.61999989
   17.11638832  123.40799713    4.90999985    2.61999989
   17.11972237  123.43399811    4.90999985    2.64000010
   17.12055588  126.04399872    4.90999985    2.64000010
   17.12333298  129.36199951    4.90999985    2.64000010
   17.12638855  126.27200317    4.90999985    2.61999989
   17.12972260  123.98899841    4.90999985    2.61999989
   17.13277817  125.53099823    4.90999985    2.61999989
   17.13611031  126.08200073    4.90999985    2.61999989
   17.13944435  127.87100220    4.90999985    2.61999989
   17.14555550  127.87100220    4.90999985    2.61999989
   17.14972115  123.73999786    4.90999985    2.61999989
   17.15277672  130.38299561    4.90999985    2.61999989
   17.15388870  130.64700317    4.90999985    2.61999989
   17.15666580  130.33700562    4.90999985    2.61999989
   17.15972137  126.29299927    4.90999985    2.61999989
   17.16305542  129.50399780    4.90999985    2.61999989
   17.16611099  128.15699768    4.90999985    2.61999989
   17.16944313  123.10900116    4.90999985    2.61999989
   17.17277718  124.83899689    4.90999985    2.61999989
   17.17583275  124.60900116    4.90999985    2.61999989
   17.17916679  121.62999725    4.90999985    2.61999989
   17.18222237  119.91500092    4.90999985    2.61999989
   17.18833160  119.91500092    4.90999985    2.61999989
   17.19249916  121.54199982    4.90999985    2.61999989
   17.19555473  127.34700012    4.90999985    2.61999989
   17.19888878  121.01899719    4.90999985    2.61999989
   17.20222282  126.48999786    4.90999985    2.61999989
   17.20527840  124.66600037    4.90999985    2.61999989
   17.20861244  123.37899780    4.90999985    2.61999989
   17.21194458  121.27300262    4.90999985    2.61999989
   17.21500015  125.88600159    4.90999985    2.61999989
   17.21833420  126.68900299    4.90999985    2.61999989
   17.22055626  127.80000305    4.90999985    2.61999989
   17.22194481  125.98400116    4.90999985    2.61999989
   17.22500038  123.46099854    4.90999985    2.61999989
   17.23111153  123.46099854    4.90999985    2.59999990
   17.23527718  129.91299438    4.90999985    2.61999989
   17.23861122  123.41400146    4.90999985    2.61999989
   17.24166679  122.98400116    4.90999985    2.61999989
   17.24500084  128.50399780    4.90999985    2.61999989
   17.24833298  124.83999634    4.90999985    2.61999989
   17.25138855  125.77400208    4.90999985    2.64000010
   17.25388908  125.42700195    4.90999985    2.61999989
   17.25527763  124.69499969    4.90999985    2.64000010
   17.25833321  123.82299805    4.90999985    2.64000010
   17.26166725  129.13200378    4.90999985    2.61999989
   17.26472282  127.68499756    4.90999985    2.61999989
   17.26805496  115.00399780    4.90999985    2.61999989
   17.27388954  115.00399780    4.90999985    2.61999989
   17.27805519  125.26999664    4.90999985    2.61999989
   17.28138924  125.74500275    4.90999985    2.64000010
   17.28472137  123.65599823    4.90999985    2.61999989
   17.28722191  121.91799927    4.90999985    2.61999989
   17.28833199  126.16200256    4.90999985    2.61999989
   17.29138756  127.02300262    4.90999985    2.61999989
   17.29472160  125.18099976    4.90999985    2.61999989
   17.29777718  131.87899780    4.90999985    2.61999989
   17.30111122  125.80300140    4.90999985    2.61999989
   17.30444336  124.72000122    4.90999985    2.61999989
   17.30749893  122.48799896    4.90999985    2.61999989
   17.31083298  126.87100220    4.90999985    2.61999989
   17.31694603  126.87100220    4.90999985    2.61999989
   17.32111168  125.47799683    4.90999985    2.61999989
   17.32416725  122.13500214    4.90999985    2.61999989
   17.32750130  127.61100006    4.90999985    2.61999989
   17.33055687  127.71399689    4.90999985    2.61999989
   17.33388901  125.16999817    4.90999985    2.61999989
   17.33722305  122.12300110    4.90999985    2.61999989
   17.34027863  127.16400146    4.90999985    2.64000010
   17.34361267  124.32599640    4.90999985    2.61999989
   17.34694481  122.42400360    4.90999985    2.61999989
   17.35000038  124.30999756    4.90999985    2.64000010
   17.35333443  119.74099731    4.90999985    2.61999989
   17.35388947  122.79900360    4.90999985    2.61999989
   17.35972214  122.79900360    4.90999985    2.61999989
   17.36388969  119.58000183    4.90999985    2.64000010
   17.36694527  115.62799835    4.90999985    2.61999989
   17.37027740  121.45300293    4.90999985    2.61999989
   17.37361145  119.91300201    4.90999985    2.64000010
   17.37666702  123.36599731    4.90999985    2.64000010
   17.38000107  122.47299957    4.90999985    2.64000010
   17.38333321  128.36399841    4.90999985    2.64000010
   17.38638878  122.74400330    4.90999985    2.61999989
   17.38722229  125.92199707    4.90999985    2.64000010
   17.38999939  122.08000183    4.90999985    2.61999989
   17.39333344  119.19699860    4.90999985    2.61999989
   17.39638901  119.12999725    4.90999985    2.61999989
   17.40250015  119.12999725    4.90999985    2.61999989
   17.40666580  128.07000732    4.90999985    2.61999989
   17.40999985  122.09899902    4.90999985    2.61999989
   17.41305542  120.81800079    4.90999985    2.64000010
   17.41638756  121.65799713    4.90999985    2.61999989
   17.41972160  119.81199646    4.90999985    2.64000010
   17.42055511  122.27600098    4.90999985    2.64000010
   17.42333221  121.68499756    4.90999985    2.64000010
   17.42638779  123.25000000    4.90999985    2.61999989
   17.42972183  130.15499878    4.90999985    2.61999989
   17.43305397  126.19200134    4.90999985    2.61999989
   17.43610954  124.17700195    4.90999985    2.61999989
   17.43944359  128.22000122    4.90999985    2.61999989
   17.44527626  128.22000122    4.90999985    2.61999989
   17.44944382  125.98100281    4.90999985    2.61999989
   17.45305634  126.29900360    4.90999985    2.61999989
   17.45388985  123.57299805    4.90999985    2.61999989
   17.45694542  125.67600250    4.90999985    2.61999989
   17.46000099  119.49800110    4.90999985    2.61999989
   17.46333504  123.52700043    4.90999985    2.61999989
   17.46666718  122.58100128    4.90999985    2.61999989
   17.46972275  125.82499695    4.90999985    2.61999989
   17.47305679  121.14399719    4.90999985    2.61999989
   17.47611237  121.32099915    4.90999985    2.61999989
   17.47944450  123.34799957    4.90999985    2.61999989
   17.48277855  116.62100220    4.90999985    2.64000010
   17.48833275  116.62100220    4.90999985    2.64000010
   17.49250031  123.11499786    4.90999985    2.61999989
   17.49555588  124.22499847    4.90999985    2.61999989
   17.49888992  117.82199860    4.90999985    2.61999989
   17.50194359  125.32399750    4.90999985    2.61999989
   17.50527763  123.85299683    4.90999985    2.61999989
   17.50861168  122.22699738    4.90999985    2.61999989
   17.51166725  125.77799988    4.90999985    2.57999992
   17.51499939  132.11900330    4.90999985    2.59999990
   17.51833344  122.52300262    4.90999985    2.59999990
   17.52055550  127.32599640    4.90999985    2.57999992
   17.52194405  129.04899597    4.90999985    2.59999990
   17.52499962  127.80599976    4.90999985    2.57999992
   17.53111076  127.80599976    4.90999985    2.46000004
   17.53527641  146.07899475    4.90999985    2.40000010
   17.53833199  160.28300476    4.90999985    2.34999990
   17.54166603  151.53300476    4.90999985    2.36999989
   17.54500008  147.61399841    4.90999985    2.32999992
   17.54805565  144.32000732    4.90999985    2.44000006
   17.55138779  130.50799561    4.90999985    2.51999998
   17.55388832  131.00799561    4.90999985    2.57999992
   17.55499840  129.72900391    4.90999985    2.59999990
   17.55805397  122.83999634    4.90999985    2.61999989
   17.56138802  128.14599609    4.90999985    2.61999989
   17.56472206  123.47399902    4.90999985    2.61999989
   17.56777954  127.11399841    4.90999985    2.61999989
   17.57389069  127.11399841    4.90999985    2.61999989
   17.57805634  127.12100220    4.90999985    2.61999989
   17.58139038  122.77100372    4.90999985    2.61999989
   17.58444595  129.66099548    4.90999985    2.64000010
   17.58722305  125.44200134    4.90999985    2.61999989
   17.58833313  125.81700134    4.90999985    2.61999989
   17.59250069  127.16000366    4.90999985    2.61999989
   17.59583473  131.15800476    4.90999985    2.61999989
   17.59889030  124.66400146    4.90999985    2.61999989
   17.60222244  121.87000275    4.90999985    2.61999989
   17.60527802  126.09799957    4.90999985    2.61999989
   17.60861206  128.69099426    4.90999985    2.61999989
   17.61194420  126.48799896    4.90999985    2.61999989
   17.61666679  126.48799896    4.90999985    2.61999989
   17.62083435  124.07900238    4.90999985    2.61999989
   17.62416649  116.66799927    4.90999985    2.61999989
   17.62750053  123.11900330    4.90999985    2.61999989
   17.63055611  119.60900116    4.90999985    2.61999989
   17.63388824  123.11900330    4.90999985    2.61999989
   17.63694382  120.46099854    4.90999985    2.61999989
   17.64027786  116.55200195    4.90999985    2.61999989
   17.64361191  121.96600342    4.90999985    2.61999989
   17.64666748  119.48600006    4.90999985    2.61999989
   17.64999962  128.82299805    4.90999985    2.61999989
   17.65333366  118.56700134    4.90999985    2.61999989
   17.65388870  127.25199890    4.90999985    2.61999989
   17.65972137  127.25199890    4.90999985    2.61999989
   17.66416550  120.13999939    4.90999985    2.61999989
   17.66722107  126.93399811    4.90999985    2.61999989
   17.67055511  119.63700104    4.90999985    2.61999989
   17.67388916  128.73899841    4.90999985    2.61999989
   17.67694473  124.88700104    4.90999985    2.61999989
   17.68027687  126.66100311    4.90999985    2.61999989
   17.68361092  114.68699646    4.90999985    2.61999989
   17.68666649  126.03800201    4.90999985    2.64000010
   17.68722153  126.24600220    4.90999985    2.64000010
   17.69027710  124.74600220    4.90999985    2.61999989
   17.69333267  120.38099670    4.90999985    2.61999989
   17.69666672  121.82499695    4.90999985    2.61999989
   17.70250130  121.82499695    4.90999985    2.61999989
   17.70666695  122.61499786    4.90999985    2.61999989
   17.70972252  125.15000153    4.90999985    2.61999989
   17.71305656  123.21199799    4.90999985    2.61999989
   17.71638870  122.07299805    4.90999985    2.61999989
   17.71944427  118.39199829    4.90999985    2.64000010
   17.72055626  124.92400360    4.90999985    2.64000010
   17.72305679  125.51100159    4.90999985    2.64000010
   17.72611237  126.23699951    4.90999985    2.61999989
   17.72944450  125.32800293    4.90999985    2.61999989
   17.73277855  124.74299622    4.90999985    2.61999989
   17.73583412  130.50500488    4.90999985    2.61999989
   17.73916626  119.84600067    4.90999985    2.61999989
   17.74527740  119.84600067    4.90999985    2.61999989
   17.74944496  120.52999878    4.90999985    2.61999989
   17.75277710  123.66699982    4.90999985    2.64000010
   17.75388908  118.11699677    4.90999985    2.61999989
   17.75638962  126.31900024    4.90999985    2.61999989
   17.75944519  116.66300201    4.90999985    2.64000010
   17.76277733  114.79900360    4.90999985    2.61999989
   17.76611137  121.23999786    4.90999985    2.61999989
   17.76916695  121.65000153    4.90999985    2.61999989
   17.77249908  128.57499695    4.90999985    2.61999989
   17.77583313  120.09899902    4.90999985    2.61999989
   17.77888870  123.84200287    4.90999985    2.61999989
   17.78222275  114.96900177    4.90999985    2.61999989
   17.78805542  114.96900177    4.90999985    2.61999989
   17.79222107  123.55699921    4.90999985    2.61999989
   17.79555511  125.65100098    4.90999985    2.61999989
   17.79888916  128.33399963    4.90999985    2.61999989
   17.80194283  127.27700043    4.90999985    2.61999989
   17.80527687  122.13600159    4.90999985    2.61999989
   17.80833244  118.20700073    4.90999985    2.61999989
   17.81166649  130.23699951    4.90999985    2.61999989
   17.81499863  124.87100220    4.90999985    2.61999989
   17.81805611  124.86100006    4.90999985    2.61999989
   17.82055664  126.42700195    4.90999985    2.61999989
   17.82166672  124.81500244    4.90999985    2.61999989
   17.82472229  115.51799774    4.90999985    2.61999989
   17.83111191  115.51799774    4.90999985    2.61999989
   17.83527756  123.58999634    4.90999985    2.61999989
   17.83833313  127.38500214    4.90999985    2.61999989
   17.84166718  127.84300232    4.90999985    2.61999989
   17.84472275  123.31800079    4.90999985    2.61999989
   17.84805679  125.50499725    4.90999985    2.61999989
   17.85138893  127.59799957    4.90999985    2.61999989
   17.85388947  126.65799713    4.90999985    2.61999989
   17.85499954  118.86499786    4.90999985    2.64000010
   17.85805511  116.23400116    4.90999985    2.61999989
   17.86138916  116.79799652    4.90999985    2.61999989
   17.86472321  125.70400238    4.90999985    2.61999989
   17.86777878  128.46800232    4.90999985    2.61999989
   17.87388992  128.46800232    4.90999985    2.61999989
   17.87805557  126.04199982    4.90999985    2.61999989
   17.88111115  126.25599670    4.90999985    2.61999989
   17.88444519  124.96900177    4.90999985    2.61999989
   17.88722229  123.88700104    4.90999985    2.61999989
   17.88805580  125.64900208    4.90999985    2.61999989
   17.89111137  132.84599304    4.90999985    2.61999989
   17.89444351  123.98000336    4.90999985    2.61999989
   17.89777756  123.02200317    4.90999985    2.61999989
   17.90083313  126.48500061    4.90999985    2.61999989
   17.90416718  125.92299652    4.90999985    2.61999989
   17.90749931  127.42299652    4.90999985    2.61999989
   17.91055489  124.57399750    4.90999985    2.61999989
   17.91666603  124.57399750    4.90999985    2.61999989
   17.92083359  125.54100037    4.90999985    2.61999989
   17.92416573  127.69899750    4.90999985    2.61999989
   17.92722130  126.60600281    4.90999985    2.61999989
   17.93055534  128.04699707    4.90999985    2.61999989
   17.93388748  125.90699768    4.90999985    2.61999989
   17.93694305  127.80300140    4.90999985    2.61999989
   17.94027710  122.29100037    4.90999985    2.61999989
   17.94333267  121.40899658    4.90999985    2.61999989
   17.94666672  125.25299835    4.90999985    2.61999989
   17.95000076  125.82199860    4.90999985    2.61999989
   17.95305634  124.12899780    4.90999985    2.61999989
   17.95388985  125.26799774    4.90999985    2.61999989
   17.95944595  125.26799774    4.90999985    2.61999989
   17.96361160  116.71099854    4.90999985    2.61999989
   17.96694565  122.82399750    4.90999985    2.61999989
   17.97027779  122.15799713    4.90999985    2.61999989
   17.98777771  125.83799744    4.90999985    2.59999990
   17.98999977  129.24600220    4.90999985    2.61999989
   17.99333382  133.85400391    4.90999985    2.61999989
   17.99638939  129.83099365    4.90999985    2.61999989
   18.00250053  129.83099365    4.90999985    2.61999989
   18.00666618  127.55999756    4.90999985    2.61999989
   18.01000023  129.01499939    4.90999985    2.61999989
   18.01305580  122.55300140    4.90999985    2.59999990
   18.01638794  127.36499786    4.90999985    2.61999989
   18.01972198  120.08899689    4.90999985    2.61999989
   18.02111053  129.97900391    4.90999985    2.61999989
   18.02333260  128.59500122    4.90999985    2.61999989
   18.02666664  125.70099640    4.90999985    2.61999989
   18.02972221  124.15599823    4.90999985    2.61999989
   18.03305435  123.55799866    4.90999985    2.61999989
   18.03638840  133.93400574    4.90999985    2.61999989
   18.03944397  125.38899994    4.90999985    2.61999989
   18.04555511  125.38899994    4.90999985    2.61999989
   18.04944420  119.62599945    4.90999985    2.59999990
   18.05277634  123.97399902    4.90999985    2.59999990
   18.05444336  124.25499725    4.90999985    2.61999989
   18.05638885  125.45099640    4.90999985    2.61999989
   18.05972099  130.80000305    4.90999985    2.61999989
   18.06277657  121.47899628    4.90999985    2.61999989
   18.06611061  122.95700073    4.90999985    2.61999989
   18.06944466  122.38800049    4.90999985    2.59999990
   18.07250023  122.76399994    4.90999985    2.61999989
   18.07583427  122.24800110    4.90999985    2.59999990
   18.07916832  126.24600220    4.90999985    2.61999989
   18.08222389  120.48000336    4.90999985    2.61999989
   18.08833313  120.48000336    4.90999985    2.61999989
   18.09250069  125.12100220    4.90999985    2.61999989
   18.09555626  120.38600159    4.90999985    2.61999989
   18.09889030  115.08699799    4.90999985    2.61999989
   18.10194397  122.57299805    4.90999985    2.59999990
   18.10527802  119.80599976    4.90999985    2.59999990
   18.10861206  122.37300110    4.90999985    2.61999989
   18.11166763  127.90499878    4.90999985    2.59999990
   18.11499977  124.49099731    4.90999985    2.61999989
   18.11833382  120.16699982    4.90999985    2.61999989
   18.12111092  122.14800262    4.90999985    2.61999989
   18.12166595  123.72100067    4.90999985    2.59999990
   18.12500000  119.09300232    4.90999985    2.61999989
   18.13111115  119.09300232    4.90999985    2.61999989
   18.13527679  127.08100128    4.90999985    2.59999990
   18.13833237  130.39799500    4.90999985    2.61999989
   18.14166641  129.46400452    4.90999985    2.59999990
   18.14500046  123.80899811    4.90999985    2.59999990
   18.14805603  120.41600037    4.90999985    2.59999990
   18.15138817  128.58500671    4.90999985    2.59999990
   18.15444374  124.45200348    4.90999985    2.61999989
   18.15499878  126.06300354    4.90999985    2.61999989
   18.15833282  133.27799988    4.90999985    2.61999989
   18.16138840  122.35199738    4.90999985    2.59999990
   18.16472244  120.57299805    4.90999985    2.59999990
   18.16805458  125.00700378    4.90999985    2.59999990
   18.17388916  125.00700378    4.90999985    2.59999990
   18.17805481  125.69899750    4.90999985    2.59999990
   18.18138885  122.27600098    4.90999985    2.59999990
   18.18444443  130.15400696    4.90999985    2.61999989
   18.18777657  123.94400024    4.90999985    2.59999990
   18.18805504  123.17900085    4.90999985    2.61999989
   18.19138718  120.30200195    4.90999985    2.61999989
   18.19472122  121.16100311    4.90999985    2.61999989
   18.19777679  125.47200012    4.90999985    2.59999990
   18.20111275  120.91500092    4.90999985    2.59999990
   18.20444489  118.36199951    4.90999985    2.59999990
   18.20750046  127.39299774    4.90999985    2.61999989
   18.21083450  123.82900238    4.90999985    2.59999990
   18.21666718  123.82900238    4.90999985    2.59999990
   18.22083473  122.09500122    4.90999985    2.59999990
   18.22138977  123.64800262    4.90999985    2.59999990
   18.22472191  123.78900146    4.90999985    2.61999989
   18.22777748  120.69200134    4.90999985    2.59999990
   18.23111153  119.19999695    4.90999985    2.59999990
   18.23444557  124.80100250    4.90999985    2.59999990
   18.23750114  130.54400635    4.90999985    2.59999990
   18.24083328  127.47399902    4.90999985    2.59999990
   18.24388885  131.44500732    4.90999985    2.59999990
   18.24722290  131.45899963    4.90999985    2.59999990
   18.25055504  121.54199982    4.90999985    2.59999990
   18.25361061  120.31199646    4.90999985    2.59999990
   18.25472260  124.45800018    4.90999985    2.61999989
   18.25972176  124.45800018    4.90999985    2.59999990
   18.26388931  123.16899872    4.90999985    2.59999990
   18.26694489  125.46399689    4.90999985    2.59999990
   18.27027702  122.37000275    4.90999985    2.59999990
   18.27333260  120.86699677    4.90999985    2.59999990
   18.27666664  124.51499939    4.90999985    2.59999990
   18.28000069  118.87000275    4.90999985    2.59999990
   18.28305435  120.73699951    4.90999985    2.59999990
   18.28638840  125.43800354    4.90999985    2.59999990
   18.28805542  119.80000305    4.90999985    2.59999990
   18.28999901  120.35700226    4.90999985    2.61999989
   18.29305458  121.78099823    4.90999985    2.59999990
   18.29638863  125.02600098    4.90999985    2.59999990
   18.30249977  125.02600098    4.90999985    2.59999990
   18.30666542  127.08599854    4.90999985    2.59999990
   18.30972099  127.06800079    4.90999985    2.59999990
   18.31305504  126.93299866    4.90999985    2.59999990
   18.31638718  122.32399750    4.90999985    2.59999990
   18.31944466  118.54900360    4.90999985    2.57999992
   18.32139015  121.07900238    4.90999985    2.59999990
   18.32333374  124.62200165    4.90999985    2.59999990
   18.32638931  124.54199982    4.90999985    2.55999994
   18.32972336  123.38200378    4.90999985    2.55999994
   18.33305550  122.72799683    4.90999985    2.55999994
   18.33611107  128.46699524    4.90999985    2.53999996
   18.33944511  131.62300110    4.90999985    2.51999998
   18.34527779  131.62300110    4.90999985    2.46000004
   18.34944534  142.30999756    4.90999985    2.44000006
   18.35277748  133.56799316    4.90999985    2.42000008
   18.35472298  139.03799438    4.90999985    2.44000006
   18.35639000  136.51600647    4.90999985    2.48000002
   18.35944557  130.58099365    4.90999985    2.46000004
   18.36277771  128.94200134    4.90999985    2.48000002
   18.36611176  126.95999908    4.90999985    2.48000002
   18.36916733  136.11500549    4.90999985    2.50000000
   18.37249947  144.77900696    4.90999985    2.44000006
   18.37583351  133.97399902    4.90999985    2.39000010
   18.37888908  138.14999390    4.90999985    2.40000010
   18.38222313  149.69099426    4.90999985    2.42000008
   18.38805580  149.69099426    4.90999985    2.39000010
   18.39222145  151.68400574    4.90999985    2.30999994
   18.39555550  142.30700684    4.90999985    2.40000010
   18.39888954  147.01300049    4.90999985    2.39000010
   18.40194321  147.37600708    4.90999985    2.36999989
   18.40527725  146.77999878    4.90999985    2.36999989
   18.40833282  148.41799927    4.90999985    2.39000010
   18.41166687  153.23800659    4.90999985    2.25000000
   18.41499901  167.81100464    4.90999985    2.28999996
   18.41805458  159.75500488    4.90999985    2.25000000
   18.42138863  144.77600098    4.90999985    2.17000008
   18.42194366  139.64599609    4.90999985    2.17000008
   18.42499924  137.14599609    4.90999985    2.44000006
   18.43111038  137.14599609    4.90999985    2.32999992
   18.43527603  162.18800354    4.90999985    2.39000010
   18.43833160  157.60899353    4.90999985    2.21000004
   18.44166565  149.19599915    4.90999985    2.19000006
   18.44472122  132.68699646    4.90999985    2.26999998
   18.44805527  133.85499573    4.90999985    2.44000006
   18.45138931  125.71600342    4.90999985    2.39000010
   18.45444489  131.59300232    4.90999985    2.53999996
   18.45527840  126.90200043    4.90999985    2.46000004
   18.45805550  123.11799622    4.90999985    2.53999996
   18.46138954  121.54499817    4.90999985    2.59999990
   18.46472359  123.20500183    4.90999985    2.57999992
   18.46777916  121.12599945    4.90999985    2.59999990
   18.47389030  121.12599945    4.90999985    2.59999990
   18.47805595  128.69000244    4.90999985    2.59999990
   18.48111153  138.35600281    4.90999985    2.42000008
   18.48444557  134.04299927    4.90999985    2.53999996
   18.48777771  125.95200348    4.90999985    2.53999996
   18.48861122  128.36599731    4.90999985    2.57999992
   18.49111176  125.37799835    4.90999985    2.55999994
   18.49444389  128.11900330    4.90999985    2.53999996
   18.49777794  136.22599792    4.90999985    2.50000000
   18.50083351  131.17100525    4.90999985    2.46000004
   18.50416756  133.92599487    4.90999985    2.40000010
   18.50722313  137.32800293    4.90999985    2.44000006
   18.51055527  150.83299255    4.90999985    2.40000010
   18.51666641  150.83299255    4.90999985    2.34999990
   18.52083397  209.74800110    4.90999985    2.17000008
   18.52194405  245.73899841    4.90999985    2.19000006
   18.52444458  295.87899780    4.90999985    2.09999990
   18.52777672  288.95800781    4.90999985    2.03999996
   18.53111076  180.72999573    4.90999985    2.01999998
   18.53416634  147.21899414    4.90999985    1.98000002
   18.53750038   -1.00000000    4.90999985    1.86000001
   18.54055595   85.08470154    4.90999985    1.64999998
   18.54388809  144.57000732    4.90999985    1.85000002
   18.54722214  154.75500488    4.90999985    1.91999996
   18.55027771  286.95901489    4.90999985    1.94000006
   18.55360985  168.51400757    4.90999985    2.17000008
   18.55527687  168.77900696    4.90999985    2.17000008
   18.55944443  168.77900696    4.90999985    2.21000004
   18.56361008  252.27299500    4.90999985    2.07999992
   18.56694603  199.85299683    4.90999985    2.09999990
   18.57027817  175.99800110    4.90999985    2.21000004
   18.57333374  147.31599426    4.90999985    2.23000002
   18.57666779  165.76499939    4.90999985    2.30999994
   18.57972336  152.55499268    4.90999985    2.30999994
   18.58305550  162.59199524    4.90999985    2.34999990
   18.58638954  137.60600281    4.90999985    2.40000010
   18.58861160  125.66699982    4.90999985    2.50000000
   18.58972359  128.59199524    4.90999985    2.51999998
   18.59305573  129.22300720    4.90999985    2.55999994
   18.59638977  121.23500061    4.90999985    2.59999990
   18.60250092  121.23500061    4.90999985    2.51999998
   18.60666656  125.67600250    4.90999985    2.57999992
   18.60972214  140.22599792    4.90999985    2.50000000
   18.61305618  147.17199707    4.90999985    2.42000008
   18.61611176  140.51100159    4.90999985    2.48000002
   18.61944389  176.75900269    4.90999985    2.36999989
   18.62194443  145.24499512    4.90999985    2.21000004
   18.62305641  149.46299744    4.90999985    2.32999992
   18.62638855  154.23899841    4.90999985    2.40000010
   18.62972260  134.43099976    4.90999985    2.36999989
   18.63277817  223.30000305    4.90999985    2.32999992
   18.63611031  140.41499329    4.90999985    2.28999996
   18.63916588  201.20799255    4.90999985    2.36999989
   18.64527702  201.20799255    4.90999985    2.21000004
   18.64944458  145.71299744    4.90999985    2.44000006
   18.65250015  154.74099731    4.90999985    2.23000002
   18.65527725  136.64300537    4.90999985    2.36999989
   18.65611076  133.09100342    4.90999985    2.39000010
   18.65944481  130.42199707    4.90999985    2.44000006
   18.66277695  146.19900513    4.90999985    2.34999990
   18.66583252  155.54800415    4.90999985    2.32999992
   18.66916656  148.38699341    4.90999985    2.23000002
   18.67222214  169.21699524    4.90999985    2.30999994
   18.67555428  181.77000427    4.90999985    2.30999994
   18.67888832  144.38000488    4.90999985    2.23000002
   18.68194389  138.12800598    4.90999985    2.50000000
   18.68805504  138.12800598    4.90999985    2.55999994
   18.69222069  137.07200623    4.90999985    2.44000006
   18.69555473  165.72799683    4.90999985    2.28999996
   18.69861031  273.83898926    4.90999985    1.86000001
   18.70194435  253.18200684    4.90999985    2.11999989
   18.70527840  148.44999695    4.90999985    2.19000006
   18.70833397  137.19900513    4.90999985    2.36999989
   18.71166801  160.92700195    4.90999985    2.34999990
   18.71472359  165.43699646    4.90999985    2.39000010
   18.71805573  147.76400757    4.90999985    2.28999996
   18.72138977  130.42799377    4.90999985    2.48000002
   18.72305679  131.04499817    4.90999985    2.48000002
   18.72500038  132.29499817    4.90999985    2.50000000
   18.73083305  132.29499817    4.90999985    2.55999994
   18.73500061  132.78500366    4.90999985    2.55999994
   18.73833275  136.41299438    4.90999985    2.53999996
   18.74166679  126.98200226    4.90999985    2.50000000
   18.74472237  130.47599792    4.90999985    2.50000000
   18.74805641  125.14499664    4.90999985    2.57999992
   18.75111198  124.35299683    4.90999985    2.57999992
   18.75444412  122.73100281    4.90999985    2.59999990
   18.75638962  122.11199951    4.90999985    2.59999990
   18.75805473  127.93000031    4.90999985    2.59999990
   18.76111031  124.15699768    4.90999985    2.59999990
   18.76444435  117.88099670    4.90999985    2.59999990
   18.76777840  122.25599670    4.90999985    2.59999990
   18.77388954  122.25599670    4.90999985    2.59999990
   18.77805519  126.30799866    4.90999985    2.46000004
   18.78111076  122.37300110    4.90999985    2.57999992
   18.78444481  118.70999908    4.90999985    2.59999990
   18.78750038  124.58699799    4.90999985    2.59999990
   18.78999901  122.43900299    4.90999985    2.59999990
   18.79138756  119.60399628    4.90999985    2.59999990
   18.79444313  120.71099854    4.90999985    2.59999990
   18.79777718  119.71600342    4.90999985    2.59999990
   18.80083275  122.16799927    4.90999985    2.57999992
   18.80416679  124.66799927    4.90999985    2.59999990
   18.80749893  126.45300293    4.90999985    2.57999992
   18.81055450  123.92199707    4.90999985    2.57999992
   18.81666756  123.92199707    4.90999985    2.57999992
   18.82083511  125.06099701    4.90999985    2.57999992
   18.82333374  133.70100403    4.90999985    2.57999992
   18.82444572  129.24400330    4.90999985    2.59999990
   18.82750130  126.16799927    4.90999985    2.59999990
   18.83083344  120.60700226    4.90999985    2.59999990
   18.83388901  122.98600006    4.90999985    2.59999990
   18.83722305  122.81199646    4.90999985    2.59999990
   18.84055710  122.05799866    4.90999985    2.59999990
   18.84361267  125.33799744    4.90999985    2.61999989
   18.84694481  124.47100067    4.90999985    2.61999989
   18.85027885  120.66799927    4.90999985    2.57999992
   18.85333443  123.87500000    4.90999985    2.57999992
   18.85944557  123.87500000    4.90999985    2.55999994
   18.86361122  127.83799744    4.90999985    2.64000010
   18.86694527  123.39700317    4.90999985    2.59999990
   18.87000084  127.58399963    4.90999985    2.61999989
   18.87333298  120.93499756    4.90999985    2.59999990
   18.87666702  124.43900299    4.90999985    2.59999990
   18.87972260  120.93299866    4.90999985    2.59999990
   18.88305473  124.53399658    4.90999985    2.61999989
   18.88611031  121.48300171    4.90999985    2.61999989
   18.88944435  119.85600281    4.90999985    2.61999989
   18.89027786  120.72000122    4.90999985    2.61999989
   18.89305496  116.81099701    4.90999985    2.61999989
   18.89638901  120.90100098    4.90999985    2.61999989
   18.90222168  120.90100098    4.90999985    2.61999989
   18.90638924  120.62799835    4.90999985    2.59999990
   18.90972137  122.94200134    4.90999985    2.61999989
   18.91305542  125.69400024    4.90999985    2.61999989
   18.91611099  123.80999756    4.90999985    2.59999990
   18.91944313  130.70700073    4.90999985    2.61999989
   18.92249870  122.33000183    4.90999985    2.59999990
   18.92361069  132.02499390    4.90999985    2.57999992
   18.92611122  142.76400757    4.90999985    2.57999992
   18.92944336  153.71699524    4.90999985    2.26999998
   18.93249893  131.85899353    4.90999985    2.46000004
   18.93583298  130.16999817    4.90999985    2.51999998
   18.93916512  120.73799896    4.90999985    2.59999990
   18.94527626  120.73799896    4.90999985    2.61999989
   18.94916534  153.68200684    4.90999985    2.59999990
   18.95250130  134.26800537    4.90999985    2.46000004
   18.95583344  133.65699768    4.90999985    2.50000000
   18.95722389  133.67599487    4.90999985    2.48000002
   18.95944595  144.27900696    4.90999985    2.46000004
   18.96277809  143.80299377    4.90999985    2.42000008
   18.96583366  153.43800354    4.90999985    2.40000010
   18.96916771  135.18499756    4.90999985    2.40000010
   18.97249985  143.93800354    4.90999985    2.46000004
   18.97555542  163.94599915    4.90999985    2.42000008
   18.97888947  179.27900696    4.90999985    2.32999992
   18.98194504  240.39399719    4.90999985    2.19000006
   18.98805618  240.39399719    4.90999985    2.25000000
   19.00638962  236.41499329    4.90999985    1.98000002
   19.00972176  132.17500305    4.90999985    2.09999990
   19.01277733   66.50289917    4.90999985    1.71000004
   19.01611137   90.80280304    4.90999985    1.73000002
   19.01944351  139.00199890    4.90999985    1.85000002
   19.02249908  232.81399536    4.90999985    1.73000002
   19.02583313   60.55120087    4.90999985    1.80999994
   19.03111076   60.55120087    4.90999985    1.96000004
   19.03527641  384.68099976    4.90999985    1.85000002
   19.03722191  378.53298950    4.90999985    1.89999998
   19.03861046  276.07800293    4.90999985    1.94000006
   19.03999901  299.73599243    4.90999985    2.00000000
   19.04138756  107.42700195    4.90999985    1.96000004
   19.04138756  139.00199890    4.90999985    1.85000002
   19.04138756  232.81399536    4.90999985    1.73000002
   19.04138756   60.55120087    4.90999985    1.80999994
   19.04138756  384.68099976    4.90999985    1.85000002
   19.04166603  240.39399719    4.90999985    2.19000006
   19.04166603  236.41499329    4.90999985    1.98000002
   19.04166603  132.17500305    4.90999985    2.09999990
   19.04166603   66.50289917    4.90999985    1.71000004
   19.04166603   90.80280304    4.90999985    1.73000002
   19.04249954   57.51190186    4.90999985    1.89999998
   19.04555511  177.42999268    4.90999985    1.85000002
   19.04888916  354.03900146    4.90999985    1.78999996
   19.05083275  217.81900024    4.90999985    1.85000002
   19.05083275   57.51190186    4.90999985    1.89999998
   19.05083275  177.42999268    4.90999985    1.85000002
   19.05111122  354.03900146    4.90999985    1.78999996
   19.05277634   -1.00000000   -1.00000000   -1.00000000
   19.05583191  182.62300110    4.90999985    1.61000001
   19.05916595  142.69299316    4.90999985    1.66999996
   19.06222153   85.39270020    4.90999985    1.66999996
   19.06555557   -1.00000000    4.90999985    1.71000004
   19.07166672   -1.00000000    4.90999985    1.55999994
   19.07583427   -1.00000000    4.90999985    1.48000002
   19.07888985   -1.00000000    4.90999985    1.53999996
   19.08222389   -1.00000000    4.90999985    1.48000002
   19.08555603   -1.00000000    4.90999985    1.58000004
   19.08889008   -1.00000000    4.90999985    1.58000004
   19.09194565   -1.00000000    4.90999985    1.63000000
   19.09527779   -1.00000000    4.90999985    1.58000004
   19.09861183   -1.00000000    4.90999985    1.55999994
   19.10166740   -1.00000000    4.90999985    1.55999994
   19.10499954   -1.00000000    4.90999985    1.51999998
   19.10833359   83.99759674    4.90999985    1.64999998
   19.11444473   83.99759674    4.90999985    1.66999996
   19.11861038   49.83610153    4.90999985    1.69000006
   19.12166595   -1.00000000    4.90999985    1.66999996
   19.12500000   -1.00000000    4.90999985    1.64999998
   19.12833405   -1.00000000    4.90999985    1.48000002
   19.13138962   -1.00000000    4.90999985    1.44000006
   19.13472176   -1.00000000    4.90999985    1.46000004
   19.13777733   35.92110062    4.90999985    1.60000002
   19.14111137   -1.00000000    4.90999985    1.61000001
   19.14444351   -1.00000000    4.90999985    1.51999998
   19.14749908   -1.00000000    4.90999985    1.51999998
   19.15083313   -1.00000000    4.90999985    1.44000006
   19.15722275   -1.00000000    4.90999985    1.50000000
   19.16138840   -1.00000000    4.90999985    1.41999996
   19.16472244   -1.00000000    4.90999985    1.33000004
   19.16777802   -1.00000000    4.90999985    1.05999994
   19.17111015   -1.00000000    4.90999985    1.01999998
   19.17444420   -1.00000000    4.90999985    0.94000000
   19.17749977   -1.00000000    4.90999985    0.95999998
   19.18083191   -1.00000000    4.90999985    1.13000000
   19.18388748   -1.00000000    4.90999985    1.19000006
   19.18750000   -1.00000000    4.90999985    1.16999996
   19.19083214   -1.00000000    4.90999985    1.09000003
   19.19388771   -1.00000000    4.90999985    1.21000004
   19.20416832   -1.00000000    4.90999985    1.38000000
   19.20750046   -1.00000000    4.90999985    1.38000000
   19.21055603   -1.00000000    4.90999985    1.64999998
   19.21389008   88.95709991    4.90999985    1.75000000
   19.21722221   -1.00000000    4.90999985    1.64999998
   19.22055626   -1.00000000    4.90999985    1.64999998
   19.22389030   89.36869812    4.90999985    1.69000006
   19.22722244  140.31199646    4.90999985    1.78999996
   19.23027802  144.31399536    4.90999985    1.80999994
   19.23361206   93.55139923    4.90999985    1.75000000
   19.23666763   83.62629700    4.90999985    1.73000002
   19.24305534   83.62629700    4.90999985    1.71000004
   19.24722290   -1.00000000    4.90999985    1.66999996
   19.25027847   -1.00000000    4.90999985    1.64999998
   19.25388908   -1.00000000    4.90999985    1.63000000
   19.25722313   -1.00000000    4.90999985    1.53999996
   19.26027870   -1.00000000    4.90999985    1.50000000
   19.26361084   -1.00000000    4.90999985    1.48000002
   19.26694489   -1.00000000    4.90999985    1.36000001
   19.27000046   -1.00000000    4.90999985    1.25000000
   19.27333260   -1.00000000    4.90999985    1.28999996
   19.27666664   -1.00000000    4.90999985    1.26999998
   19.27972221   -1.00000000    4.90999985    1.16999996
   19.28999901   -1.00000000    4.90999985    0.88000000
   19.29305458   -1.00000000    4.90999985    0.88000000
   19.29638863   -1.00000000    4.90999985    0.86000001
   19.29972076   -1.00000000    4.90999985    0.83999997
   19.30277634   -1.00000000    4.90999985    0.80000001
   19.30611038   -1.00000000    4.90999985    0.75000000
   19.30916595   -1.00000000    4.90999985    0.67000002
   19.31250000   -1.00000000    4.90999985    0.64999998
   19.31583214   -1.00000000    4.90999985    0.64999998
   19.31916809   -1.00000000    4.90999985    0.67000002
   19.32250023   -1.00000000    4.90999985    0.67000002
   19.33277893   -1.00000000    4.90999985    0.58999997
   19.33583450   -1.00000000    4.90999985    0.67000002
   19.33916664   -1.00000000    4.90999985    0.64999998
   19.34250069   -1.00000000    4.90999985    0.63000000
   19.34555626   -1.00000000    4.90999985    0.58999997
   19.34889030   -1.00000000    4.90999985    0.63000000
   19.35222244   -1.00000000    4.90999985    0.63000000
   19.35555649   -1.00000000    4.90999985    0.64999998
   19.35888863   -1.00000000    4.90999985    0.61000001
   19.36194420   -1.00000000    4.90999985    0.56999999
   19.36527824   -1.00000000    4.90999985    0.52999997
   19.37555504   -1.00000000    4.90999985    0.58999997
   19.37888908   -1.00000000    4.90999985    0.58999997
   19.38194466   -1.00000000    4.90999985    0.69000000
   19.38555527   -1.00000000    4.90999985    0.70999998
   19.38888931   -1.00000000    4.90999985    0.75000000
   19.39222145   -1.00000000    4.90999985    0.75000000
   19.39527702   -1.00000000    4.90999985    0.75000000
   19.39861107   -1.00000000    4.90999985    0.79000002
   19.40166664   -1.00000000    4.90999985    0.83999997
   19.40499878   -1.00000000    4.90999985    0.88000000
   19.40805435   -1.00000000    4.90999985    0.80000001
   19.41833305   -1.00000000    4.90999985    0.92000002
   19.42166519   -1.00000000    4.90999985    1.00000000
   19.42499924   -1.00000000    4.90999985    1.00000000
   19.42805481   -1.00000000    4.90999985    0.89999998
   19.43138885   -1.00000000    4.90999985    0.79000002
   19.43444443   -1.00000000    4.90999985    0.70999998
   19.43777657   -1.00000000    4.90999985    0.73000002
   19.44111061   -1.00000000    4.90999985    0.70999998
   19.44416618   -1.00000000    4.90999985    0.73000002
   19.44749832   -1.00000000    4.90999985    0.73000002
   19.45083427   -1.00000000    4.90999985    0.79000002
   19.46138954   -1.00000000    4.90999985    0.64999998
   19.46444511   -1.00000000    4.90999985    0.56999999
   19.46777916   -1.00000000    4.90999985    0.52999997
   19.47111130   -1.00000000    4.90999985    0.51999998
   19.47416687   -1.00000000    4.90999985    0.51999998
   19.47750092   -1.00000000    4.90999985    0.50000000
   19.48055649   -1.00000000    4.90999985    0.46000001
   19.48388863   -1.00000000    4.90999985    0.46000001
   19.48722267   -1.00000000    4.90999985    0.47999999
   19.49055672   -1.00000000    4.90999985    0.44000000
   19.49388885   -1.00000000    4.90999985    0.41999999
   19.50416756   -1.00000000    4.90999985    0.51999998
   19.50722313   -1.00000000    4.90999985    0.55000001
   19.51055527   -1.00000000    4.90999985    0.52999997
   19.51388931   -1.00000000    4.90999985    0.52999997
   19.51694489   -1.00000000    4.90999985    0.50000000
   19.52055550   -1.00000000    4.90999985    0.51999998
   19.52388954   -1.00000000    4.90999985    0.50000000
   19.52722168   -1.00000000    4.90999985    0.46000001
   19.53027725   -1.00000000    4.90999985    0.47999999
   19.53361130   -1.00000000    4.90999985    0.51999998
   19.53666687   -1.00000000    4.90999985    0.52999997
   19.54694366   -1.00000000    4.90999985    0.86000001
   19.55027771   -1.00000000    4.90999985    0.89999998
   19.55360985   -1.00000000    4.90999985    0.94000000
   19.55694389   -1.00000000    4.90999985    0.86000001
   19.56027794   -1.00000000    4.90999985    0.92000002
   19.56333351   -1.00000000    4.90999985    0.89999998
   19.56666756   -1.00000000    4.90999985    1.11000001
   19.57000160   -1.00000000    4.90999985    1.03999996
   19.57305717   -1.00000000    4.90999985    1.44000006
   19.57638931   -1.00000000    4.90999985    1.30999994
   19.57944489   -1.00000000    4.90999985    1.11000001
   19.58972359   -1.00000000    4.90999985    1.51999998
   19.59305573   -1.00000000    4.90999985    1.61000001
   19.59611130   -1.00000000    4.90999985    1.38000000
   19.59944534   -1.00000000    4.90999985    1.25000000
   19.60277748   -1.00000000    4.90999985    1.11000001
   19.60583305   -1.00000000    4.90999985    1.00000000
   19.60916710   -1.00000000    4.90999985    0.98000002
   19.61222267   -1.00000000    4.90999985    1.07000005
   19.61555672   -1.00000000    4.90999985    1.07000005
   19.61888885   -1.00000000    4.90999985    1.19000006
   19.62222290   -1.00000000    4.90999985    1.05999994
   19.63277817   -1.00000000    4.90999985    1.30999994
   19.63583374   -1.00000000    4.90999985    1.19000006
   19.63916588   -1.00000000    4.90999985    1.14999998
   19.64222145   -1.00000000    4.90999985    1.21000004
   19.64555550   -1.00000000    4.90999985    1.14999998
   19.64888954   -1.00000000    4.90999985    1.14999998
   19.65222168   -1.00000000    4.90999985    0.98000002
   19.65555573   -1.00000000    4.90999985    0.92000002
   19.65888786   -1.00000000    4.90999985    0.95999998
   19.66194344   -1.00000000    4.90999985    0.95999998
   19.66527748   -1.00000000    4.90999985    0.75000000
   19.67555428   -1.00000000    4.90999985    0.92000002
   19.67860985   -1.00000000    4.90999985    0.83999997
   19.68194389   -1.00000000    4.90999985    1.13000000
   19.68527603   -1.00000000    4.90999985    1.48000002
   19.68861008   -1.00000000    4.90999985    1.46000004
   19.69194412   -1.00000000    4.90999985    1.55999994
   19.69499969   -1.00000000    4.90999985    1.33000004
   19.69833183   -1.00000000    4.90999985    1.41999996
   19.70138931   -1.00000000    4.90999985    1.44000006
   19.70472336   -1.00000000    4.90999985    1.58000004
   19.70805550   -1.00000000    4.90999985    1.64999998
   19.71416664   -1.00000000    4.90999985    1.44000006
   19.71833420   -1.00000000    4.90999985    1.28999996
   19.72166634   -1.00000000    4.90999985    1.41999996
   19.72500038   -1.00000000    4.90999985    1.41999996
   19.72805595   -1.00000000    4.90999985    1.46000004
   19.73139000   -1.00000000    4.90999985    1.60000002
   19.73444557   -1.00000000    4.90999985    1.41999996
   19.73777771   -1.00000000    4.90999985    1.26999998
   19.74111176   -1.00000000    4.90999985    1.33000004
   19.74416733   -1.00000000    4.90999985    1.14999998
   19.74749947   -1.00000000    4.90999985    0.94000000
   19.75055504   -1.00000000    4.90999985    0.86000001
   19.76111031   -1.00000000    4.90999985    0.95999998
   19.76444435   -1.00000000    4.90999985    0.88000000
   19.76777840   -1.00000000    4.90999985    0.81999999
   19.77083397   -1.00000000    4.90999985    0.94000000
   19.77416611   -1.00000000    4.90999985    1.14999998
   19.77722168   -1.00000000    4.90999985    1.33000004
   19.78055573   -1.00000000    4.90999985    0.98000002
   19.78388786   -1.00000000    4.90999985    0.98000002
   19.78750038   -1.00000000    4.90999985    1.21000004
   19.79055595   -1.00000000    4.90999985    1.19000006
   19.79388809   -1.00000000    4.90999985    1.30999994
   19.79999924   -1.00000000    4.90999985    1.55999994
   19.80416679   -1.00000000    4.90999985    1.48000002
   19.80722237   -1.00000000    4.90999985    1.46000004
   19.81055450   -1.00000000    4.90999985    1.46000004
   19.81388855   -1.00000000    4.90999985    1.46000004
   19.81694603   -1.00000000    4.90999985    1.50000000
   19.82055664   -1.00000000    4.90999985    1.58000004
   19.82361221   -1.00000000    4.90999985    1.51999998
   19.82694626   -1.00000000    4.90999985    1.53999996
   19.83000183   -1.00000000    4.90999985    1.44000006
   19.83333397   -1.00000000    4.90999985    1.48000002
   19.83666801   -1.00000000    4.90999985    1.44000006
   19.84694481   -1.00000000    4.90999985    1.25000000
   19.85000038   -1.00000000    4.90999985    1.23000002
   19.85388947   -1.00000000    4.90999985    1.13000000
   19.85694504   -1.00000000    4.90999985    1.28999996
   19.86027908   -1.00000000    4.90999985    1.60000002
   19.86333466   -1.00000000    4.90999985    1.39999998
   19.86666679   -1.00000000    4.90999985    1.25000000
   19.87000084   -1.00000000    4.90999985    1.01999998
   19.87305641   -1.00000000    4.90999985    1.03999996
   19.87638855   -1.00000000    4.90999985    0.83999997
   19.87944412   -1.00000000    4.90999985    1.01999998
   19.88972282   -1.00000000    4.90999985    0.88000000
   19.89305496   -1.00000000    4.90999985    0.95999998
   19.89611053   -1.00000000    4.90999985    1.05999994
   19.89944458   -1.00000000    4.90999985    1.03999996
   19.90250015   -1.00000000    4.90999985    1.07000005
   19.90583229   -1.00000000    4.90999985    1.01999998
   19.90916634   -1.00000000    4.90999985    0.94000000
   19.91222191   -1.00000000    4.90999985    1.03999996
   19.91555595   -1.00000000    4.90999985    1.09000003
   19.91916656   -1.00000000    4.90999985    1.07000005
   19.92222214   -1.00000000    4.90999985    1.11000001
   19.93249893   -1.00000000    4.90999985    1.03999996
   19.93583298   -1.00000000    4.90999985    1.01999998
   19.93888855   -1.00000000    4.90999985    0.94000000
   19.94222069   -1.00000000    4.90999985    1.03999996
   19.94555473   -1.00000000    4.90999985    1.01999998
   19.94861031   -1.00000000    4.90999985    0.94000000
   19.95250130   -1.00000000    4.90999985    0.92000002
   19.95555687   -1.00000000    4.90999985    1.05999994
   19.95888901   -1.00000000    4.90999985    1.05999994
   19.96194458   -1.00000000    4.90999985    1.00000000
   19.96527863   -1.00000000    4.90999985    0.92000002
   19.97527885   -1.00000000    4.90999985    1.00000000
   19.97861099   -1.00000000    4.90999985    0.94000000
   19.98194504   -1.00000000    4.90999985    0.81999999
   19.98555565   -1.00000000    4.90999985    0.83999997
   19.98861122   -1.00000000    4.90999985    0.88000000
   19.99194527   -1.00000000    4.90999985    0.92000002
   19.99500084   -1.00000000    4.90999985    0.98000002
   19.99833298   -1.00000000    4.90999985    1.11000001
   20.00166702   -1.00000000    4.90999985    1.07000005
   20.00472260   -1.00000000    4.90999985    0.95999998
   20.03083229   -1.00000000    4.90999985    1.07000005
   20.03416634   -1.00000000    4.90999985    1.11000001
   20.03750038   -1.00000000    4.90999985    1.03999996
   20.04055595   -1.00000000    4.90999985    1.23000002
   20.04388809   -1.00000000    4.90999985    1.36000001
   20.04722214   -1.00000000    4.90999985    1.36000001
   20.05027771   -1.00000000    4.90999985    1.14999998
   20.05360985   -1.00000000    4.90999985    1.11000001
   20.05666542   -1.00000000    4.90999985    1.14999998
   20.06027794   -1.00000000    4.90999985    1.14999998
   20.06361008   -1.00000000    4.90999985    1.05999994
   20.07361221   -1.00000000    4.90999985    1.28999996
   20.07694626   -1.00000000    4.90999985    1.25000000
   20.08027840   -1.00000000    4.90999985    1.21000004
   20.08333397   -1.00000000    4.90999985    1.07000005
   20.08666801   -1.00000000    4.90999985    1.03999996
   20.08972359   -1.00000000    4.90999985    1.01999998
   20.09333420   -1.00000000    4.90999985    1.13000000
   20.09666824   -1.00000000    4.90999985    1.14999998
   20.09972191   -1.00000000    4.90999985    1.07000005
   20.10305595   -1.00000000    4.90999985    0.92000002
   20.10639000   -1.00000000    4.90999985    0.98000002
   20.11666679   -1.00000000    4.90999985    1.34000003
   20.11972237   -1.00000000    4.90999985    1.33000004
   20.12305641   -1.00000000    4.90999985    1.26999998
   20.12666702   -1.00000000    4.90999985    1.26999998
   20.12972260   -1.00000000    4.90999985    1.03999996
   20.13305473   -1.00000000    4.90999985    0.94000000
   20.13638878   -1.00000000    4.90999985    0.89999998
   20.13944435   -1.00000000    4.90999985    0.89999998
   20.14277840   -1.00000000    4.90999985    0.86000001
   20.14611053   -1.00000000    4.90999985    0.92000002
   20.14916611   -1.00000000    4.90999985    0.94000000
   20.15944481   -1.00000000    4.90999985    0.83999997
   20.16250038   -1.00000000    4.90999985    0.76999998
   20.16583252   -1.00000000    4.90999985    0.81999999
   20.16916656   -1.00000000    4.90999985    0.86000001
   20.17222214   -1.00000000    4.90999985    0.79000002
   20.17555428   -1.00000000    4.90999985    0.79000002
   20.17860985   -1.00000000    4.90999985    0.70999998
   20.18194389   -1.00000000    4.90999985    0.63000000
   20.18527603   -1.00000000    4.90999985    0.70999998
   20.18833160   -1.00000000    4.90999985    0.64999998
   20.19194412   -1.00000000    4.90999985    0.63000000
   20.20222282   -1.00000000    4.90999985    0.52999997
   20.20555687   -1.00000000    4.90999985    0.50000000
   20.20861244   -1.00000000    4.90999985    0.51999998
   20.21194458   -1.00000000    4.90999985    0.50000000
   20.21527863   -1.00000000    4.90999985    0.46000001
   20.21833420   -1.00000000    4.90999985    0.63000000
   20.22166634   -1.00000000    4.90999985    0.56999999
   20.22527885   -1.00000000    4.90999985    0.50000000
   20.22833443   -1.00000000    4.90999985    0.51999998
   20.23166656   -1.00000000    4.90999985    0.47999999
   20.23500061   -1.00000000    4.90999985    0.47999999
   20.24500084   -1.00000000    4.90999985    0.79000002
   20.24833298   -1.00000000    4.90999985    0.75000000
   20.25166702   -1.00000000    4.90999985    0.70999998
   20.25472260   -1.00000000    4.90999985    0.61000001
   20.25833321   -1.00000000    4.90999985    0.56999999
   20.26138878   -1.00000000    4.90999985    0.58999997
   20.26472282   -1.00000000    4.90999985    0.52999997
   20.26805496   -1.00000000    4.90999985    0.50000000
   20.27111053   -1.00000000    4.90999985    0.46000001
   20.27444458   -1.00000000    4.90999985    0.40000001
   20.27777672   -1.00000000    4.90999985    0.31999999
   20.28805542   -1.00000000    4.90999985    0.30000001
   20.29111099   -1.00000000    4.90999985    0.28000000
   20.29472160   -1.00000000    4.90999985    0.25999999
   20.29805565   -1.00000000    4.90999985    0.25000000
   20.30138779   -1.00000000    4.90999985    0.23000000
   20.30444336   -1.00000000    4.90999985    0.19000000
   20.30777740   -1.00000000    4.90999985    0.17000000
   20.31110954   -1.00000000    4.90999985    0.15000001
   20.31416512   -1.00000000    4.90999985    0.17000000
   20.31750107   -1.00000000    4.90999985    0.19000000
   20.32055664   -1.00000000    4.90999985    0.20999999
   20.33083344   -1.00000000    4.90999985    0.31999999
   20.33388901   -1.00000000    4.90999985    0.28000000
   20.33722305   -1.00000000    4.90999985    0.28000000
   20.34055710   -1.00000000    4.90999985    0.25999999
   20.34361267   -1.00000000    4.90999985    0.23000000
   20.34694481   -1.00000000    4.90999985    0.23000000
   20.35000038   -1.00000000    4.90999985    0.23000000
   20.35333443   -1.00000000    4.90999985    0.20999999
   20.35666656   -1.00000000    4.90999985    0.20999999
   20.36000061   -1.00000000    4.90999985    0.20999999
   20.36333466   -1.00000000    4.90999985    0.19000000
   20.37361145   -1.00000000    4.90999985    0.07000000
   20.37694550   -1.00000000    4.90999985    0.07000000
   20.38000107   -1.00000000    4.90999985    0.07000000
   20.38333321   -1.00000000    4.90999985    0.07000000
   20.38666725   -1.00000000    4.90999985    0.07000000
   20.38972282   -1.00000000    4.90999985    0.07000000
   20.39305496   -1.00000000    4.90999985    0.07000000
   20.39638901   -1.00000000    4.90999985    0.07000000
   20.39972115   -1.00000000    4.90999985    0.07000000
   20.40277672   -1.00000000    4.90999985    0.07000000
   20.40611076   -1.00000000    4.90999985    0.07000000
   20.41638756   -1.00000000    4.90999985    0.07000000
   20.41972160   -1.00000000    4.90999985    0.07000000
   20.42277718   -1.00000000    4.90999985    0.07000000
   20.42638779   -1.00000000    4.90999985    0.07000000
   20.42944336   -1.00000000    4.90999985    0.07000000
   20.43277740   -1.00000000    4.90999985    0.03000000
   20.43610954   -1.00000000    4.90999985    0.03000000
   20.43916512   -1.00000000    4.90999985    0.05000000
   20.44249916   -1.00000000    4.90999985    0.05000000
   20.44555473   -1.00000000    4.90999985    0.05000000
   20.44888878   -1.00000000    4.90999985    0.05000000
   20.45944595   -1.00000000    4.90999985    0.05000000
   20.46250153   -1.00000000    4.90999985    0.05000000
   20.46583366   -1.00000000    4.90999985    0.05000000
   20.46888924   -1.00000000    4.78000021    0.03000000
   20.47222328   -1.00000000    4.55999994    0.03000000
   20.47555542   -1.00000000    3.61999989    0.03000000
   20.47861099   -1.00000000    3.61999989    0.03000000
   20.48194504   -1.00000000    3.61999989    0.03000000
   20.48500061   -1.00000000    3.61999989    0.03000000
   20.48833275   -1.00000000    2.32999992    0.01000000
   20.49166679   -1.00000000    2.21000004    0.01000000
   20.50222206   -1.00000000    1.73000002    0.01000000
   20.50527763   -1.00000000    1.73000002    0.01000000
   20.50861168   -1.00000000    1.73000002    0.01000000
   20.51194382   -1.00000000    1.09000003    0.01000000
   20.51499939   -1.00000000    1.05999994    0.01000000
   20.51833344   -1.00000000    1.05999994    0.01000000
   20.52138901   -1.00000000    1.05999994    0.01000000
   20.52472115   -1.00000000    1.05999994    0.01000000
   20.52833366   -1.00000000    1.05999994    0.01000000
   20.53166580   -1.00000000    1.05999994    0.01000000
   20.53472137   -1.00000000    1.05999994    0.01000000
   20.54500008   -1.00000000    1.05999994    0.01000000
   20.54833221   -1.00000000    1.05999994    0.01000000
   20.55138779   -1.00000000    1.05999994    0.01000000
   20.55472183   -1.00000000    1.05999994    0.01000000
   20.55777740   -1.00000000    1.05999994    0.01000000
   20.56138802   -1.00000000    1.05999994    0.01000000
   20.56472206   -1.00000000    1.05999994    0.01000000
   20.56777954   -1.00000000    1.05999994    0.01000000
   20.57111168   -1.00000000    1.05999994    0.01000000
   20.57416725   -1.00000000    1.05999994    0.01000000
   20.57750130   -1.00000000    1.05999994    0.01000000
   20.58777809   -1.00000000    1.05999994    0.01000000
   20.59111214   -1.00000000    1.05999994    0.01000000
   20.59472275   -1.00000000    1.05999994    0.01000000
   20.59805679   -1.00000000    1.05999994    0.01000000
   20.60111237   -1.00000000    1.05999994    0.01000000
   20.60444450   -1.00000000    1.05999994    0.01000000
   20.60750008   -1.00000000    1.05999994    0.01000000
   20.61083412   -1.00000000    1.05999994    0.01000000
   20.61416626   -1.00000000    1.05999994    0.01000000
   20.61722183   -1.00000000    1.05999994    0.01000000
   20.62055588   -1.00000000    1.05999994    0.01000000
   20.63055611   -1.00000000    1.05999994    0.01000000
   20.63388824   -1.00000000    1.05999994    0.01000000
   20.63722229   -1.00000000    1.05999994    0.01000000
   20.64027786   -1.00000000    1.05999994    0.01000000
   20.64361191   -1.00000000    1.05999994    0.01000000
   20.64694405   -1.00000000    1.05999994    0.01000000
   20.64999962   -1.00000000    1.05999994    0.01000000
   20.65333366   -1.00000000    1.05999994    0.01000000
   20.65638924   -1.00000000    1.05999994    0.01000000
   20.65999985   -1.00000000    1.05999994    0.01000000
   20.66333389   -1.00000000    1.05999994    0.01000000
   20.67361069   -1.00000000    1.05999994    0.01000000
   20.67666626   -1.00000000    1.05999994    0.01000000
   20.68000031   -1.00000000    1.05999994    0.01000000
   20.68305397   -1.00000000    1.05999994    0.01000000
   20.68638802   -1.00000000    1.05999994    0.01000000
   20.68972206   -1.00000000    1.05999994    0.01000000
   20.69305420   -1.00000000    1.05999994    0.01000000
   20.69638824   -1.00000000    1.05999994    0.01000000
   20.69944382   -1.00000000    1.05999994    0.01000000
   20.70277786   -1.00000000    1.05999994    0.01000000
   20.70583344   -1.00000000    1.05999994    0.01000000
   20.71638870   -1.00000000    1.05999994    0.01000000
   20.71972275   -1.00000000    1.03999996    0.01000000
   20.72277832   -1.00000000    1.03999996    0.01000000
   20.72638893   -1.00000000    1.03999996    0.01000000
   20.72972298   -1.00000000    1.03999996    0.01000000
   20.73277855   -1.00000000    1.03999996    0.01000000
   20.73611069   -1.00000000    1.03999996    0.01000000
   20.73916626   -1.00000000    1.03999996    0.01000000
   20.74250031   -1.00000000    1.03999996    0.01000000
   20.74583435   -1.00000000    1.03999996    0.01000000
   20.74888992   -1.00000000    1.03999996    0.01000000
   20.75916672   -1.00000000    1.03999996    0.01000000
   20.76250076   -1.00000000    1.03999996    0.01000000
   20.76555634   -1.00000000    1.03999996    0.01000000
   20.76888847   -1.00000000    1.03999996    0.01000000
   20.77222252   -1.00000000    1.03999996    0.01000000
   20.77527809   -1.00000000    1.03999996    0.01000000
   20.77861023   -1.00000000    1.03999996    0.01000000
   20.78194427   -1.00000000    1.03999996    0.01000000
   20.78499985   -1.00000000    1.03999996    0.01000000
   20.78833199   -1.00000000    1.03999996    0.01000000
   20.79138756   -1.00000000    1.03999996    0.01000000
   20.80194283   -1.00000000    1.03999996    0.01000000
   20.80527687   -1.00000000    1.03999996    0.01000000
   20.80861092   -1.00000000    1.03999996    0.01000000
   20.81166649   -1.00000000    1.03999996    0.01000000
   20.81499863   -1.00000000    1.03999996    0.01000000
   20.81833458   -1.00000000    1.03999996    0.01000000
   20.82139015   -1.00000000    1.03999996    0.01000000
   20.82472229   -1.00000000    1.03999996    0.01000000
   20.82805634   -1.00000000    1.03999996    0.01000000
   20.83139038   -1.00000000    1.03999996    0.01000000
   20.83444595   -1.00000000    1.03999996    0.01000000
   20.84500122   -1.00000000    4.90999985    0.01000000
   20.84805679   -1.00000000    4.90999985    0.01000000
   20.85138893   -1.00000000    4.90999985    0.01000000
   20.85472298   -1.00000000    4.90999985    0.01000000
   20.85777855   -1.00000000    4.90999985    0.01000000
   20.86138916   -1.00000000    4.90999985    0.05000000
   20.86472321   -1.00000000    4.90999985    0.05000000
   20.86777878   -1.00000000    4.90999985    0.05000000
   20.87111092   -1.00000000    4.90999985    0.05000000
   20.87444496   -1.00000000    4.90999985    0.05000000
   20.87750053   -1.00000000    4.90999985    0.05000000
   20.88777733   -1.00000000    4.90999985    0.05000000
   20.89111137   -1.00000000    4.90999985    0.05000000
   20.89444351   -1.00000000    4.90999985    0.05000000
   20.89777756   -1.00000000    4.90999985    0.05000000
   20.90083313   -1.00000000    4.90999985    0.05000000
   20.90416718   -1.00000000    4.90999985    0.05000000
   20.90749931   -1.00000000    4.90999985    0.05000000
   20.91055489   -1.00000000    4.90999985    0.05000000
   20.91388893   -1.00000000    4.90999985    0.05000000
   20.91694450   -1.00000000    4.90999985    0.05000000
   20.92027664   -1.00000000    4.90999985    0.05000000
   20.93055534   -1.00000000    4.90999985    0.05000000
   20.93388748   -1.00000000    4.90999985    0.05000000
   20.93694305   -1.00000000    4.90999985    0.05000000
   20.94027710   -1.00000000    4.90999985    0.05000000
   20.94361115   -1.00000000    4.90999985    0.05000000
   20.94666672   -1.00000000    4.90999985    0.01000000
   20.95000076   -1.00000000    4.90999985    0.01000000
   20.95333481   -1.00000000    4.90999985    0.25000000
   20.95639038   -1.00000000    4.90999985    0.17000000
   20.96000099   -1.00000000    4.90999985    0.47999999
   20.96333504   -1.00000000    4.90999985    0.79000002
   20.97361183   -1.00000000    3.14000010    0.01000000
   20.97666740   -1.00000000    3.14000010    0.01000000
   20.98000145   -1.00000000    3.34999990    0.01000000
   20.98305511   -1.00000000    3.34999990    0.01000000
   20.98638916   -1.00000000    2.78999996    0.01000000
   20.98972321   -1.00000000    2.78999996    0.01000000
   20.99305534   -1.00000000    1.98000002    0.01000000
   20.99638939   -1.00000000    1.88000000    0.01000000
   20.99944496   -1.00000000    1.88000000    0.01000000
   21.00277710   -1.00000000    1.88000000    0.01000000
   21.00611115   -1.00000000    1.88000000    0.01000000
   21.01638794   -1.00000000    1.88000000    0.01000000
   21.01944351   -1.00000000    1.88000000    0.01000000
   21.02277756   -1.00000000    1.88000000    0.01000000
   21.04249954   -1.00000000    1.88000000    0.01000000
   21.04583359   -1.00000000    1.88000000    0.01000000
   21.04916573   -1.00000000    1.88000000    0.01000000
   21.05916595   -1.00000000    1.88000000    0.01000000
   21.06250000   -1.00000000    1.88000000    0.01000000
   21.06583214   -1.00000000    1.88000000    0.01000000
   21.06888962   -1.00000000    1.88000000    0.01000000
   21.07222366   -1.00000000    1.88000000    0.01000000
   21.07555580   -1.00000000    1.88000000    0.01000000
   21.07888985   -1.00000000    1.88000000    0.01000000
   21.08194542   -1.00000000    1.88000000    0.01000000
   21.08527756   -1.00000000    1.88000000    0.01000000
   21.08861160   -1.00000000    1.88000000    0.01000000
   21.09166718   -1.00000000    1.88000000    0.01000000
   21.10222244   -1.00000000    1.88000000    0.01000000
   21.10527802   -1.00000000    1.88000000    0.01000000
   21.10888863   -1.00000000    1.88000000    0.01000000
   21.11222267   -1.00000000    1.88000000    0.01000000
   21.11527824   -1.00000000    1.88000000    0.01000000
   21.11861038   -1.00000000    1.88000000    0.01000000
   21.12194443   -1.00000000    1.88000000    0.01000000
   21.12500000   -1.00000000    1.88000000    0.01000000
   21.12833405   -1.00000000    1.88000000    0.01000000
   21.13166618   -1.00000000    1.88000000    0.01000000
   21.13472176   -1.00000000    1.88000000    0.01000000
   21.14500046   -1.00000000    1.88000000    0.01000000
   21.14833260   -1.00000000    1.88000000    0.01000000
   21.15138817   -1.00000000    1.88000000    0.01000000
   21.15472221   -1.00000000    1.88000000    0.01000000
   21.15777779   -1.00000000    1.88000000    0.01000000
   21.16110992   -1.00000000    1.88000000    0.01000000
   21.16444397   -1.00000000    1.88000000    0.01000000
   21.16749954   -1.00000000    2.39000010    0.01000000
   21.17083359   -1.00000000    4.90999985    0.25999999
   21.17416573   -1.00000000    4.90999985    0.83999997
   21.17749977   -1.00000000    4.90999985    0.81999999
   21.18777657   -1.00000000    4.90999985    0.07000000
   21.19111061   -1.00000000    4.90999985    0.28000000
   21.19416618   -1.00000000    4.90999985    0.76999998
   21.19749832   -1.00000000    4.90999985    0.76999998
   21.20083427   -1.00000000    4.90999985    0.30000001
   21.20388985   -1.00000000    4.90999985    0.03000000
   21.20750046   -1.00000000    4.90999985    0.80000001
   21.21083450   -1.00000000    4.90999985    1.41999996
   21.21389008   -1.00000000    4.90999985    1.89999998
