    HOUR (UT)   FLARE FACTOR    SKY TESTER    SUN TESTER
   11.74222279   -1.00000000   -1.00000000   -1.00000000
   11.79388905  209.41099548    1.66999996    2.01999998
   11.79694462  200.16499329    1.66999996    2.03999996
   11.80027771  210.57200623    1.66999996    2.03999996
   11.80333328  192.94400024    1.69000006    2.03999996
   11.80666733  200.69200134    1.69000006    2.03999996
   11.81000042  190.39199829    1.66999996    2.03999996
   11.81416702  190.39199829    1.69000006    2.03999996
   11.81805515  177.83099365    1.71000004    2.03999996
   11.82138920  194.57699585    1.75000000    2.05999994
   11.82472229  181.83000183    1.76999998    2.03999996
   11.82666683  206.68499756    1.76999998    2.03999996
   11.82833290  178.57800293    1.83000004    2.05999994
   11.83138847  194.88900757    2.05999994    2.05999994
   11.83472157  180.14999390    2.23000002    2.05999994
   11.83805561  175.09399414    2.39000010    2.07999992
   11.84111118  162.87699890    2.51999998    2.07999992
   11.84444427  190.15699768    2.59999990    2.07999992
   11.84749985  171.80900574    2.75000000    2.09999990
   11.85083389  176.12300110    3.16000009    2.07999992
   11.85694504  176.12300110    4.13999987    2.09999990
   11.86083412  171.41700745    4.57999992    2.07999992
   11.86416721  187.19200134    4.80999994    2.09999990
   11.86750031  175.57699585    4.90999985    2.09999990
   11.87055588  172.96299744    4.90999985    2.09999990
   11.87388897  195.87600708    4.90999985    2.09999990
   11.87722206  189.54100037    4.90999985    2.09999990
   11.88027763  176.15199280    4.90999985    2.09999990
   11.88361073  196.31900024    4.90999985    2.09999990
   11.88666630  194.34300232    4.90999985    2.11999989
   11.89000034  168.09399414    4.90999985    2.11999989
   11.89333344  169.39599609    4.90999985    2.09999990
   11.89361095  179.04299927    4.90999985    2.11999989
   11.89972210  179.04299927    4.90999985    2.09999990
   11.90388870  177.26600647    4.90999985    2.11999989
   11.90694427  170.85499573    4.90999985    2.11999989
   11.91027737  194.51499939    4.90999985    2.11999989
   11.91361046  167.60000610    4.90999985    2.11999989
   11.91666698  191.42999268    4.90999985    2.13000011
   11.92000008  175.72500610    4.90999985    2.13000011
   11.92305565  174.27799988    4.90999985    2.13000011
   11.92638874  197.54499817    4.90999985    2.13000011
   11.92722225  165.71699524    4.90999985    2.13000011
   11.93000031  203.38400269    4.90999985    2.13000011
   11.93333340  184.83799744    4.90999985    2.11999989
   11.93638897  193.64900208    4.90999985    2.11999989
   11.94250011  193.64900208    4.53999996    2.11999989
   11.94666672  170.91200256    3.86999989    2.13000011
   11.94999981  169.36999512    3.73000002    2.11999989
   11.95305538  188.23699951    3.80999994    2.13000011
   11.95638847  182.34599304    4.05999994    2.13000011
   11.95944405  172.43600464    4.30999994    2.13000011
   11.96027756  172.50500488    4.30999994    2.13000011
   11.96305561  173.06199646    4.21999979    2.13000011
   11.96638870  172.03599548    3.97000003    2.13000011
   11.96944427  161.06500244    3.68000007    2.13000011
   11.97277737  178.47599792    3.30999994    2.09999990
   11.97611046  178.46299744    3.03999996    2.13000011
   11.97916603  178.67799377    2.89000010    2.13000011
   11.98527813  178.67799377    2.94000006    2.13000011
   11.98944473  181.80499268    3.11999989    2.15000010
   11.99277782  167.32899475    2.84999990    2.17000008
   11.99388885  188.22099304    2.73000002    2.15000010
   11.99638939  184.91900635    2.42000008    2.15000010
   11.99972248  165.31500244    2.25000000    2.09999990
   12.00277805  172.15899658    2.51999998    2.09999990
   12.00611115  178.47700500    2.76999998    2.15000010
   12.00944424  176.75300598    2.71000004    2.17000008
   12.01249981  182.28799438    2.19000006    2.15000010
   12.01583290  174.36399841    2.00000000    2.13000011
   12.01888847  156.78900146    2.05999994    2.09999990
   12.02222157  186.78399658    2.17000008    2.13000011
   12.02833271  186.78399658    3.61999989    2.17000008
   12.03222179  169.51400757    4.90999985    2.17000008
   12.03555584  182.70599365    4.90999985    2.17000008
   12.03888893  181.46699524    4.90999985    2.15000010
   12.04194450  165.95500183    4.90999985    2.15000010
   12.04527855  210.86999512    4.90999985    2.00000000
   12.04861164  177.37399292    4.90999985    2.01999998
   12.05166721  182.64300537    4.90999985    2.15000010
   12.05500031  186.46499634    4.90999985    2.19000006
   12.05805588  166.56399536    4.90999985    2.17000008
   12.06083393  154.29200745    4.90999985    2.17000008
   12.06194496  165.91000366    4.90999985    2.17000008
   12.06527805  176.73899841    4.80000019    2.11999989
   12.07111073  176.73899841    4.26999998    2.17000008
   12.07527733  167.96400452    4.40999985    2.19000006
   12.07833290  159.71699524    4.90999985    2.19000006
   12.08166695  155.12600708    4.90999985    2.21000004
   12.08500004  179.70899963    4.90999985    2.19000006
   12.08805561  161.88900757    4.90999985    2.19000006
   12.09138870  149.26600647    4.90999985    2.19000006
   12.09361076  154.16799927    4.90999985    2.21000004
   12.09499931  162.54400635    4.90999985    2.19000006
   12.09833336  162.99800110    4.90999985    2.15000010
   12.10138893  158.21299744    4.90999985    2.21000004
   12.10472298  155.86500549    4.90999985    2.23000002
   12.10805607  153.33399963    4.90999985    2.23000002
   12.11388969  153.33399963    4.90999985    2.23000002
   12.11805534  154.81100464    4.90999985    2.23000002
   12.12111092  165.11300659    4.90999985    2.25000000
   12.12444496  142.85099792    4.90999985    2.25000000
   12.12722206  153.36700439    4.90999985    2.26999998
   12.12805557  154.70199585    4.90999985    2.26999998
   12.13138866  149.80299377    4.90999985    2.26999998
   12.13472176  149.33700562    4.90999985    2.28999996
   12.13777733  150.32299805    4.90999985    2.28999996
   12.14111137  154.72000122    4.90999985    2.30999994
   12.14444447  164.38900757    4.90999985    2.30999994
   12.14750004  151.50000000    4.90999985    2.30999994
   12.15083313  157.14599609    4.90999985    2.30999994
   12.15666676  157.14599609    4.90999985    2.30999994
   12.16083336  160.40899658    4.90999985    2.28999996
   12.16416645  165.23899841    4.90999985    2.28999996
   12.16722298  156.28799438    4.90999985    2.26999998
   12.17055607  150.82200623    4.90999985    2.26999998
   12.17388916  147.66400146    4.90999985    2.26999998
   12.17694473  167.61700439    4.90999985    2.26999998
   12.18027782  162.75399780    4.90999985    2.26999998
   12.18361092  156.76699829    4.90999985    2.28999996
   12.18666649  159.04499817    4.90999985    2.28999996
   12.19000053  157.55499268    4.90999985    2.28999996
   12.19305515  167.56399536    4.90999985    2.26999998
   12.19361115  153.38699341    4.90999985    2.28999996
   12.19944477  153.38699341    4.90999985    2.28999996
   12.20361137  165.08799744    4.90999985    2.26999998
   12.20694447  157.76100159    4.90999985    2.26999998
   12.21027756  170.03999329    4.90999985    2.26999998
   12.21333313  170.12899780    4.90999985    2.26999998
   12.21666622  167.35800171    4.90999985    2.28999996
   12.21972179  176.34899902    4.90999985    2.28999996
   12.22305489  200.38299561    4.90999985    2.28999996
   12.22638798  193.01300049    4.90999985    2.30999994
   12.22722149  230.94099426    4.90999985    2.30999994
   12.22972202  199.44799805    4.90999985    2.30999994
   12.23305511  218.60099792    4.90999985    2.30999994
   12.23611164  218.51800537    4.90999985    2.30999994
   12.24250031  218.51800537    4.90999985    2.30999994
   12.24666691  226.89300537    4.90999985    2.30999994
   12.24972248  229.55900574    4.90999985    2.30999994
   12.25305557  257.53399658    4.90999985    2.30999994
   12.25611115  258.16400146    4.90999985    2.28999996
   12.25944424  249.28199768    4.90999985    2.28999996
   12.26055527  214.59100342    4.90999985    2.28999996
   12.26305580  238.82899475    4.90999985    2.28999996
   12.26638889  236.16099548    4.90999985    2.28999996
   12.26944447  259.64300537    4.90999985    2.28999996
   12.27277756  276.91699219    4.90999985    2.28999996
   12.27611065  227.72300720    4.90999985    2.28999996
   12.27916622  239.27499390    4.90999985    2.28999996
   12.28527832  239.27499390    4.82999992    2.28999996
   12.28944492  213.67100525    3.68000007    2.28999996
   12.29250050  216.86399841    2.89000010    2.28999996
   12.29388905  205.94599915    2.71000004    2.28999996
   12.29611111  208.94599915    2.36999989    2.28999996
   12.29944515  214.50300598    2.07999992    2.28999996
   12.30277824  202.55599976    1.60000002    2.28999996
   12.30583382  198.39300537    1.38000000    2.28999996
   12.30916691  209.01199341    1.28999996    2.28999996
   12.31222248  206.95700073    1.23000002    2.28999996
   12.31555557  217.02999878    1.19000006    2.28999996
   12.31888866  184.96899414    1.14999998    2.28999996
   12.32194424  217.19200134    1.13000000    2.28999996
   12.32805538  217.19200134    1.13000000    2.28999996
   12.33222198  207.74000549    1.11000001    2.28999996
   12.33555508  203.47599792    1.09000003    2.28999996
   12.33888817  206.91099548    1.11000001    2.30999994
   12.34194374  207.64799500    1.09000003    2.28999996
   12.34527779  187.89900208    1.09000003    2.28999996
   12.34833336  212.46699524    1.07000005    2.30999994
   12.35166740  191.36500549    1.07000005    2.30999994
   12.35500050  186.16200256    1.07000005    2.30999994
   12.35805607  192.65899658    1.05999994    2.30999994
   12.36055565  204.20300293    1.05999994    2.30999994
   12.36166668  188.79299927    1.05999994    2.30999994
   12.36500072  176.22200012    1.05999994    2.30999994
   12.37111092  176.22200012    1.03999996    2.30999994
   12.37500000  201.25300598    1.00000000    2.30999994
   12.37833309  176.08799744    1.00000000    2.30999994
   12.38166714  200.34599304    0.98000002    2.32999992
   12.38472176  184.70599365    0.98000002    2.32999992
   12.38805580  174.77200317    0.95999998    2.32999992
   12.39138889  178.61599731    0.94000000    2.30999994
   12.39388847  188.81500244    0.94000000    2.30999994
   12.39472198  188.95700073    0.94000000    2.30999994
   12.39805508  178.15499878    0.94000000    2.32999992
   12.40138817  178.04400635    0.92000002    2.32999992
   12.40444374  160.79100037    0.92000002    2.32999992
   12.40777779  174.39900208    0.92000002    2.32999992
   12.41388893  174.39900208    0.92000002    2.32999992
   12.41805553  184.45599365    0.92000002    2.32999992
   12.42111111  170.45599365    0.92000002    2.32999992
   12.42444515  194.27400208    0.92000002    2.32999992
   12.42722225  167.40899658    0.92000002    2.32999992
   12.42805576  171.97700500    0.94000000    2.32999992
   12.43166733  178.95199585    0.94000000    2.32999992
   12.43500042  167.46699524    0.94000000    2.32999992
   12.43805599  163.38000488    0.94000000    2.32999992
   12.44138908  169.48899841    0.94000000    2.34999990
   12.44472218  165.24099731    0.94000000    2.34999990
   12.44777775  168.15800476    0.94000000    2.32999992
   12.45111084  175.49099731    0.95999998    2.34999990
   12.45666695  175.49099731    0.94000000    2.34999990
   12.46083355  175.68099976    0.94000000    2.34999990
   12.46416664  167.29100037    0.94000000    2.34999990
   12.46749973  182.92900085    0.94000000    2.34999990
   12.47055531  174.45599365    0.94000000    2.34999990
   12.47388840  191.52000427    0.94000000    2.34999990
   12.47694397  190.65699768    0.92000002    2.34999990
   12.48027706  173.71000671    0.92000002    2.36999989
   12.48361111  187.71499634    0.89999998    2.34999990
   12.48666668  187.41700745    0.89999998    2.34999990
   12.49000072  178.71499634    0.88000000    2.34999990
   12.49333382  165.58700562    0.88000000    2.34999990
   12.49388885  171.26400757    0.88000000    2.36999989
   12.49944496  171.26400757    0.88000000    2.34999990
   12.50361156  179.38000488    0.88000000    2.34999990
   12.50694466  172.32000732    0.86000001    2.36999989
   12.51000023  175.44000244    0.86000001    2.36999989
   12.51333332  184.00799561    0.86000001    2.36999989
   12.51666641  187.47500610    0.86000001    2.36999989
   12.51972198  204.29200745    0.86000001    2.36999989
   12.52305508  195.19500732    0.86000001    2.36999989
   12.52638817  191.81300354    0.86000001    2.36999989
   12.52722168  210.70399475    0.86000001    2.36999989
   12.52972221  221.67799377    0.86000001    2.36999989
   12.53305531  201.70100403    0.86000001    2.36999989
   12.53638935  203.82400513    0.86000001    2.36999989
   12.54222298  203.82400513    0.86000001    2.36999989
   12.54638958  189.62800598    0.86000001    2.36999989
   12.54972267  173.72700500    0.86000001    2.36999989
   12.55305576  179.32499695    0.86000001    2.36999989
   12.55611134  207.63499451    0.88000000    2.36999989
   12.55944443  195.80700684    0.88000000    2.36999989
   12.56055546  174.70799255    0.88000000    2.36999989
   12.56277752  173.79200745    0.88000000    2.36999989
   12.56611156  169.71299744    0.88000000    2.36999989
   12.56944466  172.05200195    0.88000000    2.36999989
   12.57250023  170.50399780    0.88000000    2.36999989
   12.57583332  170.97300720    0.89999998    2.39000010
   12.57916641  181.76100159    0.89999998    2.39000010
   12.58527756  181.76100159    0.89999998    2.39000010
   12.58944416  177.04600525    0.89999998    2.39000010
   12.59249973  177.36700439    0.89999998    2.39000010
   12.59388828  180.22799683    0.89999998    2.39000010
   12.59638882  175.23800659    0.89999998    2.39000010
   12.59972191  178.17900085    0.89999998    2.39000010
   12.60277843  194.32400513    0.89999998    2.39000010
   12.60611153  181.39900208    0.88000000    2.39000010
   12.60916710  202.17399597    0.88000000    2.39000010
   12.61250019  199.09300232    0.88000000    2.39000010
   12.61583328  189.85899353    0.88000000    2.39000010
   12.61888885  187.27099609    0.88000000    2.39000010
   12.62222195  198.81900024    0.88000000    2.39000010
   12.62805557  198.81900024    0.88000000    2.39000010
   12.63222218  194.13099670    0.88000000    2.39000010
   12.63527775  173.65499878    0.88000000    2.39000010
   12.63861084  177.99899292    0.88000000    2.40000010
   12.64194393  168.46800232    0.88000000    2.39000010
   12.64499950  174.84800720    0.88000000    2.40000010
   12.64833355  165.96400452    0.88000000    2.40000010
   12.65166664  158.54600525    0.88000000    2.39000010
   12.65472221  170.52900696    0.88000000    2.40000010
   12.65805531  156.69900513    0.88000000    2.39000010
   12.66055489  157.70399475    0.88000000    2.39000010
   12.66166592  173.25500488    0.88000000    2.39000010
   12.66472149  180.33599854    0.88000000    2.40000010
   12.67083359  180.33599854    0.86000001    2.40000010
   12.67500019  177.16499329    0.86000001    2.40000010
   12.67833328  169.00799561    0.88000000    2.40000010
   12.68138885  156.28700256    0.88000000    2.40000010
   12.68472195  160.74499512    0.86000001    2.40000010
   12.68805599  150.13200378    0.86000001    2.40000010
   12.69111156  187.47799683    0.83999997    2.40000010
   12.69388866  188.96400452    0.83999997    2.40000010
   12.69472218  175.49099731    0.83999997    2.40000010
   12.69805527  183.99899292    0.81999999    2.40000010
   12.70138836  178.57600403    0.81999999    2.40000010
   12.70444393  167.14799500    0.83999997    2.40000010
   12.70777798  178.55900574    0.81999999    2.40000010
   12.71388912  178.55900574    0.81999999    2.40000010
   12.71777725  173.21299744    0.81999999    2.40000010
   12.72111034  181.21600342    0.83999997    2.42000008
   12.72444439  177.74899292    0.83999997    2.42000008
   12.72722149  179.81900024    0.83999997    2.42000008
   12.72777748  185.39199829    0.83999997    2.42000008
   12.73111057  168.08599854    0.86000001    2.42000008
   12.73444462  159.59100342    0.83999997    2.42000008
   12.73750019  160.54200745    0.83999997    2.42000008
   12.74083328  172.02000427    0.83999997    2.42000008
   12.74416733  184.25900269    0.83999997    2.42000008
   12.74722290  172.00799561    0.83999997    2.42000008
   12.75055599  171.93400574    0.83999997    2.42000008
   12.75666714  171.93400574    0.83999997    2.42000008
   12.76083374  156.93699646    0.83999997    2.42000008
   12.76388931  164.50900269    0.81999999    2.42000008
   12.76722240  180.37199402    0.81999999    2.42000008
   12.77027798  168.96899414    0.81999999    2.42000008
   12.77361107  173.14399719    0.80000001    2.42000008
   12.77694416  178.05299377    0.81999999    2.42000008
   12.77999973  175.02099609    0.80000001    2.44000006
   12.78333378  190.25199890    0.80000001    2.44000006
   12.78666687  184.61599731    0.80000001    2.44000006
   12.78972244  181.12800598    0.81999999    2.44000006
   12.79305553  186.46299744    0.81999999    2.42000008
   12.79388905  163.11300659    0.81999999    2.42000008
   12.81444454  163.11300659    0.83999997    2.44000006
   12.81861115  175.67500305    0.86000001    2.44000006
   12.82194424  168.99000549    0.86000001    2.44000006
   12.82499981  169.13900757    0.88000000    2.44000006
   12.82722187  172.01100159    0.88000000    2.44000006
   12.82861137  160.76199341    0.88000000    2.44000006
   12.83194447  165.26400757    0.88000000    2.44000006
   12.83527756  165.41900635    0.88000000    2.44000006
   12.83833313  147.92399597    0.86000001    2.44000006
   12.84166622  152.99400330    0.86000001    2.44000006
   12.84499931  158.47399902    0.88000000    2.46000004
   12.84805489  151.43899536    0.88000000    2.46000004
   12.85138893  152.31300354    0.86000001    2.44000006
   12.85722256  152.31300354    0.83999997    2.44000006
   12.86138916  166.82600403    0.81999999    2.44000006
   12.86472225  160.01199341    0.81999999    2.44000006
   12.86777782  169.32499695    0.81999999    2.44000006
   12.87111092  164.80700684    0.81999999    2.44000006
   12.87416649  152.13099670    0.81999999    2.46000004
   12.87750053  156.32899475    0.81999999    2.44000006
   12.88083363  152.02400208    0.81999999    2.46000004
   12.88388920  151.20899963    0.81999999    2.46000004
   12.88722229  157.86900330    0.81999999    2.44000006
   12.89055538  143.72999573    0.81999999    2.44000006
   12.89361095  152.86999512    0.81999999    2.46000004
   12.89416695  159.44999695    0.81999999    2.46000004
   12.89999962  159.44999695    0.81999999    2.46000004
   12.90416622  150.61399841    0.83999997    2.46000004
   12.90749931  164.80999756    0.81999999    2.46000004
   12.91055489  149.09300232    0.81999999    2.46000004
   12.91388893  150.81700134    0.80000001    2.46000004
   12.91722298  151.09300232    0.80000001    2.46000004
   12.92027855  153.02200317    0.80000001    2.46000004
   12.92361164  146.92199707    0.79000002    2.46000004
   12.92694473  146.92199707    0.76999998    2.46000004
   12.92750072  155.14799500    0.76999998    2.46000004
   12.93055630  158.45300293    0.76999998    2.46000004
   12.93388939  151.94900513    0.76999998    2.46000004
   12.93694496  142.37899780    0.76999998    2.46000004
   12.94305515  142.37899780    0.75000000    2.46000004
   12.94722271  150.97000122    0.75000000    2.46000004
   12.95027733  159.35200500    0.75000000    2.46000004
   12.95361137  155.66000366    0.75000000    2.48000002
   12.95694447  140.45899963    0.75000000    2.46000004
   12.96000004  152.65199280    0.75000000    2.48000002
   12.96083355  150.00399780    0.75000000    2.48000002
   12.96361065  147.00799561    0.76999998    2.46000004
   12.96666622  147.40800476    0.76999998    2.46000004
   12.96999931  147.83900452    0.76999998    2.46000004
   12.97333336  152.36799622    0.79000002    2.48000002
   12.97638798  158.80400085    0.79000002    2.48000002
   12.97972202  141.16600037    0.79000002    2.46000004
   12.98583317  141.16600037    0.80000001    2.48000002
   12.99000072  143.85899353    0.80000001    2.48000002
   12.99333382  148.74299622    0.80000001    2.48000002
   12.99416733  143.56500244    0.80000001    2.48000002
   12.99694443  143.58399963    0.80000001    2.48000002
   13.00027752  148.27099609    0.80000001    2.48000002
   13.00333309  146.02499390    0.80000001    2.48000002
   13.00666714  148.37899780    0.81999999    2.46000004
   13.01000023  143.56599426    0.81999999    2.46000004
   13.01305580  146.96699524    0.81999999    2.46000004
   13.01638889  141.83999634    0.80000001    2.46000004
   13.01944447  146.60200500    0.81999999    2.48000002
   13.02277756  146.78500366    0.81999999    2.48000002
   13.02861118  146.78500366    0.80000001    2.48000002
   13.03277779  147.94299316    0.80000001    2.48000002
   13.03611183  154.37899780    0.80000001    2.48000002
   13.03916740  152.68600464    0.80000001    2.48000002
   13.04250050  148.98300171    0.80000001    2.48000002
   13.04583359  162.11599731    0.80000001    2.48000002
   13.04888916  152.17900085    0.80000001    2.48000002
   13.05222225  145.15899658    0.80000001    2.48000002
   13.05555534  147.25999451    0.80000001    2.48000002
   13.05861092  150.83900452    0.80000001    2.48000002
   13.06083393  143.41799927    0.79000002    2.48000002
   13.06222248  147.51600647    0.79000002    2.48000002
   13.06555557  135.63800049    0.79000002    2.48000002
   13.07166672  135.63800049    0.76999998    2.48000002
   13.07555580  150.80000305    0.76999998    2.48000002
   13.07888889  167.80999756    0.76999998    2.50000000
   13.08222198  145.85200500    0.76999998    2.50000000
   13.08527756  153.90699768    0.76999998    2.50000000
   13.08861065  149.74600220    0.76999998    2.50000000
   13.09166622  164.75399780    0.76999998    2.50000000
   13.09416676  159.82800293    0.76999998    2.50000000
   13.09555531  157.27200317    0.76999998    2.50000000
   13.09861088  155.50999451    0.76999998    2.50000000
   13.10194492  159.52799988    0.76999998    2.50000000
   13.10527802  154.96600342    0.76999998    2.50000000
   13.10833359  166.20399475    0.79000002    2.50000000
   13.11444473  166.20399475    0.79000002    2.50000000
   13.11833382  173.27000427    0.80000001    2.50000000
   13.12194443  163.58299255    0.80000001    2.50000000
   13.12500000  162.91600037    0.80000001    2.50000000
   13.12750053  177.29600525    0.80000001    2.50000000
   13.12861156  168.86000061    0.80000001    2.50000000
   13.13166714  177.43499756    0.80000001    2.50000000
   13.13500023  159.23199463    0.80000001    2.50000000
   13.13833332  189.63800049    0.80000001    2.50000000
   13.14138889  171.60800171    0.80000001    2.50000000
   13.14472198  176.25000000    0.80000001    2.50000000
   13.14805508  172.79200745    0.79000002    2.50000000
   13.15111065  182.41600037    0.79000002    2.50000000
   13.15722179  182.41600037    0.79000002    2.51999998
   13.16138840  163.87100220    0.79000002    2.51999998
   13.16444397  169.91099548    0.79000002    2.50000000
   13.16777802  165.19999695    0.79000002    2.50000000
   13.17111111  155.54899597    0.79000002    2.50000000
   13.17416668  171.33099365    0.79000002    2.50000000
   13.17750072  174.02799988    0.79000002    2.51999998
   13.18055630  159.72700500    0.79000002    2.51999998
   13.18388939  169.51600647    0.79000002    2.51999998
   13.18722248  165.73300171    0.79000002    2.50000000
   13.19027805  180.73500061    0.76999998    2.51999998
   13.19361115  166.75199890    0.76999998    2.51999998
   13.19416714  172.21699524    0.76999998    2.51999998
   13.19999981  172.21699524    0.76999998    2.50000000
   13.20416641  159.21899414    0.79000002    2.51999998
   13.20749950  161.88800049    0.79000002    2.51999998
   13.21055508  165.98899841    0.79000002    2.51999998
   13.21388912  160.96099854    0.80000001    2.51999998
   13.21694374  163.84500122    0.80000001    2.51999998
   13.22027779  160.23300171    0.80000001    2.51999998
   13.22361088  170.87199402    0.80000001    2.50000000
   13.22666645  169.64900208    0.80000001    2.51999998
   13.22749996  162.63400269    0.80000001    2.51999998
   13.23027706  165.84599304    0.81999999    2.51999998
   13.23333359  164.28199768    0.81999999    2.51999998
   13.23666668  169.56700134    0.81999999    2.51999998
   13.24277782  169.56700134    0.81999999    2.51999998
   13.24694443  159.75700378    0.81999999    2.51999998
   13.25027752  169.23899841    0.81999999    2.51999998
   13.25333309  166.29800415    0.81999999    2.51999998
   13.25666714  159.59399414    0.81999999    2.51999998
   13.26000023  163.93699646    0.81999999    2.51999998
   13.26083374  153.38999939    0.81999999    2.51999998
   13.26361084  155.97700500    0.81999999    2.51999998
   13.26694393  154.50999451    0.81999999    2.51999998
   13.26999950  153.55700684    0.80000001    2.51999998
   13.27333355  153.08999634    0.80000001    2.51999998
   13.27666664  149.19400024    0.81999999    2.51999998
   13.27972221  146.15899658    0.80000001    2.51999998
   13.28583336  146.15899658    0.80000001    2.51999998
   13.29000092  145.67599487    0.80000001    2.51999998
   13.29305553  136.48500061    0.79000002    2.53999996
   13.29416752  152.95100403    0.79000002    2.53999996
   13.29666710  145.11300659    0.79000002    2.53999996
   13.30000019  142.21000671    0.79000002    2.51999998
   13.30305576  145.54800415    0.79000002    2.51999998
   13.30638885  139.47099304    0.79000002    2.53999996
   13.30972195  141.82800293    0.76999998    2.53999996
   13.31277752  137.11999512    0.76999998    2.53999996
   13.31611156  140.10699463    0.76999998    2.53999996
   13.31916618  150.06799316    0.75000000    2.53999996
   13.32250023  137.32200623    0.75000000    2.53999996
   13.32861137  137.32200623    0.73000002    2.53999996
   13.33277798  140.69999695    0.73000002    2.53999996
   13.33583260  152.61000061    0.75000000    2.53999996
   13.33916664  134.72799683    0.73000002    2.53999996
   13.34249973  152.94900513    0.73000002    2.53999996
   13.34555531  149.32200623    0.73000002    2.53999996
   13.34888840  159.75500488    0.73000002    2.53999996
   13.35222244  168.84500122    0.73000002    2.53999996
   13.35527802  159.14199829    0.73000002    2.53999996
   13.35861111  144.92900085    0.73000002    2.53999996
   13.36083412  158.37899780    0.76999998    2.55999994
   13.36222267  153.36900330    0.76999998    2.55999994
   13.36555576  142.72000122    0.79000002    2.53999996
   13.37138939  142.72000122    0.76999998    2.53999996
   13.37555599  135.96800232    0.76999998    2.53999996
   13.37888908  154.58599854    0.76999998    2.53999996
   13.38194466  141.45300293    0.76999998    2.53999996
   13.38527775  133.49299622    0.76999998    2.53999996
   13.38861084  135.04600525    0.75000000    2.53999996
   13.39166641  132.97099304    0.73000002    2.53999996
   13.39444447  139.20599365    0.70999998    2.53999996
   13.39527798  144.69900513    0.70999998    2.53999996
   13.39861107  156.74600220    0.69000000    2.55999994
   13.40194416  150.22000122    0.69000000    2.55999994
   13.40499973  162.33700562    0.73000002    2.53999996
   13.40833282  170.34199524    0.73000002    2.53999996
   13.41416645  170.34199524    0.76999998    2.53999996
   13.41833401  149.77099609    0.79000002    2.55999994
   13.42166710  152.21499634    0.79000002    2.55999994
   13.42500019  164.03599548    0.79000002    2.53999996
   13.42777824  150.55099487    0.76999998    2.53999996
   13.42861176  168.48599243    0.76999998    2.53999996
   13.43166733  150.56399536    0.75000000    2.55999994
   13.43500042  139.28599548    0.76999998    2.53999996
   13.43805599  150.13400269    0.76999998    2.53999996
   13.44138908  135.50100708    0.76999998    2.53999996
   13.44472218  145.41400146    0.76999998    2.55999994
   13.44777775  148.33000183    0.76999998    2.53999996
   13.45111084  131.67100525    0.70999998    2.55999994
   13.45722198  131.67100525    0.70999998    2.55999994
   13.46138859  135.88099670    0.73000002    2.55999994
   13.46472168  144.19099426    0.73000002    2.55999994
   13.46777725  140.88699341    0.73000002    2.55999994
   13.47111034  143.28300476    0.75000000    2.55999994
   13.47444439  154.56900024    0.75000000    2.55999994
   13.47749996  136.68800354    0.75000000    2.55999994
   13.48083305  137.17799377    0.76999998    2.55999994
   13.48388958  139.03399658    0.76999998    2.55999994
   13.48722267  133.52699280    0.76999998    2.55999994
   13.49055576  142.28799438    0.76999998    2.55999994
   13.49361134  131.12500000    0.76999998    2.55999994
   13.49444485  140.69799805    0.76999998    2.55999994
   13.50000000  140.69799805    0.79000002    2.55999994
   13.50416660  147.36099243    0.79000002    2.55999994
   13.50722218  144.13299561    0.79000002    2.55999994
   13.51055527  137.25000000    0.79000002    2.55999994
   13.51388931  138.21400452    0.80000001    2.55999994
   13.51694393  142.61799622    0.80000001    2.55999994
   13.52027798  144.45100403    0.81999999    2.55999994
   13.52333355  135.25000000    0.83999997    2.55999994
   13.52666664  142.59599304    0.81999999    2.55999994
   13.52777767  152.52499390    0.81999999    2.55999994
   13.53027725  147.49099731    0.81999999    2.55999994
   13.53361130  144.33599854    0.81999999    2.55999994
   13.53666687  138.27900696    0.80000001    2.55999994
   13.54277802  138.27900696    0.79000002    2.55999994
   13.54694462  144.99000549    0.79000002    2.55999994
   13.55027771  132.27200317    0.79000002    2.55999994
   13.55361176  144.06300354    0.79000002    2.55999994
   13.55666733  134.05099487    0.79000002    2.57999992
   13.56000042  137.41499329    0.81999999    2.57999992
   13.56111145  139.42199707    0.81999999    2.57999992
   13.56361103  128.61399841    0.83999997    2.57999992
   13.56694412  125.14299774    0.81999999    2.55999994
   13.56999969  135.87100220    0.81999999    2.57999992
   13.57333374  142.06399536    0.83999997    2.57999992
   13.57666683  139.47399902    0.86000001    2.55999994
   13.57972240  139.18800354    0.86000001    2.55999994
   13.58555508  139.18800354    0.86000001    2.55999994
   13.58972168  147.95700073    0.81999999    2.55999994
   13.59305477  138.59500122    0.81999999    2.55999994
   13.59444427  132.52299500    0.83999997    2.57999992
   13.59666634  132.96600342    0.83999997    2.57999992
   13.60000038  135.31300354    0.83999997    2.57999992
   13.60305595  127.67600250    0.83999997    2.55999994
   13.60638905  125.54100037    0.81999999    2.57999992
   13.60972214  134.17700195    0.80000001    2.57999992
   13.61277771  136.72200012    0.79000002    2.57999992
   13.61611176  141.50799561    0.79000002    2.57999992
   13.61944485  147.78199768    0.79000002    2.57999992
   13.62250042  142.22200012    0.79000002    2.57999992
   13.62861156  142.22200012    0.76999998    2.57999992
   13.63249969  142.91200256    0.76999998    2.57999992
   13.63583279  142.59399414    0.80000001    2.57999992
   13.63916683  140.23500061    0.81999999    2.55999994
   13.64222240  141.48399353    0.83999997    2.57999992
   13.64555550  136.16299438    0.83999997    2.57999992
   13.64888859  133.07299805    0.86000001    2.57999992
   13.65194416  133.13999939    0.86000001    2.57999992
   13.65527725  138.60099792    0.92000002    2.57999992
   13.65861034  134.20799255    0.94000000    2.57999992
   13.66111088  137.18699646    0.94000000    2.57999992
   13.66194439  141.47300720    0.94000000    2.57999992
   13.66527748  137.68400574    0.94000000    2.57999992
   13.67138958  137.68400574    0.95999998    2.57999992
   13.67555618  124.73799896    0.98000002    2.57999992
   13.67861176  140.63000488    1.00000000    2.57999992
   13.68194485  131.53300476    1.03999996    2.57999992
   13.68527794  126.06300354    1.03999996    2.57999992
   13.68833351  128.74899292    1.03999996    2.57999992
   13.69166660  122.37699890    1.03999996    2.57999992
   13.69444466  118.48899841    1.05999994    2.59999990
   13.69527817  122.80999756    1.05999994    2.59999990
   13.69861126  124.87000275    1.07000005    2.59999990
   13.70194435  128.13699341    1.11000001    2.57999992
   13.70499992  124.53700256    1.11000001    2.57999992
   13.70833302  130.02499390    1.13000000    2.57999992
   13.71416664  130.02499390    1.11000001    2.57999992
   13.71833324  125.73200226    1.11000001    2.57999992
   13.72166634  121.39099884    1.11000001    2.57999992
   13.72472191  121.95999908    1.13000000    2.57999992
   13.72777748  134.66900635    1.13000000    2.59999990
   13.72833252  136.11900330    1.13000000    2.59999990
   13.73166656  139.50900269    1.09000003    2.57999992
   13.73500061  127.38300323    1.03999996    2.59999990
   13.73805618  139.68600464    1.03999996    2.57999992
   13.74138927  127.72799683    1.03999996    2.57999992
   13.74444485  125.40299988    1.03999996    2.57999992
   13.74777794  134.20300293    1.03999996    2.57999992
   13.75111103  131.30200195    1.01999998    2.57999992
   13.75694466  131.30200195    0.98000002    2.57999992
   13.76111126  128.35600281    0.95999998    2.59999990
   13.76444435  129.74000549    0.94000000    2.59999990
   13.76777744  141.07400513    0.89999998    2.59999990
   13.77083302  133.07499695    0.89999998    2.59999990
   13.77416611  146.06300354    0.89999998    2.59999990
   13.77722168  130.97200012    0.89999998    2.57999992
   13.78055573  131.20700073    0.89999998    2.59999990
   13.78388977  132.79299927    0.89999998    2.59999990
   13.78694534  135.09899902    0.89999998    2.59999990
   13.79027843  138.63299561    0.92000002    2.59999990
   13.79361153  135.97000122    0.94000000    2.57999992
   13.79444504  134.52299500    0.94000000    2.57999992
   13.80000019  134.52299500    0.92000002    2.59999990
   13.80416679  123.72499847    0.89999998    2.59999990
   13.80722237  135.07899475    0.88000000    2.59999990
   13.81055546  130.85000610    0.88000000    2.57999992
   13.82805538  141.88699341    0.83999997    2.59999990
   13.83055592  140.61399841    0.86000001    2.59999990
   13.83361053  140.28500366    0.86000001    2.59999990
   13.83694458  128.01600647    0.86000001    2.59999990
   13.84305477  128.01600647    0.92000002    2.59999990
   13.84694386  136.06599426    0.94000000    2.59999990
   13.85027790  125.53199768    0.94000000    2.59999990
   13.85361195  129.47900391    0.95999998    2.59999990
   13.85666752  130.73599243    0.98000002    2.59999990
   13.86000061  118.53099823    0.98000002    2.59999990
   13.86138916  123.80999756    0.98000002    2.59999990
   13.86333370  142.61900330    1.00000000    2.59999990
   13.86666679  136.74600220    1.00000000    2.59999990
   13.86999989  142.63999939    0.95999998    2.59999990
   13.87305546  126.55500031    0.95999998    2.59999990
   13.87638855  129.25300598    0.95999998    2.59999990
   13.87972260  128.08500671    0.95999998    2.59999990
   13.88583279  128.08500671    1.01999998    2.59999990
   13.89000034  119.35099792    1.03999996    2.59999990
   13.89305496  119.26499939    1.05999994    2.59999990
   13.89472198  128.69400024    1.05999994    2.59999990
   13.89666653  125.25399780    1.05999994    2.59999990
   13.89999962  130.30200195    1.03999996    2.59999990
   13.90333271  126.56400299    1.01999998    2.59999990
   13.90638828  119.93099976    1.03999996    2.61999989
   13.90972137  116.75099945    1.01999998    2.59999990
   13.91305542  123.00299835    1.01999998    2.59999990
   13.91611099  126.40200043    1.01999998    2.61999989
   13.91944504  119.85399628    1.01999998    2.61999989
   13.92250061  133.73699951    1.01999998    2.61999989
   13.92861176  133.73699951    1.03999996    2.59999990
   13.93277836  127.57700348    1.05999994    2.59999990
   13.93583298  128.82800293    1.05999994    2.59999990
   13.93916702  121.73300171    1.05999994    2.59999990
   13.94250011  119.74500275    1.14999998    2.59999990
   13.94555569  141.66799927    1.19000006    2.59999990
   13.94888878  134.83399963    1.19000006    2.59999990
   13.95194435  126.35900116    1.16999996    2.61999989
   13.95527744  128.05700684    1.16999996    2.61999989
   13.95861053  137.56700134    1.14999998    2.59999990
   13.96138859  119.86499786    1.13000000    2.61999989
   13.96194458  130.35600281    1.13000000    2.61999989
   13.96527767  128.48500061    1.14999998    2.59999990
   13.97138882  128.48500061    1.16999996    2.59999990
   13.97555542  128.38299561    1.19000006    2.59999990
   13.97861099  123.18299866    1.19000006    2.59999990
   13.98194408  118.08200073    1.14999998    2.61999989
   13.98527813  132.89300537    1.11000001    2.59999990
   13.98833370  129.54899597    1.05999994    2.61999989
   13.99166679  129.65100098    1.05999994    2.59999990
   13.99472237  154.25300598    1.05999994    2.59999990
   13.99527836  149.43099976    1.05999994    2.59999990
   13.99861145  123.11900330    1.05999994    2.61999989
   14.00194454  126.70099640    1.07000005    2.61999989
   14.00500011  135.12500000    1.30999994    2.61999989
   14.00833321  133.62199402    1.33000004    2.61999989
   14.01416683  133.62199402    1.30999994    2.59999990
   14.01833344  128.36900330    1.33000004    2.59999990
   14.02166653  119.21299744    1.33000004    2.61999989
   14.02472210  113.28700256    1.26999998    2.61999989
   14.02805519  118.80300140    1.26999998    2.61999989
   14.02833271  126.95500183    1.13000000    2.59999990
   14.03166676  143.87800598    1.13000000    2.59999990
   14.03472233  121.37100220    1.03999996    2.61999989
   14.03805637  133.81599426    1.01999998    2.59999990
   14.04138947  128.44099426    1.00000000    2.61999989
   14.04444504  120.46600342    1.00000000    2.61999989
   14.04777813  147.63900757    0.89999998    2.61999989
   14.05111122  131.89599609    0.89999998    2.61999989
   14.05694485  131.89599609    1.00000000    2.61999989
   14.06111145  135.89700317    1.01999998    2.61999989
   14.06166649  124.27799988    1.01999998    2.61999989
   14.06500053  120.43099976    1.01999998    2.61999989
   14.06805515  120.39700317    1.03999996    2.61999989
   14.07138920  133.25100708    1.05999994    2.61999989
   14.07472229  128.41200256    1.07000005    2.59999990
   14.07777786  134.17199707    1.09000003    2.61999989
   14.08111095  117.72299957    1.09000003    2.61999989
   14.08444405  128.47799683    1.05999994    2.61999989
   14.08749962  125.66300201    1.05999994    2.61999989
   14.09083271  128.95700073    1.03999996    2.61999989
   14.09416676  133.95799255    1.03999996    2.61999989
   14.09499931  138.31199646    1.03999996    2.61999989
   14.10000038  138.31199646    1.07000005    2.61999989
   14.10416698  135.12199402    1.14999998    2.61999989
   14.10722256  133.03500366    1.19000006    2.61999989
   14.11055565  135.51600647    1.21000004    2.61999989
   14.11361122  122.95899963    1.23000002    2.61999989
   14.11694431  122.37100220    1.21000004    2.61999989
   14.12027836  138.92199707    1.19000006    2.61999989
   14.12333393  111.24700165    1.19000006    2.61999989
   14.12666702  122.73899841    1.19000006    2.61999989
   14.12833309  125.77899933    1.19000006    2.61999989
   14.13027763  134.94599915    1.19000006    2.61999989
   14.13333321  124.27300262    1.19000006    2.61999989
   14.13666630  113.55300140    1.21000004    2.61999989
   14.14277744  113.55300140    1.28999996    2.61999989
   14.14694405  113.85500336    1.36000001    2.61999989
   14.14999962  122.46900177    1.38000000    2.61999989
   14.15333271  121.62200165    1.39999998    2.61999989
   14.15666676  134.44999695    1.39999998    2.61999989
   14.15972137  121.89900208    1.39999998    2.61999989
   14.16166592  122.93099976    1.39999998    2.61999989
   14.16333294  121.61599731    1.39999998    2.61999989
   14.16638851  123.91899872    1.46000004    2.61999989
   14.16972256  118.31400299    1.46000004    2.61999989
   14.17305565  115.76499939    1.46000004    2.61999989
   14.17638874  123.89600372    1.46000004    2.61999989
   14.17944431  122.18699646    1.46000004    2.61999989
   14.18555546  122.18699646    1.53999996    2.61999989
   14.18972206  124.88099670    1.53999996    2.61999989
   14.19305515  139.17500305    1.53999996    2.61999989
   14.19499969  114.81199646    1.48000002    2.61999989
   14.19666672  120.08999634    1.48000002    2.61999989
   14.19999981  113.27200317    1.46000004    2.61999989
   14.20305538  112.43099976    1.60000002    2.61999989
   14.20638847  128.11500549    1.61000001    2.61999989
   14.20972157  125.21600342    1.60000002    2.61999989
   14.21277714  126.59600067    1.69000006    2.61999989
   14.21611118  134.44900513    1.83000004    2.61999989
   14.21944427  123.15899658    1.83000004    2.61999989
   14.22249985  116.90899658    1.98000002    2.61999989
   14.22861099  116.90899658    2.19000006    2.61999989
   14.23277760  116.96600342    2.26999998    2.61999989
   14.23583317  123.42700195    2.21000004    2.61999989
   14.23916721  117.79499817    2.13000011    2.61999989
   14.24222279  127.29799652    2.07999992    2.59999990
   14.24555588  113.16300201    2.05999994    2.61999989
   14.24888897  120.57299805    2.03999996    2.61999989
   14.25194454  117.18099976    2.03999996    2.61999989
   14.25527763  125.90299988    1.98000002    2.64000010
   14.25861073  118.06800079    1.96000004    2.64000010
   14.26166630  117.57900238    1.98000002    2.64000010
   14.26222229  117.21199799    1.98000002    2.64000010
   14.26555538  121.67800140    1.96000004    2.64000010
   14.27138901  121.67800140    1.89999998    2.61999989
   14.27555561  123.66699982    1.80999994    2.64000010
   14.27861118  113.10299683    1.83000004    2.61999989
   14.28194427  114.24299622    1.80999994    2.64000010
   14.28527832  119.31099701    1.73000002    2.61999989
   14.28833389  126.65899658    1.69000006    2.64000010
   14.29166698  125.53399658    1.66999996    2.61999989
   14.29500008  121.92400360    1.66999996    2.64000010
   14.29555607  121.91999817    1.66999996    2.64000010
   14.29861164  131.54499817    1.63000000    2.64000010
   14.30166721  126.85299683    1.66999996    2.64000010
   14.30500031  127.98999786    1.66999996    2.64000010
   14.30833340  125.53600311    1.69000006    2.61999989
   14.31416702  125.53600311    1.78999996    2.64000010
   14.31833363  114.04299927    1.78999996    2.64000010
   14.32166672  127.61399841    1.75000000    2.64000010
   14.32472229  117.87000275    1.75000000    2.64000010
   14.32805538  123.88999939    1.71000004    2.61999989
   14.32888889  122.34600067    1.64999998    2.61999989
   14.33166695  121.55799866    1.64999998    2.61999989
   14.33500004  138.57000732    1.61000001    2.64000010
   14.33805561  129.29600525    1.61000001    2.64000010
   14.34194374  125.83999634    1.60000002    2.64000010
   14.34499931  122.37699890    1.61000001    2.64000010
   14.34833336  136.50300598    1.46000004    2.61999989
   14.35138893  119.15000153    1.39999998    2.64000010
   14.35722256  119.15000153    1.41999996    2.64000010
   14.36138916  126.37000275    1.60000002    2.64000010
   14.36250019  118.51799774    1.60000002    2.64000010
   14.36472225  122.11100006    1.66999996    2.64000010
   14.36805534  122.80200195    1.66999996    2.64000010
   14.37111092  129.34599304    1.63000000    2.64000010
   14.37444496  131.78599548    1.48000002    2.64000010
   14.37777805  134.68299866    1.44000006    2.64000010
   14.38083363  131.74099731    1.48000002    2.64000010
   14.38416672  114.45300293    1.46000004    2.64000010
   14.38749981  125.49099731    1.48000002    2.64000010
   14.39055538  132.94700623    1.48000002    2.64000010
   14.39388847  129.61799622    1.41999996    2.64000010
   14.39583302  123.14600372    1.41999996    2.64000010
   14.39999962  123.14600372    1.41999996    2.64000010
   14.40416622  121.30100250    1.41999996    2.64000010
   14.40722179  123.69200134    1.41999996    2.64000010
   14.41055489  131.93800354    1.39999998    2.64000010
   14.41388893  126.40799713    1.44000006    2.64000010
   14.41722298  127.62999725    1.46000004    2.64000010
   14.42027855  139.42700195    1.50000000    2.64000010
   14.42333412  129.79200745    1.53999996    2.64000010
   14.42666721  131.84399414    1.53999996    2.64000010
   14.42888927  135.34800720    1.53999996    2.64000010
   14.43027782  126.68000031    1.53999996    2.64000010
   14.43333340  124.14299774    1.60000002    2.64000010
   14.43666649  129.59300232    1.58000004    2.64000010
   14.44277763  129.59300232    1.69000006    2.64000010
   14.44694424  125.17099762    1.66999996    2.64000010
   14.45027733  119.46099854    1.64999998    2.64000010
   14.45333290  136.06199646    1.64999998    2.64000010
   14.45666695  117.10199738    1.69000006    2.64000010
   14.45972157  127.35900116    1.66999996    2.64000010
   14.46222210  124.83599854    1.64999998    2.64000010
   14.46361065  125.64199829    1.64999998    2.64000010
   14.46666622  103.17500305    1.73000002    2.64000010
   14.46999931  121.26999664    1.76999998    2.64000010
   14.47333336  116.66999817    1.83000004    2.64000010
   14.47638798  116.20099640    1.83000004    2.64000010
   14.47972202  125.37100220    1.80999994    2.64000010
   14.48555565  125.37100220    1.85000002    2.64000010
   14.48972225  125.97200012    1.89999998    2.64000010
   14.49305534  124.00099945    1.91999996    2.64000010
   14.49555588  120.55500031    1.91999996    2.64000010
   14.49666691  124.53900146    1.91999996    2.64000010
   14.50000000  121.20899963    1.88000000    2.64000010
   14.50305557  135.57400513    1.89999998    2.64000010
   14.50638866  122.05699921    1.85000002    2.64000010
   14.50944424  119.32399750    1.85000002    2.64000010
   14.51277733  114.27100372    1.85000002    2.64000010
   14.51611137  124.49299622    1.80999994    2.64000010
   14.51916599  124.24199677    1.86000001    2.64000010
   14.52250004  121.67700195    2.21000004    2.64000010
   14.52833271  121.67700195    2.42000008    2.64000010
   14.53249931  124.68800354    2.51999998    2.64000010
   14.53583336  121.11100006    2.50000000    2.64000010
   14.53888893  119.49900055    2.53999996    2.61999989
   14.54222298  126.40899658    2.40000010    2.64000010
   14.54555607  122.65000153    2.30999994    2.64000010
   14.54861164  114.36000061    2.21000004    2.64000010
   14.55194473  117.94899750    2.28999996    2.64000010
   14.55500031  117.37100220    2.36999989    2.64000010
   14.55833340  125.94499969    2.32999992    2.66000009
   14.56166649  117.70200348    2.44000006    2.64000010
   14.56333351  113.96099854    2.50000000    2.64000010
   14.56527805  117.48799896    2.51999998    2.64000010
   14.57138920  117.48799896    2.78999996    2.64000010
   14.57527733  112.82199860    2.78999996    2.64000010
   14.57861137  117.08999634    2.42000008    2.64000010
   14.58194447  119.80500031    2.30999994    2.64000010
   14.58500004  114.23300171    2.25000000    2.64000010
   14.58833313  117.80799866    2.13000011    2.64000010
   14.59166622  121.39299774    1.96000004    2.64000010
   14.59472179  119.29399872    2.01999998    2.66000009
   14.59666634  127.42600250    1.96000004    2.64000010
   14.59833336  124.46700287    1.89999998    2.66000009
   14.60166740  128.43099976    1.83000004    2.64000010
   14.60472298  125.65699768    1.80999994    2.64000010
   14.60805607  120.76399994    1.85000002    2.64000010
   14.61416721  120.76399994    1.91999996    2.64000010
   14.61833382  130.89300537    1.96000004    2.64000010
   14.62138939  121.97599792    1.78999996    2.64000010
   14.62472248  125.52200317    1.58000004    2.66000009
   14.62805557  115.27600098    1.36000001    2.66000009
   14.63027763  125.32099915    1.28999996    2.66000009
   14.63166714  120.99400330    1.28999996    2.66000009
   14.63472176  120.76899719    1.26999998    2.67000008
   14.63805580  122.10299683    1.16999996    2.66000009
   14.64138889  128.02600098    1.16999996    2.66000009
   14.64444447  119.89600372    1.07000005    2.66000009
   14.64777756  129.34100342    1.00000000    2.66000009
   14.65111065  119.44999695    1.07000005    2.66000009
   14.65694427  119.44999695    1.14999998    2.66000009
   14.66111088  118.65200043    1.09000003    2.66000009
   14.66361046  120.23899841    1.09000003    2.66000009
   14.66472149  121.66999817    1.21000004    2.66000009
   14.66805553  122.94899750    1.25000000    2.66000009
   14.67111111  121.40000153    1.25000000    2.66000009
   14.67444515  118.19499969    1.33000004    2.66000009
   14.67750072  115.97100067    1.33000004    2.66000009
   14.68083382  128.39300537    1.30999994    2.66000009
   14.68416691  118.88099670    1.30999994    2.66000009
   14.68722248  127.37699890    1.25000000    2.66000009
   14.69055557  127.53600311    1.25000000    2.66000009
   14.69361115  122.32900238    1.13000000    2.66000009
   14.69972229  122.32900238    1.21000004    2.66000009
   14.70388889  119.51699829    1.14999998    2.66000009
   14.70722198  130.64700317    1.25000000    2.64000010
   14.71027756  125.79199982    1.25000000    2.64000010
   14.71361065  123.78099823    1.39999998    2.66000009
   14.71694374  112.57800293    1.50000000    2.66000009
   14.71999931  122.25599670    1.60000002    2.66000009
   14.72333336  121.60299683    2.07999992    2.64000010
   14.72666645  127.35500336    2.19000006    2.66000009
   14.72972202  118.30000305    2.36999989    2.64000010
   14.73083305  114.30799866    2.32999992    2.64000010
   14.73333359  118.19899750    2.39000010    2.66000009
   14.73666668  120.59100342    2.36999989    2.64000010
   14.74277782  120.59100342    2.07999992    2.66000009
   14.74666691  123.03299713    2.01999998    2.66000009
   14.75000000  123.83399963    2.26999998    2.66000009
   14.75333309  114.20300293    2.39000010    2.66000009
   14.75666714  119.97000122    2.28999996    2.64000010
   14.75972176  118.34700012    1.76999998    2.66000009
   14.76305580  111.91000366    1.63000000    2.66000009
   14.76444435  124.98799896    1.58000004    2.66000009
   14.76666641  126.18399811    1.55999994    2.66000009
   14.76999950  126.33300018    1.86000001    2.64000010
   14.77333355  120.46099854    1.88000000    2.66000009
   14.77638817  124.52400208    1.94000006    2.66000009
   14.77972221  121.67500305    1.91999996    2.66000009
   14.78555584  121.67500305    1.83000004    2.64000010
   14.78972244  121.96099854    1.58000004    2.66000009
   14.79305553  116.32599640    1.38000000    2.66000009
   14.79611111  114.55100250    1.38000000    2.66000009
   14.79750061  114.66600037    1.25000000    2.66000009
   14.79972267  130.33000183    1.25000000    2.66000009
   14.80305576  125.71600342    1.16999996    2.66000009
   14.80611134  125.10500336    1.34000003    2.66000009
   14.80944443  120.68499756    1.73000002    2.66000009
   14.81277752  128.34500122    2.17000008    2.64000010
   14.81583309  129.50799561    2.03999996    2.66000009
   14.81916618  128.13000488    2.13000011    2.66000009
   14.82222176  128.77699280    2.30999994    2.66000009
   14.82833290  128.77699280    2.07999992    2.66000009
   14.84666634  124.94899750    1.76999998    2.66000009
   14.85000038  131.32099915    2.05999994    2.66000009
   14.85305595  122.52100372    2.01999998    2.64000010
   14.85638905  123.51100159    2.01999998    2.66000009
   14.85972214  122.91600037    1.94000006    2.66000009
   14.86277771  123.92199707    1.69000006    2.66000009
   14.86611176  130.89300537    1.34000003    2.66000009
   14.87138939  130.89300537    1.33000004    2.67000008
   14.87555599  138.01600647    1.44000006    2.66000009
   14.87861156  137.30900574    1.50000000    2.66000009
   14.87972260  131.30299377    1.48000002    2.66000009
   14.88249969  135.57499695    1.48000002    2.66000009
   14.88555527  133.16099548    1.44000006    2.66000009
   14.88888836  124.99900055    1.44000006    2.66000009
   14.89222240  140.22900391    1.25000000    2.67000008
   14.89527798  143.02799988    1.13000000    2.66000009
   14.89861107  138.35299683    1.07000005    2.66000009
   14.90166664  139.75500488    1.07000005    2.66000009
   14.90499973  133.02200317    1.07000005    2.67000008
   14.90833282  125.66300201    1.13000000    2.67000008
   14.91416645  125.66300201    1.30999994    2.67000008
   14.91833401  116.09300232    1.39999998    2.66000009
   14.92166710  123.84400177    1.33000004    2.66000009
   14.92472267  122.45400238    1.33000004    2.66000009
   14.92805576  126.92299652    1.21000004    2.66000009
   14.93138885  129.33299255    1.21000004    2.67000008
   14.93472195  120.74299622    1.21000004    2.67000008
   14.93777752  130.12500000    1.23000002    2.67000008
   14.94111156  115.42700195    1.21000004    2.67000008
   14.94416714  114.82199860    1.38000000    2.67000008
   14.94638920  120.68099976    1.38000000    2.67000008
   14.94805527  134.38099670    1.25000000    2.66000009
   14.95111084  120.85199738    2.13000011    2.66000009
   14.95694447  120.85199738    3.16000009    2.64000010
   14.96111107  125.21700287    4.19999981    2.61999989
   14.96444416  130.89399719    4.26000023    2.64000010
   14.96749973  126.38099670    3.70000005    2.64000010
   14.97083282  130.19099426    3.18000007    2.66000009
   14.97416592  125.11900330    1.21000004    2.67000008
   14.97722149  127.20500183    1.07000005    2.67000008
   14.97972202  124.42800140    1.19000006    2.66000009
   14.98111057  132.07800293    1.33000004    2.66000009
   14.98416710  129.38900757    1.33000004    2.66000009
   14.98750019  133.01899719    1.73000002    2.64000010
   14.99055576  133.74699402    2.01999998    2.64000010
   14.99388885  141.20799255    1.85000002    2.66000009
   15.00000000  141.20799255    2.05999994    2.66000009
   15.00416660  140.45899963    2.11999989    2.66000009
   15.00722218  141.55900574    2.76999998    2.64000010
   15.01055527  134.84700012    2.80999994    2.64000010
   15.01305580  136.24600220    3.28999996    2.64000010
   15.01416683  139.31500244    3.30999994    2.64000010
   15.01722240  136.99099731    3.73000002    2.64000010
   15.02055550  149.45899963    3.72000003    2.64000010
   15.02388859  147.03100586    3.78999996    2.64000010
   15.02694416  131.92500305    3.86999989    2.64000010
   15.03027725  139.74299622    3.99000001    2.64000010
   15.03361130  142.89999390    3.86999989    2.64000010
   15.03666687  147.78199768    3.82999992    2.64000010
   15.04277802  147.78199768    2.89000010    2.66000009
   15.04694462  132.50500488    3.32999992    2.64000010
   15.05000019  139.68200684    4.01999998    2.64000010
   15.05333328  139.42900085    4.28999996    2.64000010
   15.05666733  148.77600098    4.42999983    2.64000010
   15.05972195  135.45700073    4.90999985    2.61999989
   15.06305599  144.01400757    4.90999985    2.61999989
   15.06611156  142.82800293    4.90999985    2.61999989
   15.06944466  135.04899597    4.78000021    2.64000010
   15.07277775  139.93400574    4.42999983    2.64000010
   15.07583332  161.54200745    4.53000021    2.61999989
   15.07916641  155.03599548    4.61999989    2.61999989
   15.07972240  150.31700134    4.67999983    2.61999989
   15.08555508  150.31700134    4.30999994    2.66000009
   15.08972168  146.07499695    4.51000023    2.64000010
   15.09305477  155.81900024    4.90999985    2.61999989
   15.09611034  156.52400208    4.90999985    2.61999989
   15.09944439  148.88200378    4.80999994    2.64000010
   15.10249996  147.71299744    4.07999992    2.64000010
   15.10583401  155.57899475    3.84999990    2.66000009
   15.10916710  146.25900269    3.78999996    2.64000010
   15.11222267  145.44299316    3.72000003    2.64000010
   15.11305618  145.87100220    3.18000007    2.66000009
   15.11611176  138.17799377    2.61999989    2.66000009
   15.11916637  138.99000549    1.28999996    2.67000008
   15.12250042  140.03199768    1.51999998    2.67000008
   15.12833309  140.03199768    2.09999990    2.67000008
   15.13249969  138.23100281    2.46000004    2.66000009
   15.13583279  138.72700500    2.39000010    2.66000009
   15.13888836  134.32200623    3.01999998    2.64000010
   15.14222240  140.36599731    3.01999998    2.64000010
   15.14555550  146.99800110    3.14000010    2.66000009
   15.14638901  144.59500122    3.20000005    2.64000010
   15.14916611  140.81700134    3.45000005    2.64000010
   15.15222168  135.63400269    2.59999990    2.66000009
   15.15555477  151.21899414    1.75000000    2.66000009
   15.15888882  149.54699707    1.86000001    2.67000008
   15.16194439  147.09199524    2.30999994    2.66000009
   15.16527748  159.32600403    2.25000000    2.66000009
   15.17138958  159.32600403    2.61999989    2.66000009
   15.17527771  162.21000671    2.15000010    2.66000009
   15.17861176  166.33900452    2.13000011    2.66000009
   15.17972279  161.92999268    3.66000009    2.64000010
   15.18222237  158.95700073    3.09999990    2.64000010
   15.18527794  152.88499451    3.05999994    2.66000009
   15.18861103  157.52000427    3.00000000    2.66000009
   15.19194412  155.13200378    3.59999990    2.64000010
   15.19499969  159.21499634    3.21000004    2.66000009
   15.19833374  154.07200623    3.00000000    2.66000009
   15.20138836  154.03599548    2.40000010    2.67000008
   15.20472240  155.34300232    2.75000000    2.66000009
   15.20805550  140.49899292    3.26999998    2.66000009
   15.21416664  140.49899292    1.46000004    2.67000008
   15.21833324  155.79800415    1.60000002    2.67000008
   15.22138882  150.32099915    1.36000001    2.67000008
   15.22472191  146.16400146    1.46000004    2.66000009
   15.22805500  139.93400574    1.64999998    2.66000009
   15.23111057  144.79400635    1.88000000    2.67000008
   15.23444462  152.00599670    1.78999996    2.67000008
   15.23750019  139.41499329    2.19000006    2.66000009
   15.24083328  148.86599731    2.19000006    2.66000009
   15.24416733  146.03700256    2.26999998    2.66000009
   15.24638939  147.21499634    2.26999998    2.66000009
   15.24777794  157.08200073    2.25000000    2.66000009
   15.25083351  152.17100525    2.25000000    2.66000009
   15.25694466  152.17100525    1.60000002    2.67000008
   15.26111126  148.19200134    1.50000000    2.66000009
   15.26444435  152.04400635    1.33000004    2.67000008
   15.26749992  151.84399414    1.33000004    2.67000008
   15.27083302  157.38099670    1.11000001    2.67000008
   15.27416611  159.73199463    1.07000005    2.67000008
   15.27722168  166.69700623    0.94000000    2.67000008
   15.27972221  163.93299866    0.94000000    2.67000008
   15.28083324  165.53399658    0.86000001    2.67000008
   15.28388977  160.40800476    0.86000001    2.67000008
   15.28722286  156.48100281    0.92000002    2.67000008
   15.29055595  145.84899902    0.79000002    2.67000008
   15.29361153  152.20599365    0.75000000    2.67000008
   15.29972267  152.20599365    0.80000001    2.69000006
   15.30388927  152.66000366    0.79000002    2.67000008
   15.30722237  151.90199280    0.75000000    2.67000008
   15.31027794  147.30499268    0.80000001    2.67000008
   15.31305599  154.76100159    0.80000001    2.67000008
   15.31416702  146.16499329    0.80000001    2.67000008
   15.41805553   -1.00000000   -1.00000000   -1.00000000
   15.63083363   -1.00000000   -1.00000000   -1.00000000
   15.74083328   -1.00000000   -1.00000000   -1.00000000
   15.79333401   83.91000366    1.13000000    2.67000008
   15.79666710  133.35899353    1.11000001    2.69000006
   15.79972267  130.17700195    1.13000000    2.69000006
   15.80305576  165.47399902    1.14999998    2.69000006
   15.80638885  153.78100586    1.14999998    2.69000006
   15.80944443  181.52900696    1.14999998    2.69000006
   15.81361103  181.52900696    1.14999998    2.69000006
   15.81777763  160.75700378    1.19000006    2.69000006
   15.82111073  165.90400696    1.21000004    2.69000006
   15.82416630  170.47500610    1.21000004    2.69000006
   15.82666683  167.94599915    1.16999996    2.69000006
   15.82805538  188.35699463    1.16999996    2.69000006
   15.83111095  159.78599548    1.14999998    2.69000006
   15.83444405  165.60600281    1.11000001    2.69000006
   15.83749962  162.97099304    1.09000003    2.69000006
   15.84083271  156.21800232    1.05999994    2.69000006
   15.84416676  153.26699829    1.05999994    2.69000006
   15.84722233  146.63800049    1.05999994    2.67000008
   15.85055637  165.81700134    1.05999994    2.69000006
   15.85638905  165.81700134    1.09000003    2.69000006
   15.86055565  144.78700256    1.07000005    2.69000006
   15.86388969  147.73599243    1.00000000    2.69000006
   15.86722279  155.75500488    1.00000000    2.69000006
   15.87027836  158.60400391    0.95999998    2.69000006
   15.87361145  138.65199280    1.00000000    2.69000006
   15.87666702  173.58900452    1.07000005    2.69000006
   15.88000011  165.08599854    1.14999998    2.69000006
   15.88333321  166.02000427    1.26999998    2.67000008
   15.88638878  158.48199463    1.26999998    2.67000008
   15.88972187  159.35699463    1.16999996    2.69000006
   15.89305496  171.04299927    1.16999996    2.69000006
   15.89333344  158.14300537    1.13000000    2.69000006
   15.89944458  158.14300537    1.09000003    2.69000006
   15.90361118  148.38499451    1.16999996    2.69000006
   15.90666676  144.63000488    1.26999998    2.69000006
   15.90999985  142.00000000    1.26999998    2.69000006
   15.91305542  136.05000305    1.19000006    2.69000006
   15.91638851  137.17399597    1.21000004    2.67000008
   15.91972256  127.02500153    1.23000002    2.69000006
   15.92305565  127.99700165    1.23000002    2.69000006
   15.92611122  134.33999634    1.25000000    2.69000006
   15.92666721  131.40600586    1.25000000    2.69000006
   15.92972279  130.74600220    1.28999996    2.69000006
   15.93305588  132.20500183    1.28999996    2.69000006
   15.93611145  134.91999817    1.28999996    2.67000008
   15.94222260  134.91999817    1.39999998    2.67000008
   15.94638920  144.03300476    1.41999996    2.67000008
   15.94972229  137.58299255    1.48000002    2.69000006
   15.95277786  136.72799683    1.50000000    2.69000006
   15.95611095  142.54400635    1.50000000    2.69000006
   15.95944405  134.04600525    1.50000000    2.69000006
   15.96027756  137.42799377    1.48000002    2.69000006
   15.96277714  138.46600342    1.48000002    2.69000006
   15.96611118  128.94099426    1.50000000    2.69000006
   15.96916580  130.60000610    1.48000002    2.69000006
   15.97249985  131.69299316    1.46000004    2.69000006
   15.97583294  141.32499695    1.44000006    2.67000008
   15.97888851  148.68400574    1.44000006    2.69000006
   15.98500061  148.68400574    1.55999994    2.69000006
   15.98916721  180.58500671    1.46000004    2.69000006
   15.99250031  173.08900452    1.44000006    2.67000008
   15.99361134  176.17599487    1.39999998    2.69000006
   15.99611092  174.98300171    1.39999998    2.69000006
   15.99944496  169.28799438    1.50000000    2.69000006
   16.00250053  164.05400085    1.50000000    2.67000008
   16.00583267  167.15199280    1.41999996    2.69000006
   16.00916672  164.95399475    1.41999996    2.69000006
   16.01222229  153.78999329    1.44000006    2.69000006
   16.01555634  154.36999512    1.39999998    2.69000006
   16.01888847  146.80200195    1.39999998    2.69000006
   16.02194405  146.14799500    1.44000006    2.67000008
   16.02805519  146.14799500    1.41999996    2.69000006
   16.03194427  132.55900574    1.39999998    2.69000006
   16.03527641  144.11900330    1.39999998    2.69000006
   16.03861046  156.95799255    1.44000006    2.69000006
   16.04166603  139.81100464    1.46000004    2.69000006
   16.04500008  150.20799255    1.46000004    2.69000006
   16.04833221  139.19799805    1.48000002    2.69000006
   16.05138779  139.65499878    1.51999998    2.69000006
   16.05472183  141.78599548    1.51999998    2.69000006
   16.05777740  133.13400269    1.51999998    2.69000006
   16.06027794  135.51699829    1.51999998    2.69000006
   16.06138802  124.34799957    1.53999996    2.69000006
   16.06472206  132.27099609    1.53999996    2.69000006
   16.07083511  132.27099609    1.64999998    2.69000006
   16.07500076  142.38000488    1.71000004    2.71000004
   16.07805634  140.05799866    1.76999998    2.69000006
   16.08139038  136.57099915    1.66999996    2.71000004
   16.08472252  132.07400513    2.19000006    2.67000008
   16.08777809  143.73399353    2.23000002    2.69000006
   16.09111214  146.34199524    2.55999994    2.67000008
   16.09361267  133.68699646    2.53999996    2.67000008
   16.09472275  126.80999756    2.48000002    2.69000006
   16.09805679  141.21400452    2.23000002    2.67000008
   16.10111237  136.36599731    2.39000010    2.67000008
   16.10444450  151.18499756    2.48000002    2.69000006
   16.10777855  133.85800171    2.40000010    2.69000006
   16.11361122  133.85800171    2.91000009    2.67000008
   16.11777878  134.04100037    2.64000010    2.67000008
   16.12111092  133.77200317    2.51999998    2.67000008
   16.12416649  118.61299896    2.42000008    2.69000006
   16.12694550  133.18600464    2.28999996    2.67000008
   16.12777710  122.41899872    2.09999990    2.67000008
   16.13111115  126.58899689    1.91999996    2.67000008
   16.13416672  131.17500305    1.86000001    2.69000006
   16.13750076  119.01300049    1.85000002    2.67000008
   16.14083290  121.47699738    1.85000002    2.67000008
   16.14388847  115.87599945    1.94000006    2.67000008
   16.14722252  132.69400024    2.09999990    2.69000006
   16.15055466  117.07900238    2.15000010    2.69000006
   16.15638924  117.07900238    2.34999990    2.67000008
   16.16055489  135.12199402    2.40000010    2.67000008
   16.16388893  121.94799805    2.48000002    2.67000008
   16.16694450  127.70899963    2.39000010    2.69000006
   16.17027664  137.01800537    2.53999996    2.67000008
   16.17361069  129.52200317    2.61999989    2.67000008
   16.17666626  130.63299561    2.13000011    2.69000006
   16.18000031  131.24499512    2.01999998    2.67000008
   16.18333244  131.09800720    2.01999998    2.67000008
   16.18638802  121.28900146    2.00000000    2.67000008
   16.18972206  131.41600037    1.86000001    2.67000008
   16.19305420  128.68499756    1.80999994    2.69000006
   16.19361115  131.39300537    1.80999994    2.69000006
   16.19944382  131.39300537    1.75000000    2.67000008
   16.20361137  112.68900299    1.78999996    2.69000006
   16.20666695  120.91600037    1.78999996    2.69000006
   16.21000099  128.44700623    1.80999994    2.69000006
   16.21305656  122.47499847    1.85000002    2.69000006
   16.21638870  118.30899811    1.91999996    2.67000008
   16.21972275  115.93900299    2.03999996    2.67000008
   16.22277832  120.33100128    2.17000008    2.67000008
   16.22611237  123.30200195    2.25000000    2.69000006
   16.22694588  111.41400146    2.26999998    2.67000008
   16.22972298  122.96900177    2.42000008    2.69000006
   16.23305511  118.57099915    2.51999998    2.69000006
   16.23638916  115.44699860    2.67000008    2.67000008
   16.24222183  115.44699860    2.59999990    2.69000006
   16.24638939  119.34400177    2.34999990    2.69000006
   16.24944496  116.88300323    2.26999998    2.69000006
   16.25277710  117.58300018    2.32999992    2.67000008
   16.25611115  120.61599731    2.26999998    2.69000006
   16.25916672  117.45700073    2.28999996    2.67000008
   16.26027870  120.70800018    2.32999992    2.69000006
   16.26277733  116.30300140    2.40000010    2.67000008
   16.26611137  126.87100220    2.48000002    2.67000008
   16.26944351  124.65100098    2.51999998    2.69000006
   16.27249908  119.73300171    2.53999996    2.67000008
   16.27583313  120.41699982    2.53999996    2.67000008
   16.27888870  127.40399933    2.57999992    2.67000008
   16.28499985  127.40399933    2.57999992    2.67000008
   16.28916550  121.13800049    2.71000004    2.69000006
   16.29249954  129.00700378    2.73000002    2.69000006
   16.29361153  125.26100159    2.71000004    2.67000008
   16.29583359  125.81800079    2.66000009    2.67000008
   16.29916573  125.67500305    2.57999992    2.69000006
   16.30249977  123.62599945    2.55999994    2.67000008
   16.30555534  126.45600128    2.40000010    2.67000008
   16.30888748  130.35200500    2.46000004    2.67000008
   16.31222153  136.46299744    2.59999990    2.67000008
   16.31527710  142.86399841    2.66000009    2.67000008
   16.31861115  144.34199524    2.76999998    2.67000008
   16.32166672  142.48199463    2.93000007    2.67000008
   16.32777786  142.48199463    3.26999998    2.67000008
   16.33194542  141.39799500    3.16000009    2.67000008
   16.33527756  151.43400574    3.16000009    2.67000008
   16.33861160  133.95599365    3.11999989    2.67000008
   16.34166718  135.16099548    3.18000007    2.67000008
   16.34500122  129.85600281    2.98000002    2.67000008
   16.34805679  124.49500275    2.96000004    2.67000008
   16.35138893  136.18400574    3.05999994    2.67000008
   16.35472298  136.86399841    3.09999990    2.67000008
   16.35777855  129.40800476    3.26999998    2.67000008
   16.36027908  134.83399963    3.25000000    2.67000008
   16.36138916  129.86199951    3.25000000    2.67000008
   16.36472321  127.48899841    3.25000000    2.67000008
   16.37083435  127.48899841    3.46000004    2.67000008
   16.37472153  131.49699402    3.50000000    2.66000009
   16.37805557  127.62799835    3.41000009    2.67000008
   16.38138962  138.70300293    3.28999996    2.67000008
   16.38444519  126.73999786    3.36999989    2.67000008
   16.38777733  132.22000122    3.61999989    2.67000008
   16.39111137  138.26300049    3.99000001    2.66000009
   16.39361191  137.33099365    3.89000010    2.66000009
   16.39444351  142.91000366    3.95000005    2.66000009
   16.39777756  138.61799622    3.97000003    2.67000008
   16.40111160  129.91900635    4.03999996    2.67000008
   16.40416718  125.36399841    4.01999998    2.67000008
   16.40749931  134.50599670    4.01999998    2.66000009
   16.41361046  134.50599670    3.89000010    2.67000008
   16.41777802  124.13600159    3.89000010    2.66000009
   16.42083359  124.33599854    4.01999998    2.66000009
   16.42416573  133.69999695    4.11999989    2.66000009
   16.42694473  129.51600647    4.05999994    2.66000009
   16.42777634  123.04000092    4.05999994    2.66000009
   16.43111038  130.36799622    3.97000003    2.66000009
   16.43444443  133.82099915    3.97000003    2.67000008
   16.43750000  131.00500488    3.82999992    2.66000009
   16.44083214  133.38900757    3.50000000    2.67000008
   16.44388771  131.91299438    3.45000005    2.67000008
   16.44722176  138.14399719    3.11999989    2.67000008
   16.45055580  139.52999878    3.26999998    2.67000008
   16.45639038  139.52999878    3.76999998    2.66000009
   16.46055603  138.96499634    4.40999985    2.66000009
   16.46389008  132.64500427    4.90999985    2.64000010
   16.46694565  128.08900452    4.90999985    2.66000009
   16.47027779  133.41000366    4.90999985    2.64000010
   16.47333336  131.52600098    4.90999985    2.64000010
   16.47666740  124.45800018    4.90999985    2.64000010
   16.48000145  127.40499878    4.90999985    2.61999989
   16.48305511  133.66000366    4.90999985    2.64000010
   16.48638916  138.93699646    3.89000010    2.66000009
   16.48972321  136.02400208    3.68000007    2.66000009
   16.49277878  159.35400391    3.26999998    2.66000009
   16.49361229  163.51699829    3.21000004    2.67000008
   16.49916649  163.51699829    3.18000007    2.67000008
   16.50333405  168.10699463    2.59999990    2.69000006
   16.50666618  151.40600586    2.69000006    2.67000008
   16.50972176  164.88000488    3.01999998    2.67000008
   16.51305580  179.68600464    3.14000010    2.66000009
   16.51638794  158.92799377    3.07999992    2.66000009
   16.51944351  161.14300537    3.01999998    2.67000008
   16.52277756  159.77600098    2.96000004    2.66000009
   16.52611160  159.15400696    2.89000010    2.67000008
   16.52694511  152.65600586    2.80999994    2.66000009
   16.52944374  149.79600525    2.69000006    2.67000008
   16.53277779  150.87699890    2.61999989    2.67000008
   16.53610992  140.69799805    2.66000009    2.67000008
   16.54222107  140.69799805    2.59999990    2.67000008
   16.54611015  126.67600250    2.98000002    2.67000008
   16.54944420  139.04299927    3.03999996    2.67000008
   16.55277634  141.00100708    3.14000010    2.66000009
   16.55611038  132.12199402    3.14000010    2.67000008
   16.55916595  137.30700684    2.93000007    2.67000008
   16.56027794  136.72200012    3.00000000    2.66000009
   16.56277657  141.31199646    3.95000005    2.66000009
   16.56611061  142.21099854    4.17999983    2.66000009
   16.56944466  139.56900024    3.78999996    2.67000008
   16.57250023  143.53199768    3.66000009    2.67000008
   16.57583427  140.10800171    3.70000005    2.67000008
   16.57916832  137.31599426    3.46000004    2.67000008
   16.58500099  137.31599426    3.46000004    2.67000008
   16.58916664  137.51400757    3.21000004    2.67000008
   16.59222221  135.65400696    3.00000000    2.67000008
   16.59361267  133.64399719    2.93000007    2.67000008
   16.59583473  136.52499390    2.73000002    2.67000008
   16.59916687  137.05299377    2.67000008    2.67000008
   16.60250092  136.53999329    2.66000009    2.67000008
   16.60555649  148.03900146    2.67000008    2.67000008
   16.60888863  144.34199524    2.89000010    2.67000008
   16.61222267  137.05799866    2.96000004    2.67000008
   16.61527824  144.09599304    3.09999990    2.67000008
   16.61861038  140.53799438    3.20000005    2.67000008
   16.62194443  136.74400330    4.01999998    2.66000009
   16.62777710  136.74400330    4.00000000    2.66000009
   16.63194466  140.28700256    3.76999998    2.66000009
   16.63527679  134.70599365    3.48000002    2.67000008
   16.63833237  135.37100220    3.72000003    2.67000008
   16.64166641  131.04499817    3.28999996    2.67000008
   16.64500046  131.44799805    3.34999990    2.66000009
   16.64805603  132.99600220    3.39000010    2.66000009
   16.65138817  139.49200439    3.43000007    2.67000008
   16.65444374  148.22900391    3.18000007    2.67000008
   16.65777779  144.95599365    2.91000009    2.67000008
   16.66027832  149.90699768    2.84999990    2.67000008
   16.66110992  141.74200439    2.80999994    2.67000008
   16.66444397  149.59700012    2.51999998    2.67000008
   16.67055511  149.59700012    2.17000008    2.67000008
   16.67472076  172.14199829    2.23000002    2.67000008
   16.67805481  174.55499268    2.17000008    2.69000006
   16.68111038  180.82200623    2.15000010    2.69000006
   16.68444443  184.91400146    2.11999989    2.69000006
   16.68777657  175.19299316    2.09999990    2.67000008
   16.69083214  189.30799866    2.11999989    2.69000006
   16.69361115  182.36599731    2.13000011    2.67000008
   16.69444275  213.67500305    2.17000008    2.67000008
   16.69777679  202.33900452    2.17000008    2.67000008
   16.70111275  198.97500610    2.13000011    2.69000006
   16.70416832  175.77200317    2.32999992    2.69000006
   16.70750046  169.72399902    2.28999996    2.69000006
   16.71361160  169.72399902    2.55999994    2.67000008
   16.71750069  151.51100159    2.69000006    2.67000008
   16.72083473  147.42599487    2.64000010    2.67000008
   16.72416687  140.11199951    2.78999996    2.67000008
   16.72694588  149.87399292    3.03999996    2.67000008
   16.72750092  154.51300049    2.91000009    2.67000008
   16.73083305  154.29299927    3.09999990    2.66000009
   16.73416710  149.14300537    3.28999996    2.66000009
   16.73722267  149.10200500    3.43000007    2.67000008
   16.74055672  151.38999939    3.82999992    2.67000008
   16.74388885  149.88299561    3.82999992    2.67000008
   16.74694443  139.98800659    3.91000009    2.66000009
   16.75027847  140.13699341    4.03999996    2.66000009
   16.75638962  140.13699341    3.51999998    2.66000009
   16.76055527  143.51199341    2.69000006    2.67000008
   16.76361084  141.23300171    2.69000006    2.67000008
   16.76694489  142.96000671    2.23000002    2.69000006
   16.77027702  148.60699463    2.21000004    2.69000006
   16.77333260  139.94000244    2.21000004    2.69000006
   16.77666664  139.39399719    2.11999989    2.69000006
   16.77972221  133.39300537    2.09999990    2.69000006
   16.78305435  142.20799255    2.00000000    2.69000006
   16.78638840  148.11099243    2.15000010    2.69000006
   16.78944397  150.96099854    2.05999994    2.67000008
   16.79277802  148.62699890    2.05999994    2.69000006
   16.79361153  144.66499329    2.05999994    2.69000006
   16.81444359  144.66499329    1.96000004    2.67000008
   16.81833458  154.25100708    2.21000004    2.67000008
   16.82166672  136.61099243    2.25000000    2.67000008
   16.82500076  148.43299866    2.28999996    2.67000008
   16.82694626  150.75500488    2.39000010    2.67000008
   16.82861137  152.51699829    2.51999998    2.67000008
   16.83166695  151.06300354    2.00000000    2.67000008
   16.83500099  151.61099243    1.75000000    2.69000006
   16.83805656  152.04400635    1.76999998    2.69000006
   16.84138870  167.63600159    1.80999994    2.67000008
   16.84472275  146.40400696    1.88000000    2.67000008
   16.84777832  161.24800110    1.91999996    2.67000008
   16.85111237  155.33900452    1.94000006    2.67000008
   16.85694504  155.33900452    1.94000006    2.67000008
   16.86111069  162.88800049    1.94000006    2.67000008
   16.86444473  161.37600708    1.96000004    2.67000008
   16.86777878  163.40699768    1.86000001    2.69000006
   16.87083435  153.68499756    1.89999998    2.69000006
   16.87416649  140.53999329    1.86000001    2.69000006
   16.87722206  143.95199585    1.85000002    2.69000006
   16.88055611  143.88299561    1.88000000    2.67000008
   16.88388824  147.92599487    1.89999998    2.67000008
   16.88694382  149.40100098    1.86000001    2.67000008
   16.89027786  144.63900757    1.88000000    2.69000006
   16.89361191  143.37800598    1.88000000    2.67000008
   16.89388847  143.79100037    1.88000000    2.67000008
   16.89999962  143.79100037    1.86000001    2.69000006
   16.90416718  140.96099854    1.78999996    2.69000006
   16.90722275  147.48800659    1.96000004    2.69000006
   16.91055489  143.41999817    1.96000004    2.69000006
   16.91361046  143.83099365    1.94000006    2.69000006
   16.91694450  145.30599976    1.98000002    2.67000008
   16.92027664  140.77799988    2.00000000    2.69000006
   16.92333221  141.04699707    2.03999996    2.67000008
   16.92666626  135.90299988    2.07999992    2.67000008
   16.92722130  135.53799438    2.05999994    2.69000006
   16.93027687  130.08000183    2.05999994    2.67000008
   16.93361092  149.26600647    1.96000004    2.67000008
   16.93666649  146.96499634    1.94000006    2.67000008
   16.94277763  146.96499634    2.05999994    2.69000006
   16.94694328  141.82699585    2.09999990    2.67000008
   16.95000076  139.50799561    2.13000011    2.67000008
   16.95333481  148.01800537    2.15000010    2.67000008
   16.95666695  152.17500305    2.09999990    2.67000008
   16.95972252  145.16200256    2.09999990    2.69000006
   16.96055603  148.52000427    2.09999990    2.67000008
   16.96333504  151.93299866    2.09999990    2.67000008
   16.96666718  140.92500305    2.07999992    2.67000008
   16.96972275  143.45599365    2.09999990    2.67000008
   16.97305679  153.22200012    2.25000000    2.67000008
   16.97611237  155.00199890    2.30999994    2.67000008
   16.97944450  155.69299316    3.28999996    2.66000009
   16.98555565  155.69299316    3.66000009    2.66000009
   16.98972321  149.09700012    3.57999992    2.66000009
   16.99305534  148.39900208    3.18000007    2.66000009
   16.99388885  153.88499451    3.14000010    2.67000008
   16.99666786  149.59399414    2.94000006    2.67000008
   17.00000000  134.53500366    3.66000009    2.67000008
   17.00305557  146.29699707    3.78999996    2.66000009
   17.00638962  143.65499878    4.19999981    2.66000009
   17.00944519  146.11300659    4.65999985    2.66000009
   17.01277733  149.76800537    4.90999985    2.64000010
   17.01611137  140.52299500    4.90999985    2.61999989
   17.01916695  142.57800293    4.90999985    2.61999989
   17.02249908  144.53199768    4.90999985    2.64000010
   17.02833366  144.53199768    4.90999985    2.61999989
   17.03249931  153.65800476    4.90999985    2.64000010
   17.03583336  143.67700195    4.90999985    2.61999989
   17.03916550  152.73899841    4.48999977    2.66000009
   17.04222107  146.09800720    4.13999987    2.66000009
   17.04555511  137.72900391    4.01999998    2.66000009
   17.04861069  101.22100067    4.23999977    2.66000009
   17.05194283  146.96800232    4.57999992    2.64000010
   17.05527687  162.19799805    4.73999977    2.64000010
   17.05833244  149.19299316    4.90999985    2.64000010
   17.06055450  146.82600403    4.88999987    2.64000010
   17.06194305  159.90400696    4.90999985    2.64000010
   17.06527710  152.17799377    4.90999985    2.64000010
   17.07139015  152.17799377    4.76000023    2.64000010
   17.07555580  150.92799377    4.90999985    2.64000010
   17.07861137  152.17100525    4.65999985    2.66000009
   17.08194542  148.53999329    3.75000000    2.66000009
   17.08500099  161.99200439    3.86999989    2.66000009
   17.08833313  151.63400269    3.73000002    2.66000009
   17.09166718  161.62800598    3.86999989    2.66000009
   17.09388924  157.77000427    4.26000023    2.66000009
   17.09527779  141.62399292    4.26000023    2.66000009
   17.09861183  151.24899292    3.91000009    2.66000009
   17.10166740  147.11900330    3.48000002    2.66000009
   17.10499954  156.41799927    3.20000005    2.67000008
   17.10833359  158.13400269    3.28999996    2.67000008
   17.11416626  158.13400269    3.48000002    2.67000008
   17.11833382  169.45899963    3.30999994    2.67000008
   17.12138939  164.96299744    3.30999994    2.66000009
   17.12472153  167.51800537    3.25000000    2.66000009
   17.12722206  159.64100647    3.14000010    2.66000009
   17.12833405  169.26100159    3.07999992    2.66000009
   17.13166618  151.42599487    2.98000002    2.66000009
   17.13472176  156.40499878    2.84999990    2.67000008
   17.13805580  165.63099670    2.73000002    2.67000008
   17.14138794  158.99699402    2.66000009    2.67000008
   17.14444351  156.69099426    2.46000004    2.67000008
   17.14777756  162.92999268    2.66000009    2.66000009
   17.15083313  160.76699829    3.25000000    2.66000009
   17.15694427  160.76699829    3.14000010    2.66000009
   17.16110992  164.34800720    3.20000005    2.66000009
   17.16444397  161.50900269    3.25000000    2.66000009
   17.16749954  160.05499268    3.25000000    2.66000009
   17.17083359  156.17999268    3.03999996    2.66000009
   17.17388916  157.60000610    2.76999998    2.67000008
   17.17722130  169.80999756    2.78999996    2.67000008
   17.18055534  175.15499878    2.98000002    2.67000008
   17.18361092  177.09899902    2.94000006    2.66000009
   17.18694305  169.04899597    2.91000009    2.67000008
   17.19027710  160.02200317    2.93000007    2.66000009
   17.19333267  151.99600220    3.43000007    2.66000009
   17.19388771  150.00599670    3.51999998    2.66000009
   17.19972038  150.00599670    4.44999981    2.66000009
   17.20388985  153.01899719    4.90999985    2.64000010
   17.20722389  147.51699829    4.90999985    2.64000010
   17.21055603  138.77400208    4.90999985    2.61999989
   17.21361160  147.03199768    4.90999985    2.64000010
   17.21694565  140.17199707    4.90999985    2.59999990
   17.22000122  143.94700623    4.90999985    2.61999989
   17.22333336  142.90899658    4.90999985    2.61999989
   17.22666740  142.39199829    4.90999985    2.61999989
   17.22722244  142.30499268    4.90999985    2.61999989
   17.23000145  142.88800049    4.90999985    2.61999989
   17.23333359  154.09199524    4.90999985    2.64000010
   17.23638916  136.24800110    4.90999985    2.64000010
   17.24277878  136.24800110    4.90999985    2.61999989
   17.24666786  157.33200073    4.69999981    2.64000010
   17.25000000  160.30799866    4.32999992    2.66000009
   17.25333405  165.25199890    4.90999985    2.64000010
   17.25638962  160.93600464    4.90999985    2.59999990
   17.25972176  166.10200500    4.90999985    2.59999990
   17.26055527  172.06100464    4.90999985    2.59999990
   17.26333427  163.51100159    4.90999985    2.59999990
   17.26666641  171.62600708    4.90999985    2.59999990
   17.26972198  167.81399536    4.90999985    2.61999989
   17.27305603  169.60099792    4.90999985    2.61999989
   17.27611160  166.67399597    4.90999985    2.57999992
   17.27944374  173.25900269    4.90999985    2.61999989
   17.28555489  173.25900269    4.90999985    2.61999989
   17.28972244  161.95599365    4.90999985    2.61999989
   17.29277802  166.67100525    4.90999985    2.59999990
   17.29388809  163.07299805    4.90999985    2.59999990
   17.29638863  132.83999634    4.90999985    2.61999989
   17.29972076  146.39199829    4.90999985    2.61999989
   17.30277634  149.39900208    4.90999985    2.59999990
   17.30611038  167.85499573    4.90999985    2.67000008
   17.30944443  167.17900085    4.90999985    2.64000010
   17.31250000  151.36399841    4.90999985    2.64000010
   17.31583214  157.47900391    4.90999985    2.61999989
   17.31888962  154.10800171    4.90999985    2.61999989
   17.32222366  158.16400146    4.90999985    2.66000009
   17.32833481  158.16400146    4.90999985    2.64000010
   17.33250046  157.87300110    4.71999979    2.64000010
   17.33583450  160.83200073    4.82999992    2.64000010
   17.33889008  188.36500549    4.51000023    2.66000009
   17.34222221  171.23899841    4.59999990    2.64000010
   17.34527779  169.77600098    4.36999989    2.64000010
   17.34861183  183.87399292    4.51000023    2.64000010
   17.35194397  170.63499451    4.90999985    2.64000010
   17.35499954  165.28199768    4.90999985    2.64000010
   17.35833359  169.90899658    4.90999985    2.61999989
   17.36055565  166.56199646    4.90999985    2.61999989
   17.36194420  148.83999634    4.90999985    2.64000010
   17.36527824  163.41700745    4.90999985    2.61999989
   17.37111092  163.41700745    4.90999985    2.59999990
   17.37527847  171.87300110    4.90999985    2.55999994
   17.37861061  170.73800659    4.90999985    2.57999992
   17.38166618  163.70599365    4.90999985    2.53999996
   17.38500023  162.18099976    4.90999985    2.51999998
   17.38833237  162.42599487    4.90999985    2.53999996
   17.39138794  160.11000061    4.90999985    2.53999996
   17.39388847  151.22999573    4.90999985    2.53999996
   17.39500046  164.32699585    4.90999985    2.55999994
   17.39833260  146.96600342    4.90999985    2.53999996
   17.40138817  156.91200256    4.90999985    2.57999992
   17.40472221  149.85099792    4.90999985    2.53999996
   17.40805435  153.79200745    4.90999985    2.55999994
   17.41416550  153.79200745    4.90999985    2.51999998
   17.41805458  149.21499634    4.90999985    2.53999996
   17.42138863  146.30900574    4.90999985    2.55999994
   17.42472076  133.29800415    4.90999985    2.57999992
   17.42722130  137.07200623    4.90999985    2.59999990
   17.42833328  145.42799377    4.90999985    2.61999989
   17.43166542  137.34100342    4.90999985    2.59999990
   17.43472099  145.90499878    4.90999985    2.61999989
   17.43805504  133.67999268    4.90999985    2.61999989
   17.44138718  134.60200500    4.90999985    2.61999989
   17.44444275  137.14999390    4.90999985    2.64000010
   17.44777679  139.53900146    4.90999985    2.64000010
   17.45083427  136.62800598    4.90999985    2.64000010
   17.45694542  136.62800598    4.90999985    2.61999989
   17.46111107  140.82200623    4.90999985    2.61999989
   17.46416664  146.26400757    4.90999985    2.59999990
   17.46750069  144.18299866    4.90999985    2.64000010
   17.47083473  129.59500122    4.90999985    2.61999989
   17.47389030  136.88800049    4.90999985    2.64000010
   17.47722244  133.64300537    4.90999985    2.64000010
   17.48055649  135.03300476    4.90999985    2.64000010
   17.48361206  136.90400696    4.90999985    2.61999989
   17.48694420  140.63299561    4.90999985    2.64000010
   17.48999977  131.07800293    4.90999985    2.64000010
   17.49333382  146.25799561    4.90999985    2.55999994
   17.49416733  138.91400146    4.90999985    2.55999994
   17.49972153  138.91400146    4.90999985    2.57999992
   17.50388908  143.58500671    4.90999985    2.55999994
   17.50722313  151.33099365    4.90999985    2.48000002
   17.51027870  163.35600281    4.90999985    2.42000008
   17.51361084  143.38699341    4.90999985    2.39000010
   17.51694489  151.00399780    4.90999985    2.55999994
   17.52000046  143.97999573    4.90999985    2.53999996
   17.52333260  148.30299377    4.90999985    2.57999992
   17.52638817  145.89300537    4.90999985    2.55999994
   17.52750015  149.09599304    4.90999985    2.53999996
   17.53000069  144.75599670    4.90999985    2.46000004
   17.53333282  133.53999329    4.90999985    2.53999996
   17.53666687  141.92500305    4.90999985    2.55999994
   17.54249954  141.92500305    4.90999985    2.48000002
   17.54666710  148.25999451    4.90999985    2.51999998
   17.54999924  147.38999939    4.90999985    2.55999994
   17.55333328  127.68900299    4.90999985    2.57999992
   17.55638885  139.20799255    4.90999985    2.59999990
   17.55972099  126.97599792    4.90999985    2.57999992
   17.56083298  147.87500000    4.90999985    2.55999994
   17.56305504  145.09599304    4.90999985    2.57999992
   17.56638718  136.98699951    4.90999985    2.53999996
   17.56972313  137.86500549    4.90999985    2.57999992
   17.57277870  137.08399963    4.90999985    2.57999992
   17.57611275  130.77200317    4.90999985    2.59999990
   17.57916832  135.16000366    4.90999985    2.61999989
   17.58555603  135.16000366    4.90999985    2.59999990
   17.58972359  133.88600159    4.90999985    2.55999994
   17.59277916  141.54299927    4.90999985    2.46000004
   17.59416771  137.93699646    4.90999985    2.46000004
   17.59638977  138.11599731    4.90999985    2.55999994
   17.59972191  131.51600647    4.90999985    2.53999996
   17.60305595  132.40299988    4.90999985    2.55999994
   17.60611153  132.62699890    4.90999985    2.57999992
   17.60944557  134.42100525    4.90999985    2.59999990
   17.61250114  148.25399780    4.90999985    2.59999990
   17.61583328  131.94900513    4.90999985    2.59999990
   17.61916733  160.88600159    4.90999985    2.61999989
   17.62222290  145.93099976    4.90999985    2.61999989
   17.62833405  145.93099976    4.90999985    2.61999989
   17.63249969  136.80200195    4.90999985    2.53999996
   17.63555527  137.04800415    4.90999985    2.57999992
   17.63888931  130.76100159    4.90999985    2.59999990
   17.64222145  123.36000061    4.90999985    2.57999992
   17.64527702  129.59599304    4.90999985    2.64000010
   17.64861107  136.58500671    4.44999981    2.64000010
   17.65194321  120.61799622    4.86999989    2.64000010
   17.65499878  133.95100403    4.01999998    2.64000010
   17.65833282  117.26899719    3.48000002    2.66000009
   17.66083336  132.21699524    3.05999994    2.66000009
   17.66194344  108.02400208    2.91000009    2.66000009
   17.66527748  114.26699829    2.64000010    2.66000009
   17.67111015  114.26699829    2.59999990    2.66000009
   17.67527771  138.66900635    2.30999994    2.66000009
   17.67860985  126.05999756    2.23000002    2.67000008
   17.68166542  131.98699951    2.13000011    2.67000008
   17.68499947  134.11300659    2.11999989    2.66000009
   17.68833160  127.35900116    2.13000011    2.66000009
   17.69138718  134.82699585    2.07999992    2.66000009
   17.69416618  132.85600281    2.03999996    2.66000009
   17.69499969  127.50499725    2.05999994    2.66000009
   17.69833183  126.32599640    2.09999990    2.66000009
   17.70166779  137.77400208    2.15000010    2.66000009
   17.70472336  132.74400330    2.17000008    2.66000009
   17.70805550  125.71600342    2.25000000    2.66000009
   17.71389008  125.71600342    2.48000002    2.66000009
   17.71805573  134.31199646    2.73000002    2.66000009
   17.72138977  130.72599792    3.07999992    2.66000009
   17.72472191  133.62500000    3.23000002    2.64000010
   17.72750092  131.18200684    3.30999994    2.64000010
   17.72805595  137.37800598    3.30999994    2.64000010
   17.73139000  131.78399658    3.36999989    2.64000010
   17.73472214  132.50999451    3.41000009    2.66000009
   17.73777771  134.52099609    3.61999989    2.64000010
   17.74111176  132.58799744    4.17999983    2.64000010
   17.74416733  142.55400085    4.05999994    2.64000010
   17.74749947  135.12699890    3.91000009    2.64000010
   17.75083351  130.83200073    3.59999990    2.64000010
   17.75694466  130.83200073    4.15999985    2.64000010
   17.76083374  143.54100037    3.91000009    2.64000010
   17.76416588  131.41999817    3.80999994    2.64000010
   17.76749992  133.93400574    3.86999989    2.64000010
   17.77055550  131.65199280    4.13999987    2.64000010
   17.77388954  138.96699524    4.01999998    2.64000010
   17.77722168  141.69200134    4.00000000    2.64000010
   17.78027725  149.58299255    4.03999996    2.64000010
   17.78361130  142.39199829    3.82999992    2.64000010
   17.78666687  142.11799622    4.15999985    2.64000010
   17.78999901  133.89599609    3.72000003    2.64000010
   17.79333305  138.09599304    3.86999989    2.64000010
   17.79416656  137.22700500    3.82999992    2.64000010
   17.79972076  137.22700500    3.59999990    2.64000010
   17.80388832  125.34799957    3.72000003    2.64000010
   17.80694389  128.77200317    3.91000009    2.64000010
   17.81027794  119.56199646    3.70000005    2.64000010
   17.82777786  111.49199677    3.48000002    2.61999989
   17.83027840  117.16000366    3.72000003    2.66000009
   17.83333397  123.00700378    3.59999990    2.59999990
   17.83666801  136.67399597    4.90999985    2.61999989
   17.84277916  136.67399597    4.90999985    2.26999998
   17.84694481  133.44799805    4.90999985    2.64000010
   17.85000038  127.29799652    3.03999996    2.64000010
   17.85333443  124.81300354    3.78999996    2.64000010
   17.85639000  131.31199646    4.51000023    2.64000010
   17.85972214  124.84500122    4.63999987    2.61999989
   17.86111069  132.48699951    4.78000021    2.61999989
   17.86333466  136.95100403    4.90999985    2.59999990
   17.86638832  135.05400085    4.90999985    2.44000006
   17.86972237  132.33900452    4.90999985    2.55999994
   17.87305641  139.48399353    4.90999985    2.55999994
   17.87611198  138.12899780    4.90999985    2.51999998
   17.87944412  147.17799377    4.90999985    2.42000008
   17.88555527  147.17799377    4.90999985    2.46000004
   17.88972282  134.51600647    4.90999985    2.46000004
   17.89277840  132.23800659    4.90999985    2.48000002
   17.89444351  130.75500488    4.90999985    2.48000002
   17.89666748  140.16799927    4.90999985    2.50000000
   17.89972115  139.12600708    4.90999985    2.50000000
   17.90305519  136.54200745    4.90999985    2.50000000
   17.90638924  135.76199341    4.90999985    2.48000002
   17.90944481  142.32699585    4.90999985    2.50000000
   17.91277695  142.99099731    4.90999985    2.46000004
   17.91611099  140.34300232    4.90999985    2.39000010
   17.91916656  169.40100098    4.90999985    2.30999994
   17.92249870  144.47099304    4.90999985    2.40000010
   17.92833328  144.47099304    4.90999985    2.40000010
   17.93249893  161.15299988    4.90999985    2.34999990
   17.93583298  188.57800293    4.90999985    2.15000010
   17.93888855  192.77799988    4.90999985    2.11999989
   17.94222069  176.79200745    4.90999985    2.19000006
   17.94555473  201.42399597    4.90999985    2.15000010
   17.94861031  175.28799438    4.90999985    2.05999994
   17.95194435  232.21099854    4.90999985    2.19000006
   17.95499992  192.74099731    4.90999985    2.01999998
   17.95833397  156.00000000    4.90999985    2.36999989
   17.96111107  155.83799744    4.90999985    2.39000010
   17.96194458  162.54400635    4.90999985    2.36999989
   17.96500015  172.40499878    4.90999985    2.34999990
   17.97111130  172.40499878    4.90999985    2.07999992
   17.97527885  181.03100586    4.90999985    2.11999989
   17.97861099  168.11900330    4.90999985    2.01999998
   17.98194504  135.80799866    4.90999985    1.88000000
   17.98500061  265.01098633    4.90999985    2.01999998
   17.98833275  230.00799561    4.90999985    2.07999992
   17.99138832  175.12100220    4.90999985    2.19000006
   17.99444389  249.65199280    4.90999985    2.28999996
   17.99527740  233.45700073    4.90999985    2.17000008
   17.99833298  268.93301392    4.90999985    2.21000004
   18.00166702  250.77499390    4.90999985    1.96000004
   18.00499916  243.04800415    4.90999985    1.88000000
   18.00805473  152.49899292    4.90999985    2.00000000
   18.01388931  152.49899292    4.90999985    2.07999992
   18.01805496   95.26550293    4.90999985    1.85000002
   18.02138901  163.28100586    4.90999985    1.85000002
   18.02444458  170.02600098    4.90999985    1.91999996
   18.02777672  252.95399475    4.90999985    2.11999989
   18.02805519  233.61300659    4.90999985    2.11999989
   18.03138924  174.50399780    4.90999985    2.11999989
   18.03472137  159.11900330    4.90999985    2.42000008
   18.03777695  154.95199585    4.90999985    2.34999990
   18.04111099  175.65600586    4.90999985    2.32999992
   18.04444313  206.92900085    4.90999985    2.17000008
   18.04749870  234.96699524    4.90999985    2.17000008
   18.05083275  255.98199463    4.90999985    2.01999998
   18.05694389  255.98199463    4.90999985    2.07999992
   18.06110954  210.87500000    4.90999985    1.96000004
   18.06138802  183.96899414    4.90999985    2.05999994
   18.06472206  204.39399719    4.90999985    2.07999992
   18.06805611  213.25100708    4.90999985    2.07999992
   18.07111168  232.32600403    4.90999985    2.01999998
   18.07444572  200.35200500    4.90999985    2.03999996
   18.07750130  230.85699463    4.90999985    1.94000006
   18.08083344  230.65800476    4.90999985    2.07999992
   18.08416748  213.48399353    4.90999985    2.11999989
   18.08750153  172.44599915    4.90999985    2.03999996
   18.09055710  112.53600311    4.90999985    1.91999996
   18.09388924   -1.00000000    4.90999985    1.78999996
   18.09972191   -1.00000000    4.90999985    1.55999994
   18.10388947   -1.00000000    4.90999985    1.55999994
   18.10722351   -1.00000000    4.90999985    1.61000001
   18.11027908   -1.00000000    4.90999985    1.63000000
   18.11361122   -1.00000000    4.90999985    1.60000002
   18.11666679   -1.00000000    4.90999985    1.58000004
   18.12000084   -1.00000000    4.90999985    1.63000000
   18.12333298   -1.00000000    4.90999985    1.69000006
   18.12638855   -1.00000000    4.90999985    1.55999994
   18.13000107   -1.00000000    4.90999985    1.61000001
   18.13333321   -1.00000000    4.90999985    1.58000004
   18.13638878   -1.00000000    4.90999985    1.69000006
   18.14249992   -1.00000000    4.90999985    1.76999998
   18.14666748  166.25999451    4.90999985    1.86000001
   18.14999962   65.24179840    4.90999985    1.91999996
   18.15333366  103.12899780    4.90999985    1.80999994
   18.15638924   -1.00000000    4.90999985    1.83000004
   18.15972137  176.36799622    4.90999985    1.80999994
   18.16166687  141.67999268    4.90999985    1.91999996
   18.16305542  130.13099670    4.90999985    1.89999998
   18.16638756  184.84899902    4.90999985    1.80999994
   18.16972160  194.14900208    4.90999985    1.89999998
   18.17277718  183.34500122    4.90999985    1.96000004
   18.17611122  129.50100708    4.90999985    1.85000002
   18.17916679  137.60299683    4.90999985    1.80999994
   18.18527603  137.60299683    4.90999985    1.75000000
   18.18944359  163.42900085    4.90999985    1.83000004
   18.19277763  206.07299805    4.90999985    1.94000006
   18.19472122  112.37799835    4.90999985    1.89999998
   18.19638824  172.71600342    4.90999985    1.80999994
   18.19972038  200.82200623    4.90999985    1.91999996
   18.20277786   -1.00000000    4.90999985    1.75000000
   18.20611191   35.93149948    4.90999985    1.53999996
   18.20944595  194.89199829    4.90999985    1.85000002
   18.21250153   72.49680328    4.90999985    1.85000002
   18.21583366   -1.00000000    4.90999985    1.71000004
   18.21888924   -1.00000000    4.90999985    1.60000002
   18.22222328   -1.00000000    4.90999985    1.69000006
   18.22833443   -1.00000000    4.90999985    1.69000006
   18.23250008  215.36999512    4.90999985    1.76999998
   18.23555565   86.08080292    4.90999985    1.89999998
   18.23888969   -1.00000000    4.90999985    1.78999996
   18.24194527   89.77539825    4.90999985    1.71000004
   18.24527740  178.33999634    4.90999985    1.71000004
   18.24861145  205.72099304    4.90999985    1.73000002
   18.25166702  180.16200256    4.90999985    1.89999998
   18.25499916  278.82299805    4.90999985    1.88000000
   18.25833321  251.89100647    4.90999985    1.69000006
   18.26166725  134.29100037    4.90999985    1.89999998
   18.26194382  113.59200287    4.90999985    1.89999998
   18.26527786  150.94400024    4.90999985    1.89999998
   18.27111053  150.94400024    4.90999985    1.71000004
   18.27527809   -1.00000000    4.90999985    1.58000004
   18.27861023   -1.00000000    4.90999985    1.53999996
   18.28166580   -1.00000000    4.90999985    1.38000000
   18.28499985   -1.00000000    4.90999985    1.34000003
   18.28805542   -1.00000000    4.90999985    1.51999998
   18.29138756   37.11709976    4.90999985    1.58000004
   18.29472160   -1.00000000    4.90999985    1.50000000
   18.29833221   -1.00000000    4.90999985    1.51999998
   18.30166626   -1.00000000    4.90999985    1.86000001
   18.30472183   -1.00000000    4.90999985    1.51999998
   18.30805397   -1.00000000    4.90999985    1.33000004
   18.31805611   -1.00000000    4.90999985    1.03999996
   18.32139015   -1.00000000    4.90999985    1.09000003
   18.32444572   -1.00000000    4.90999985    1.11000001
   18.32777786   -1.00000000    4.90999985    1.09000003
   18.33139038   -1.00000000    4.90999985    1.21000004
   18.33472252   -1.00000000    4.90999985    1.16999996
   18.33777809   -1.00000000    4.90999985    1.26999998
   18.34111214   -1.00000000    4.90999985    1.26999998
   18.34416771   -1.00000000    4.90999985    1.30999994
   18.34749985   -1.00000000    4.90999985    1.30999994
   18.35083389   -1.00000000    4.90999985    1.48000002
   18.35666656   -1.00000000    4.90999985    1.55999994
   18.36083412   -1.00000000    4.90999985    1.64999998
   18.36166763  105.50499725    4.90999985    1.66999996
   18.36444473  189.91299438    4.90999985    1.89999998
   18.36777878  298.13598633    4.90999985    2.03999996
   18.37083435  277.45800781    4.90999985    2.23000002
   18.37416649  184.61799622    4.90999985    2.00000000
   18.37722206  237.26199341    4.90999985    1.86000001
   18.38055611  247.35699463    4.90999985    2.03999996
   18.38388824  165.39199829    4.90999985    2.15000010
   18.38694382  154.88400269    4.90999985    2.32999992
   18.39027786  142.90400696    4.90999985    2.42000008
   18.39361191  142.97300720    4.90999985    2.46000004
   18.39500046  143.48300171    4.90999985    2.51999998
   18.39972115  143.48300171    4.90999985    2.40000010
   18.40361023  152.62399292    4.90999985    2.28999996
   18.40694427  129.86099243    4.90999985    2.51999998
   18.41027832  135.91400146    4.90999985    2.57999992
   18.41333389  141.66600037    4.90999985    2.53999996
   18.41666603  144.98500061    4.90999985    2.48000002
   18.42000008  144.35600281    4.90999985    2.42000008
   18.42305565  148.14399719    4.90999985    2.48000002
   18.50583267  157.80700684    4.90999985    2.30999994
   18.50888824  146.15699768    4.90999985    2.30999994
   18.51222229  168.53100586    4.90999985    2.36999989
   18.51555634  144.48500061    4.90999985    2.40000010
   18.51861000  143.19000244    4.90999985    2.48000002
   18.52194405  149.12800598    4.90999985    2.64000010
   18.52611160  149.12800598    1.07000005    0.70999998
   18.53027725  134.98899841    0.19000000    0.11000000
   18.53333282  144.59700012    0.19000000    0.11000000
   18.53666687  146.65299988    0.19000000    0.11000000
   18.53916550  135.62699890    0.19000000    0.11000000
   18.53999901  138.31199646    0.19000000    0.11000000
   18.54333305  136.87500000    0.19000000    0.11000000
   18.54666710  144.50799561    0.19000000    0.11000000
   18.54972076  148.06599426    0.19000000    0.11000000
   18.55305481  147.78700256    0.19000000    0.11000000
   18.55611038  142.76100159    0.19000000    0.11000000
   18.55944443  147.41499329    0.19000000    0.11000000
   18.56277657  161.84500122    0.19000000    0.11000000
   18.56888962  161.84500122    0.19000000    0.11000000
   18.57305717  138.89799500    0.19000000    0.11000000
   18.57611275  155.61399841    0.19000000    0.11000000
   18.57944489  156.66000366    0.19000000    0.11000000
   18.58277893  147.72099304    0.19000000    0.11000000
   18.58611107  137.69700623    0.19000000    0.11000000
   18.58916664  142.88299561    0.19000000    0.11000000
   18.59250069  153.26899719    0.19000000    0.11000000
   18.59555626  142.08000183    0.19000000    0.11000000
   18.59889030  179.01800537    0.19000000    0.11000000
   18.60222244  168.65699768    0.19000000    0.11000000
   18.60527802  163.37399292    0.19000000    0.11000000
   18.60583305  165.06500244    0.19000000    0.11000000
   18.61166763  165.06500244    0.19000000    0.11000000
   18.61583328  164.94400024    0.19000000    0.11000000
   18.61916733  169.91600037    0.19000000    0.11000000
   18.62222290  163.08000183    0.19000000    0.11000000
   18.62555504  170.90699768    0.19000000    0.11000000
   18.62888908  158.74400330    0.19000000    0.11000000
   18.63194466  140.55900574    0.19000000    0.11000000
   18.63527679  140.17799377    0.19000000    0.11000000
   18.63833237  157.01499939    0.19000000    0.11000000
   18.63916588  159.46099854    0.19000000    0.11000000
   18.64222145  161.74099731    0.19000000    0.11000000
   18.64527702  161.18200684    0.19000000    0.11000000
   18.64861107  157.71299744    0.19000000    0.11000000
   18.65444374  157.71299744    0.19000000    0.11000000
   18.65861130  138.07499695    0.19000000    0.11000000
   18.66194344  136.28900146    0.19000000    0.11000000
   18.66527748  132.03100586    0.19000000    0.11000000
   18.66833305  140.95100403    0.19000000    0.11000000
   18.67166519  142.36399841    0.19000000    0.11000000
   18.67194366  138.14900208    0.19000000    0.11000000
   18.67472076  139.45199585    0.19000000    0.11000000
   18.67805481  135.05200195    0.19000000    0.11000000
   18.68111038  138.21699524    0.19000000    0.11000000
   18.68444443  144.65600586    0.19000000    0.11000000
   18.68777657  154.94700623    0.19000000    0.11000000
   18.69083214  179.15100098    0.19000000    0.11000000
   18.69694328  179.15100098    0.19000000    0.11000000
   18.70111275  165.23500061    0.19000000    0.11000000
   18.70444489  156.92999268    0.19000000    0.11000000
   18.70527840  157.11700439    0.19000000    0.11000000
   18.70777893  164.77799988    0.19000000    0.11000000
   18.71111107  157.44000244    0.19000000    0.11000000
   18.71416664  163.41900635    0.19000000    0.11000000
   18.71750069  165.46600342    0.19000000    0.11000000
   18.72083473  147.78300476    0.19000000    0.11000000
   18.72389030  147.85899353    0.19000000    0.11000000
   18.72722244  139.75599670    0.19000000    0.11000000
   18.73055649  150.06100464    0.19000000    0.11000000
   18.73361206  140.52799988    0.19000000    0.11000000
   18.73972321  140.52799988    0.19000000    0.11000000
   18.74388885  143.66400146    0.19000000    0.11000000
   18.74722290  153.20300293    0.19000000    0.11000000
   18.75027847  142.92799377    0.19000000    0.11000000
   18.75361061  145.64399719    0.19000000    0.11000000
   18.75722313  135.91999817    0.19000000    0.11000000
   18.76055527  138.39399719    0.19000000    0.11000000
   18.76388931  135.20899963    0.19000000    0.11000000
   18.76694489  103.04399872    0.19000000    0.11000000
   18.77027702  130.84399414    0.19000000    0.11000000
   18.77249908  135.54200745    0.19000000    0.11000000
   18.77388954  136.51499939    0.19000000    0.11000000
   18.77722168  132.41799927    0.19000000    0.11000000
   18.78305435  132.41799927    0.19000000    0.11000000
   18.78722191  130.98100281    0.19000000    0.11000000
   18.79055595  129.89799500    0.19000000    0.11000000
   18.79361153  118.87799835    0.19000000    0.11000000
   18.79694366  132.62899780    0.19000000    0.11000000
   18.80027771  135.45700073    0.19000000    0.11000000
   18.80333328  133.91600037    0.19000000    0.11000000
   18.80583191  133.05200195    0.19000000    0.11000000
   18.80694389  133.86500549    0.19000000    0.11000000
   18.81027794  130.02099609    0.19000000    0.11000000
   18.81333351  101.65000153    0.19000000    0.11000000
   18.81666756  121.76300049    0.19000000    0.11000000
   18.81972313  127.32399750    0.19000000    0.11000000
   18.82611275  127.32399750    0.19000000    0.11000000
   18.83000183  125.48400116    0.19000000    0.11000000
   18.83333397  121.16799927    0.19000000    0.11000000
   18.83666801  105.30200195    0.19000000    0.11000000
   18.83916664  105.04499817    0.19000000    0.11000000
   18.84027863  125.36100006    0.19000000    0.11000000
   18.84333420  140.52900696    0.19000000    0.11000000
   18.84666824  143.22300720    0.19000000    0.11000000
   18.85000038  148.24099731    0.19000000    0.11000000
   18.85305595  145.31599426    0.19000000    0.11000000
   18.85639000  127.72000122    0.19000000    0.11000000
   18.85972214  102.20500183    0.19000000    0.11000000
   18.86277771  105.77899933    0.19000000    0.11000000
   18.86888885  105.77899933    0.19000000    0.11000000
   18.87305641  144.85899353    0.19000000    0.11000000
   18.87611198  137.57800293    0.19000000    0.11000000
   18.87944412  144.35800171    0.19000000    0.11000000
   18.88249969  135.08599854    0.19000000    0.11000000
   18.88583374  135.80599976    0.19000000    0.11000000
   18.88916588  128.77000427    0.19000000    0.11000000
   18.89222145  135.50199890    0.19000000    0.11000000
   18.89555550  128.07499695    0.19000000    0.11000000
   18.89888954  136.15299988    0.19000000    0.11000000
   18.90194321  141.37699890    0.19000000    0.11000000
   18.90527725  134.63299561    0.19000000    0.11000000
   18.90583229  127.11299896    0.19000000    0.11000000
   18.91166687  127.11299896    0.19000000    0.11000000
   18.91583252  138.91999817    0.19000000    0.11000000
   18.91888809  147.51699829    0.19000000    0.11000000
   18.92222214  131.95899963    0.19000000    0.11000000
   18.92555428  122.25499725    0.19000000    0.11000000
   18.92860985  134.09700012    0.19000000    0.11000000
   18.93194389  143.05799866    0.19000000    0.11000000
   18.93527603  136.34199524    0.19000000    0.11000000
   18.93833160  119.85800171    0.19000000    0.11000000
   18.93916512  135.49800110    0.19000000    0.11000000
   18.94194412  144.18899536    0.19000000    0.11000000
   18.94527626  136.22500610    0.19000000    0.11000000
   18.94833183  156.28199768    0.19000000    0.11000000
   18.95444489  156.28199768    0.19000000    0.11000000
   18.95861244  163.72799683    0.19000000    0.11000000
   18.96194458  148.82299805    0.19000000    0.11000000
   18.96500015  144.91799927    0.19000000    0.11000000
   18.96833420  161.93099976    0.19000000    0.11000000
   18.97166634  128.50100708    0.19000000    0.11000000
   18.97249985  118.78299713    0.19000000    0.11000000
   18.97527885  137.05599976    0.19000000    0.11000000
   18.97861099  136.22500610    0.19000000    0.11000000
   18.98166656  187.91999817    0.19000000    0.11000000
   18.98500061  157.07800293    0.19000000    0.11000000
   18.98805618  151.77900696    0.19000000    0.11000000
   18.99138832  241.56700134    0.19000000    0.11000000
   18.99722290  241.56700134    0.19000000    0.11000000
   19.00138855  349.18899536    0.19000000    0.11000000
   19.00333405  222.54699707    0.19000000    0.11000000
   19.00361061  161.93099976    0.19000000    0.11000000
   19.00361061  128.50100708    0.19000000    0.11000000
   19.00361061  137.05599976    0.19000000    0.11000000
   19.00361061  136.22500610    0.19000000    0.11000000
   19.00361061  187.91999817    0.19000000    0.11000000
   19.00388908  157.07800293    0.19000000    0.11000000
   19.00388908  151.77900696    0.19000000    0.11000000
   19.00388908  241.56700134    0.19000000    0.11000000
   19.00583267   -1.00000000   -1.00000000   -1.00000000
   19.00916672  245.07000732    0.19000000    0.11000000
   19.01222229  161.49800110    0.19000000    0.11000000
   19.01555634  130.58599854    0.19000000    0.11000000
   19.01888847  134.40499878    0.19000000    0.11000000
   19.02416611  134.40499878    0.19000000    0.11000000
   19.02833366  131.62899780    0.19000000    0.11000000
   19.03166580  125.93900299    0.19000000    0.11000000
   19.03472137  130.70399475    0.19000000    0.11000000
   19.03722191  113.53500366    0.19000000    0.11000000
   19.03833199  119.53099823    0.19000000    0.11000000
   19.04166603  126.81300354    0.19000000    0.11000000
   19.04472160  125.77600098    0.19000000    0.11000000
   19.04805565  144.69999695    0.19000000    0.11000000
   19.05111122  140.95700073    0.19000000    0.11000000
   19.05444336   -1.00000000    0.19000000    0.11000000
   19.05777740  187.07200623    0.19000000    0.11000000
   19.06083298  195.92300415    0.19000000    0.11000000
   19.06722260  195.92300415    0.19000000    0.11000000
   19.07111168  139.38000488    0.19000000    0.11000000
   19.07444572  141.15699768    0.19000000    0.11000000
   19.07777786   -1.00000000    0.19000000    0.11000000
   19.08083344   -1.00000000    0.19000000    0.11000000
   19.08416748   -1.00000000    0.19000000    0.11000000
   19.08750153   -1.00000000    0.19000000    0.11000000
   19.09055710   -1.00000000    0.19000000    0.11000000
   19.09388924   -1.00000000    0.19000000    0.11000000
   19.09694481   -1.00000000    0.19000000    0.11000000
   19.10027885   -1.00000000    0.19000000    0.11000000
   19.10361099  137.08000183    0.19000000    0.11000000
   19.10388947  186.02200317    0.19000000    0.11000000
   19.11000061  186.02200317    0.19000000    0.11000000
   19.11416626   -1.00000000    0.19000000    0.11000000
   19.11722183   -1.00000000    0.19000000    0.11000000
   19.12055588   -1.00000000    0.19000000    0.11000000
   19.12361145   -1.00000000    0.19000000    0.11000000
   19.12694550   -1.00000000    0.19000000    0.11000000
   19.13027763   -1.00000000    0.19000000    0.11000000
   19.13333321   56.05749893    0.19000000    0.11000000
   19.13666725  137.64100647    0.19000000    0.11000000
   19.13722229  130.76100159    0.19000000    0.11000000
   19.14027786  132.21099854    0.19000000    0.11000000
   19.14361191  171.84300232    0.19000000    0.11000000
   19.14666748  129.62800598    0.19000000    0.11000000
   19.15277672  129.62800598    0.19000000    0.11000000
   19.15694427   -1.00000000    0.19000000    0.11000000
   19.15999985   -1.00000000    0.19000000    0.11000000
   19.16333389   -1.00000000    0.19000000    0.11000000
   19.16666603  167.56399536    0.19000000    0.11000000
   19.16972160  134.01400757    0.19000000    0.11000000
   19.17055511  143.99400330    0.19000000    0.11000000
   19.17333221  122.28099823    0.19000000    0.11000000
   19.17666626   -1.00000000    0.19000000    0.11000000
   19.18000031   -1.00000000    0.19000000    0.11000000
   19.18305397   -1.00000000    0.19000000    0.11000000
   19.18638802   -1.00000000    0.19000000    0.11000000
   19.18944359   -1.00000000    0.19000000    0.11000000
   19.19972038   -1.00000000    0.19000000    0.11000000
   19.20305634  256.29598999    0.19000000    0.11000000
   19.20416832  112.83499908    0.19000000    0.11000000
   19.20639038  147.02400208    0.19000000    0.11000000
   19.20972252  135.78500366    0.19000000    0.11000000
   19.21305656  174.74600220    0.19000000    0.11000000
   19.21611214  106.37999725    0.19000000    0.11000000
   19.21944427  140.83399963    0.19000000    0.11000000
   19.22277832  113.34999847    0.19000000    0.11000000
   19.22583389  103.04000092    0.19000000    0.11000000
   19.22916794  117.13600159    0.19000000    0.11000000
   19.23222351  143.88099670    0.19000000    0.11000000
   19.23861122  143.88099670    0.19000000    0.11000000
   19.24277878  138.34599304    0.19000000    0.11000000
   19.24583435  136.04699707    0.19000000    0.11000000
   19.24916649  136.16400146    0.19000000    0.11000000
   19.25250053  140.09700012    0.19000000    0.11000000
   19.25555611  121.59600067    0.19000000    0.11000000
   19.25888824  133.80299377    0.19000000    0.11000000
   19.26194382  137.13299561    0.19000000    0.11000000
   19.26527786  120.23699951    0.19000000    0.11000000
   19.26833344  125.12100220    0.19000000    0.11000000
   19.27083397  148.35400391    0.19000000    0.11000000
   19.27194405  124.22799683    0.19000000    0.11000000
   19.27527809  137.61700439    0.19000000    0.11000000
   19.28138924  137.61700439    0.19000000    0.11000000
   19.28555489   96.15429688    0.19000000    0.11000000
   19.28861046  286.63699341    0.19000000    0.11000000
   19.29194450  113.94499969    0.19000000    0.11000000
   19.29527664  149.41600037    0.19000000    0.11000000
   19.29833221  138.61300659    0.19000000    0.11000000
   19.30166626   -1.00000000    0.19000000    0.11000000
   19.30527687   -1.00000000    0.19000000    0.11000000
   19.30861092   -1.00000000    0.19000000    0.11000000
   19.31166649   -1.00000000    0.19000000    0.11000000
   19.31499863   -1.00000000    0.19000000    0.11000000
   19.31805611   -1.00000000    0.19000000    0.11000000
   19.32833481   -1.00000000    0.19000000    0.11000000
   19.33139038   -1.00000000    0.19000000    0.11000000
   19.33472252   -1.00000000    0.19000000    0.11000000
   19.33833313   -1.00000000    0.19000000    0.11000000
   19.34166718   -1.00000000    0.19000000    0.11000000
   19.34472275   -1.00000000    0.19000000    0.11000000
   19.34805679   -1.00000000    0.19000000    0.11000000
   19.35138893   -1.00000000    0.19000000    0.11000000
   19.35444450   -1.00000000    0.19000000    0.11000000
   19.35777855   -1.00000000    0.19000000    0.11000000
   19.36111069   -1.00000000    0.19000000    0.11000000
   19.37111092   -1.00000000    0.19000000    0.11000000
   19.37444496   -1.00000000    0.19000000    0.11000000
   19.37777710   -1.00000000    0.19000000    0.11000000
   19.38083267   -1.00000000    0.19000000    0.11000000
   19.38416672   -1.00000000    0.19000000    0.11000000
   19.38722229   -1.00000000    0.19000000    0.11000000
   19.39055634   -1.00000000    0.19000000    0.11000000
   19.39388847   -1.00000000    0.19000000    0.11000000
   19.39694405   -1.00000000    0.19000000    0.11000000
   19.40027809   -1.00000000    0.19000000    0.11000000
   19.40361023   -1.00000000    0.19000000    0.11000000
   19.41416550   -1.00000000    0.19000000    0.11000000
   19.41722107   -1.00000000    0.19000000    0.11000000
   19.42055511   -1.00000000    0.19000000    0.11000000
   19.42361069   -1.00000000    0.19000000    0.11000000
   19.42694473   -1.00000000    0.19000000    0.11000000
   19.43000031   -1.00000000    0.19000000    0.11000000
   19.43333244   -1.00000000    0.19000000    0.11000000
   19.43666649   -1.00000000    0.19000000    0.11000000
   19.43999863   -1.00000000    0.19000000    0.11000000
   19.44333267   -1.00000000    0.19000000    0.11000000
   19.44638824   -1.00000000    0.19000000    0.11000000
   19.45694542   -1.00000000    0.19000000    0.11000000
   19.46000099   -1.00000000    0.19000000    0.11000000
   19.46333504   -1.00000000    0.19000000    0.11000000
   19.46638870   -1.00000000    0.19000000    0.11000000
   19.46972275   -1.00000000    0.19000000    0.11000000
   19.47333336   -1.00000000    0.19000000    0.11000000
   19.47666740   -1.00000000    0.19000000    0.11000000
   19.47972298   -1.00000000    0.19000000    0.11000000
   19.48305511   -1.00000000    0.19000000    0.11000000
   19.48638916   -1.00000000    0.19000000    0.11000000
   19.48944473   -1.00000000    0.19000000    0.11000000
   19.49972153   -1.00000000    0.19000000    0.11000000
   19.50277710   -1.00000000    0.19000000    0.11000000
   19.52277756   -1.00000000    0.19000000    0.11000000
   19.52611160   -1.00000000    0.19000000    0.11000000
   19.52944374   -1.00000000    0.19000000    0.11000000
   19.53249931   -1.00000000    0.19000000    0.11000000
   19.54277802   -1.00000000    0.19000000    0.11000000
   19.54611015   -1.00000000    0.19000000    0.11000000
   19.54916573   -1.00000000    0.19000000    0.11000000
   19.55249977   -1.00000000    0.19000000    0.11000000
   19.55555534   -1.00000000    0.19000000    0.11000000
   19.55888748   -1.00000000    0.19000000    0.11000000
   19.56222153   -1.00000000    0.19000000    0.11000000
   19.56527710   -1.00000000    0.19000000    0.11000000
   19.56861115   -1.00000000    0.19000000    0.11000000
   19.57222366   -1.00000000    0.19000000    0.11000000
   19.57555580   -1.00000000    0.19000000    0.11000000
   19.58555603   -1.00000000    0.19000000    0.11000000
   19.58889008   -1.00000000    0.19000000    0.11000000
   19.59194565   -1.00000000    0.19000000    0.11000000
   19.59527779   -1.00000000    0.19000000    0.11000000
   19.59861183   -1.00000000    0.19000000    0.11000000
   19.60166740   -1.00000000    0.19000000    0.11000000
   19.60527802   -1.00000000    0.19000000    0.11000000
   19.60861206   -1.00000000    0.19000000    0.11000000
   19.61166763   -1.00000000    0.19000000    0.11000000
   19.61499977   -1.00000000    0.19000000    0.11000000
   19.61805534   -1.00000000    0.19000000    0.11000000
   19.62833405   -1.00000000    0.19000000    0.11000000
   19.63166618   -1.00000000    0.19000000    0.11000000
   19.63500023   -1.00000000    0.19000000    0.11000000
   19.63833237   -1.00000000    0.19000000    0.11000000
   19.64166641   -1.00000000    0.19000000    0.11000000
   19.64472198   -1.00000000    0.19000000    0.11000000
   19.64805603   -1.00000000    0.19000000    0.11000000
   19.65111160   -1.00000000    0.19000000    0.11000000
   19.65444374   -1.00000000    0.19000000    0.11000000
   19.65777779   -1.00000000    0.19000000    0.11000000
   19.66083336   -1.00000000    0.19000000    0.11000000
   19.67138863   -1.00000000    0.19000000    0.11000000
   19.67444420   -1.00000000    0.19000000    0.11000000
   19.67777634   -1.00000000    0.19000000    0.11000000
   19.68083191   -1.00000000    0.19000000    0.11000000
   19.68416595   -1.00000000    0.19000000    0.11000000
   19.68750000   -1.00000000    0.19000000    0.11000000
   19.69055557   -1.00000000    0.19000000    0.11000000
   19.69388771   -1.00000000    0.19000000    0.11000000
   19.69694328   -1.00000000    0.19000000    0.11000000
   19.70027924   -1.00000000    0.19000000    0.11000000
   19.70361137   -1.00000000    0.19000000    0.11000000
   19.71416664   -1.00000000    0.19000000    0.11000000
   19.71722221   -1.00000000    0.19000000    0.11000000
   19.72055626   -1.00000000    0.19000000    0.11000000
   19.72361183   -1.00000000    0.19000000    0.11000000
   19.72694588   -1.00000000    0.19000000    0.11000000
   19.73027802   -1.00000000    0.19000000    0.11000000
   19.73333359   -1.00000000    0.19000000    0.11000000
   19.73666763   -1.00000000    0.19000000    0.11000000
   19.74027824   -1.00000000    0.19000000    0.11000000
   19.74361229   -1.00000000    0.19000000    0.11000000
   19.74666786   -1.00000000    0.19000000    0.11000000
   19.75694466   -1.00000000    0.19000000    0.11000000
   19.76000023   -1.00000000    0.19000000    0.11000000
   19.76333427   -1.00000000    0.19000000    0.11000000
   19.76666641   -1.00000000    0.19000000    0.11000000
   19.76972198   -1.00000000    0.19000000    0.11000000
   19.77333260  100.82199860    0.19000000    0.11000000
   19.77638817   -1.00000000    0.19000000    0.11000000
   19.77972221   -1.00000000    0.19000000    0.11000000
   19.78305435   -1.00000000    0.19000000    0.11000000
   19.78610992   -1.00000000    0.19000000    0.11000000
   19.78944397   -1.00000000    0.19000000    0.11000000
   19.79972076   -1.00000000    0.19000000    0.11000000
   19.80305481   -1.00000000    0.19000000    0.11000000
   19.80666542   -1.00000000    0.19000000    0.11000000
   19.80999947   -1.00000000    0.19000000    0.11000000
