    HOUR (UT)   FLARE FACTOR    SKY TESTER    SUN TESTER
   12.05694485   -1.00000000   -1.00000000   -1.00000000
   12.09722233  334.60101318    1.26999998    1.73000002
   12.10027790  194.59899902    1.25000000    1.71000004
   12.10361195  181.69700623    1.25000000    1.73000002
   12.10694504  184.94400024    1.26999998    1.73000002
   12.11000061  180.70500183    1.26999998    1.73000002
   12.11333370  178.41600037    1.28999996    1.73000002
   12.11750031  178.41600037    1.28999996    1.73000002
   12.12166691  191.00999451    1.28999996    1.75000000
   12.12472248  186.02499390    1.30999994    1.75000000
   12.12805557  181.04600525    1.30999994    1.75000000
   12.13027763  183.65899658    1.33000004    1.75000000
   12.13166714  182.25300598    1.33000004    1.75000000
   12.13500023  180.30599976    1.34000003    1.76999998
   12.13805580  168.51400757    1.36000001    1.76999998
   12.14138889  164.14599609    1.36000001    1.76999998
   12.14444447  156.81799316    1.36000001    1.76999998
   12.14777756  168.31700134    1.36000001    1.76999998
   12.15111065  159.11500549    1.36000001    1.76999998
   12.15416622  153.27099609    1.36000001    1.76999998
   12.16027737  153.27099609    1.34000003    1.78999996
   12.16444397  160.23199463    1.33000004    1.80999994
   12.16750050  164.25300598    1.33000004    1.80999994
   12.17083359  165.38299561    1.33000004    1.80999994
   12.17416668  163.19900513    1.33000004    1.78999996
   12.17750072  165.79699707    1.33000004    1.80999994
   12.18055630  165.13000488    1.38000000    1.83000004
   12.18388939  171.98699951    1.38000000    1.83000004
   12.18722248  165.72599792    1.39999998    1.83000004
   12.19027805  175.97200012    1.39999998    1.83000004
   12.19361115  164.26300049    1.39999998    1.83000004
   12.19694424  164.14900208    1.44000006    1.83000004
   12.19722271  158.34399414    1.41999996    1.83000004
   12.20305538  158.34399414    1.48000002    1.85000002
   12.20722198  165.64599609    1.51999998    1.85000002
   12.21055508  173.25999451    1.53999996    1.85000002
   12.21361065  157.88299561    1.53999996    1.85000002
   12.21694374  164.13800049    1.53999996    1.85000002
   12.21999931  161.96699524    1.53999996    1.85000002
   12.22333336  153.46200562    1.53999996    1.85000002
   12.22666645  157.09899902    1.55999994    1.86000001
   12.22972202  157.69799805    1.55999994    1.86000001
   12.23055553  150.22300720    1.55999994    1.86000001
   12.23333359  156.68299866    1.55999994    1.86000001
   12.23666668  147.22900391    1.55999994    1.86000001
   12.23972225  148.23800659    1.55999994    1.86000001
   12.24583340  148.23800659    1.53999996    1.86000001
   12.25000000  161.76199341    1.53999996    1.86000001
   12.25333309  162.52699280    1.50000000    1.88000000
   12.25638866  164.46099854    1.50000000    1.88000000
   12.25972176  155.94999695    1.50000000    1.88000000
   12.26305580  159.07899475    1.51999998    1.89999998
   12.26388931  159.01300049    1.51999998    1.89999998
   12.26666641  164.44000244    1.55999994    1.88000000
   12.26999950  164.36599731    1.71000004    1.89999998
   12.27305508  164.74499512    1.78999996    1.89999998
   12.27638817  155.23899841    1.85000002    1.89999998
   12.27972221  156.21299744    1.88000000    1.89999998
   12.28277779  155.78300476    1.88000000    1.89999998
   12.28888893  155.78300476    1.88000000    1.91999996
   12.29305553  164.10699463    1.85000002    1.91999996
   12.29611111  148.53999329    1.76999998    1.91999996
   12.29722309  159.77099609    1.76999998    1.91999996
   12.29972267  156.57499695    1.73000002    1.91999996
   12.30305576  144.04800415    1.71000004    1.91999996
   12.30611134  162.79200745    1.66999996    1.94000006
   12.30944443  144.97200012    1.66999996    1.94000006
   12.31277752  148.69599915    1.64999998    1.91999996
   12.31583309  149.77799988    1.66999996    1.94000006
   12.31916618  147.44500732    1.71000004    1.94000006
   12.32222176  144.67799377    1.75000000    1.94000006
   12.32555580  150.57400513    1.78999996    1.94000006
   12.33166695  150.57400513    1.94000006    1.96000004
   12.33583260  149.02299500    2.09999990    1.96000004
   12.33888817  149.94799805    2.17000008    1.96000004
   12.34222221  144.28900146    2.25000000    1.96000004
   12.34555531  144.09700012    2.28999996    1.96000004
   12.34861088  151.81199646    2.32999992    1.98000002
   12.35194492  153.90299988    2.36999989    1.98000002
   12.35527802  145.79499817    2.40000010    1.98000002
   12.35833359  147.55499268    2.42000008    1.98000002
   12.36166668  150.69400024    2.42000008    1.98000002
   12.36388969  149.77499390    2.46000004    1.98000002
   12.36527824  142.72300720    2.46000004    1.98000002
   12.36861134  137.88400269    2.48000002    1.98000002
   12.37444496  137.88400269    2.53999996    2.00000000
   12.37861156  145.05499268    2.50000000    2.00000000
   12.38194466  143.67900085    2.46000004    2.00000000
   12.38500023  147.34599304    2.46000004    2.00000000
   12.38833332  161.90400696    2.57999992    2.01999998
   12.39166641  150.62600708    2.69000006    2.00000000
   12.39472198  145.44500732    2.73000002    2.01999998
   12.39722252  151.47200012    2.71000004    2.01999998
   12.39833355  145.50399780    2.69000006    2.00000000
   12.40166664  150.78500366    2.64000010    2.01999998
   12.40472221  140.12699890    2.61999989    2.01999998
   12.40805531  148.50700378    2.57999992    2.01999998
   12.41138840  144.01600647    2.51999998    2.01999998
   12.41722298  144.01600647    2.42000008    2.01999998
   12.42138958  147.23699951    2.36999989    2.01999998
   12.42472267  149.79699707    2.32999992    2.03999996
   12.42805576  142.94000244    2.26999998    2.01999998
   12.43055630  150.39500427    2.21000004    2.03999996
   12.43138885  143.44500732    2.23000002    2.01999998
   12.43472195  143.19700623    2.19000006    2.03999996
   12.43777752  146.61900330    2.17000008    2.03999996
   12.44111156  153.54200745    2.17000008    2.03999996
   12.44444466  151.13400269    2.17000008    2.03999996
   12.44750023  149.72500610    2.23000002    2.03999996
   12.45083332  147.23300171    2.28999996    2.05999994
   12.45388889  147.25599670    2.34999990    2.05999994
   12.46027756  147.25599670    2.40000010    2.05999994
   12.46416664  154.09800720    2.42000008    2.05999994
   12.46749973  153.83299255    2.36999989    2.05999994
   12.47083282  144.12699890    2.26999998    2.07999992
   12.47388840  150.02999878    2.17000008    2.07999992
   12.47722149  147.10600281    2.07999992    2.07999992
   12.48055553  152.81599426    2.01999998    2.07999992
   12.48361111  150.61500549    2.01999998    2.07999992
   12.48694515  145.35400391    2.05999994    2.07999992
   12.49000072  144.06900024    2.09999990    2.07999992
   12.49333382  144.22999573    2.09999990    2.07999992
   12.49666691  143.11399841    2.11999989    2.07999992
   12.49722290  144.09899902    2.11999989    2.07999992
   12.50305557  144.09899902    2.13000011    2.07999992
   12.50722218  150.31300354    2.15000010    2.07999992
   12.51055527  142.25399780    2.21000004    2.07999992
   12.51361084  146.74800110    2.25000000    2.07999992
   12.51694393  139.55799866    2.30999994    2.09999990
   12.51999950  140.23599243    2.39000010    2.07999992
   12.52333355  142.67799377    2.48000002    2.09999990
   12.52666664  149.92199707    2.50000000    2.07999992
   12.52972221  138.03300476    2.46000004    2.09999990
   12.53055573  145.25700378    2.44000006    2.09999990
   12.53333378  148.61999512    2.40000010    2.09999990
   12.53666687  138.72300720    2.34999990    2.07999992
   12.53972244  135.81700134    2.39000010    2.07999992
   12.54583359  135.81700134    2.67000008    2.07999992
   12.55000019  135.42300415    2.93000007    2.07999992
   12.55333328  154.61000061    3.14000010    2.07999992
   12.55638885  149.02200317    3.53999996    2.01999998
   12.55972195  142.01699829    4.11999989    2.01999998
   12.56277752  152.95700073    4.63999987    2.01999998
   12.56388950  147.76800537    4.86999989    2.01999998
   12.56638908  153.39100647    4.90999985    2.01999998
   12.56972218  153.68099976    4.90999985    2.00000000
   12.57333374  153.78900146    4.90999985    2.00000000
   12.57638836  151.37500000    4.90999985    2.01999998
   12.57972240  156.62600708    4.90999985    2.03999996
   12.58277798  167.88299561    4.90999985    1.98000002
   12.58861065  167.88299561    4.90999985    1.96000004
   12.59277725  175.15199280    4.90999985    1.96000004
   12.59611034  158.44000244    4.90999985    1.96000004
   12.59749985  161.85000610    4.90999985    1.98000002
   12.59972191  175.70500183    4.90999985    1.98000002
   12.60305595  151.24499512    4.90999985    2.00000000
   12.60611153  165.04200745    4.90999985    2.03999996
   12.60944462  158.60899353    4.90999985    2.00000000
   12.61277771  172.25399780    4.90999985    2.00000000
   12.61583328  153.44799805    4.90999985    2.00000000
   12.61916637  159.33999634    4.90999985    2.01999998
   12.62222195  152.28900146    4.90999985    2.01999998
   12.62555599  167.88000488    4.90999985    2.00000000
   12.63166714  167.88000488    4.90999985    1.96000004
   12.63583279  159.72500610    4.90999985    1.98000002
   12.63888836  167.14100647    4.90999985    2.01999998
   12.64222240  153.89599609    4.90999985    2.01999998
   12.64527798  158.49899292    4.90999985    2.03999996
   12.64861107  167.15499878    4.90999985    2.00000000
   12.65194416  173.14599609    4.90999985    1.94000006
   12.65499973  167.36599731    4.90999985    1.91999996
   12.65833282  158.83799744    4.90999985    1.98000002
   12.66166592  177.57699585    4.90999985    1.96000004
   12.66416645  170.66799927    4.90999985    1.98000002
   12.66499996  198.57899475    4.90999985    1.96000004
   12.66833401  175.81100464    4.90999985    1.94000006
   12.67444515  175.81100464    4.90999985    2.05999994
   12.67861176  169.14599609    4.90999985    2.01999998
   12.68166733  171.10600281    4.90999985    1.98000002
   12.68500042  178.64199829    4.90999985    2.00000000
   12.68833351  195.43600464    4.90999985    1.94000006
   12.69138908  207.48699951    4.90999985    1.89999998
   12.69472218  193.28999329    4.90999985    1.89999998
   12.69750023  218.62100220    4.90999985    1.86000001
   12.69833374  201.93200684    4.90999985    1.86000001
   12.70166683  183.28799438    4.90999985    1.89999998
   12.70472240  195.83099365    4.90999985    1.91999996
   12.70805550  194.80299377    4.90999985    1.88000000
   12.71138859  191.44000244    4.90999985    1.91999996
   12.71722221  191.44000244    4.90999985    1.88000000
   12.72138882  195.22799683    4.90999985    1.85000002
   12.72472191  188.33399963    4.90999985    1.88000000
   12.72777748  170.01499939    4.90999985    1.94000006
   12.73083305  152.78599548    4.90999985    1.98000002
   12.73138809  164.52400208    4.90999985    2.00000000
   12.73472214  176.95799255    4.90999985    1.94000006
   12.73777771  173.15499878    4.90999985    1.94000006
   12.74111176  168.44299316    4.90999985    1.96000004
   12.74444485  194.47700500    4.90999985    1.98000002
   12.74750042  175.78199768    4.90999985    1.96000004
   12.75083351  191.08599854    4.90999985    1.91999996
   12.75416660  164.19000244    4.90999985    1.89999998
   12.76000023  164.19000244    4.90999985    1.94000006
   12.76416683  178.33099365    4.90999985    1.94000006
   12.76749992  177.38000488    4.90999985    1.98000002
   12.77055550  228.88200378    4.90999985    1.96000004
   12.77388859  163.97399902    4.90999985    1.89999998
   12.77722168  185.14799500    4.90999985    2.00000000
   12.78027725  185.13000488    4.90999985    1.98000002
   12.78361130  217.87800598    4.90999985    1.89999998
   12.78694534  226.89500427    4.90999985    1.89999998
   12.79000092  204.43800354    4.90999985    1.86000001
   12.79333401  183.74499512    4.90999985    1.88000000
   12.79638958  182.46699524    4.90999985    1.94000006
   12.79750061  176.43200684    4.90999985    1.94000006
   12.80305576  176.43200684    4.90999985    1.98000002
   12.80694485  205.32499695    4.90999985    1.91999996
   12.81027794  309.93600464    4.90999985    1.88000000
   12.81222248  197.46000671    4.90999985    1.85000002
   12.81222248  182.46699524    4.90999985    1.94000006
   12.81250000  205.32499695    4.90999985    1.91999996
   12.81250000  309.93600464    4.90999985    1.88000000
   12.81250000  185.14799500    4.90999985    2.00000000
   12.81250000  185.13000488    4.90999985    1.98000002
   12.81250000  217.87800598    4.90999985    1.89999998
   12.81277752  226.89500427    4.90999985    1.89999998
   12.81277752  204.43800354    4.90999985    1.86000001
   12.81277752  183.74499512    4.90999985    1.88000000
   12.81472206  212.66700745    4.90999985    1.88000000
   12.81805515  195.48300171    4.90999985    1.96000004
   12.82111073  243.61799622    4.90999985    1.89999998
   12.82444477  186.10299683    4.90999985    1.89999998
   12.82777786  205.06100464    4.90999985    1.94000006
   12.83305550  205.06100464    4.90999985    1.88000000
   12.83722210  253.23500061    4.90999985    1.88000000
   12.84055519  314.48800659    4.90999985    1.86000001
   12.84249973  201.10699463    4.90999985    1.83000004
   12.84249973  212.66700745    4.90999985    1.88000000
   12.84249973  195.48300171    4.90999985    1.96000004
   12.84249973  243.61799622    4.90999985    1.89999998
   12.84277725  186.10299683    4.90999985    1.89999998
   12.84277725  205.06100464    4.90999985    1.94000006
   12.84277725  253.23500061    4.90999985    1.88000000
   12.84277725  314.48800659    4.90999985    1.86000001
   12.84472179  201.72399902    4.90999985    1.86000001
   12.84805489  325.17098999    4.90999985    1.85000002
   12.85000038  318.40600586    4.90999985    1.80999994
   12.85138893  178.41099548    4.90999985    1.76999998
   12.85138893  201.72399902    4.90999985    1.86000001
   12.85138893  325.17098999    4.90999985    1.85000002
   12.85222244  190.74000549    4.90999985    1.85000002
   12.85555553  212.67700195    4.90999985    1.94000006
   12.85861111  181.41099548    4.90999985    1.94000006
   12.86194515  200.00300598    4.90999985    2.00000000
   12.86527824  191.66799927    4.90999985    2.00000000
   12.86833382  181.93200684    4.90999985    1.94000006
   12.87250042  181.93200684    4.90999985    1.96000004
   12.87666702  174.16499329    4.90999985    1.89999998
   12.88000011  173.39700317    4.90999985    2.01999998
   12.88305569  168.13499451    4.90999985    2.00000000
   12.88527775  153.22599792    4.90999985    2.03999996
   12.88666630  149.43499756    4.90999985    2.13000011
   12.89000034  148.13400269    4.90999985    2.07999992
   12.89333344  157.45199585    4.90999985    2.13000011
   12.89638901  151.20799255    4.90999985    2.13000011
   12.89972210  152.35600281    4.90999985    2.11999989
   12.90305519  162.73100281    4.90999985    2.11999989
   12.90611076  148.25199890    4.90999985    2.11999989
   12.90944386  176.56199646    4.90999985    2.05999994
   12.91527748  176.56199646    4.90999985    2.07999992
   12.91944504  152.05700684    4.90999985    2.13000011
   12.92277813  138.45700073    4.90999985    2.15000010
   12.92583370  131.89399719    4.90999985    2.21000004
   12.92916679  147.58599854    4.90999985    2.23000002
   12.93249989  165.13999939    4.90999985    2.21000004
   12.93583298  135.10400391    4.90999985    2.17000008
   12.93888855  134.71400452    4.90999985    2.23000002
   12.94222260  140.41499329    4.90999985    2.21000004
   12.94527817  145.29499817    4.90999985    2.17000008
   12.94861126  143.20599365    4.90999985    2.11999989
   12.95194435  133.69700623    4.90999985    2.15000010
   12.95249939  128.10099792    4.90999985    2.15000010
   12.95833302  128.10099792    4.90999985    2.21000004
   12.96222210  133.24499512    4.90999985    2.23000002
   12.96555519  132.97700500    4.59999990    2.26999998
   12.96888828  131.49600220    3.75000000    2.26999998
   12.97194386  129.11799622    3.51999998    2.26999998
   12.97527695  138.03199768    3.30999994    2.26999998
   12.97861099  132.59700012    3.34999990    2.26999998
   12.98166656  130.98199463    4.00000000    2.26999998
   12.98500061  136.16400146    4.90999985    2.26999998
   12.98555565  144.55900574    4.90999985    2.26999998
   12.98861122  131.61399841    4.90999985    2.21000004
   12.99194431  138.83299255    4.90999985    2.26999998
   12.99527836  146.83999634    4.90999985    2.28999996
   13.00111103  146.83999634    4.90999985    2.19000006
   13.00527763  147.06799316    4.90999985    2.13000011
   13.00833321  140.73699951    4.90999985    2.17000008
   13.01166630  138.71800232    4.90999985    2.23000002
   13.01500034  136.33700562    4.90999985    2.26999998
   13.01805496  136.49899292    4.51000023    2.26999998
   13.01888847  129.63299561    4.07999992    2.26999998
   13.02166653  126.66000366    3.55999994    2.26999998
   13.02499962  131.08200073    3.50000000    2.26999998
   13.02833271  129.29100037    3.50000000    2.26999998
   13.03138828  127.57499695    3.80999994    2.28999996
   13.03472233  132.57099915    4.01999998    2.28999996
   13.03777790  134.70300293    4.80000019    2.26999998
   13.04388905  134.70300293    4.90999985    2.28999996
   13.04805565  131.91000366    4.86999989    2.26999998
   13.05138874  126.48699951    4.28999996    2.26999998
   13.05222225  135.61099243    4.28999996    2.26999998
   13.05472279  127.77200317    3.72000003    2.28999996
   13.05805588  134.69400024    3.46000004    2.28999996
   13.06138897  133.84800720    3.41000009    2.28999996
   13.06444454  136.93400574    3.03999996    2.28999996
   13.06777763  133.86300659    3.18000007    2.28999996
   13.07083321  127.48500061    3.66000009    2.26999998
   13.07416630  135.79200745    3.64000010    2.30999994
   13.07750034  135.48399353    3.11999989    2.30999994
   13.08055592  130.71600342    3.20000005    2.32999992
   13.08666611  130.71600342    1.58000004    2.32999992
   13.09083271  132.12300110    1.09000003    2.32999992
   13.09416676  130.59599304    1.05999994    2.30999994
   13.09749985  127.85399628    1.01999998    2.32999992
   13.11722279  128.78300476    0.98000002    2.32999992
   13.11888885  129.69400024    0.98000002    2.32999992
   13.12083340  137.02200317    0.98000002    2.32999992
   13.12416649  128.03500366    1.05999994    2.32999992
   13.12972260  128.03500366    1.13000000    2.32999992
   13.13388920  130.12899780    1.11000001    2.32999992
   13.13722229  131.26899719    1.07000005    2.32999992
   13.14055538  123.27100372    1.05999994    2.32999992
   13.14361095  127.33499908    1.09000003    2.32999992
   13.14694405  129.18400574    1.16999996    2.34999990
   13.14999962  125.69100189    1.21000004    2.34999990
   13.15222168  134.49899292    1.21000004    2.34999990
   13.15361118  132.41700745    1.21000004    2.34999990
   13.15694427  126.81400299    1.21000004    2.34999990
   13.15999985  135.43200684    1.14999998    2.34999990
   13.16333294  126.48500061    1.16999996    2.34999990
   13.16666698  128.13499451    1.25000000    2.32999992
   13.17277813  128.13499451    1.30999994    2.34999990
   13.17694473  134.65699768    1.38000000    2.34999990
   13.18000031  127.29100037    1.63000000    2.34999990
   13.18333340  132.22700500    1.83000004    2.32999992
   13.18555546  126.03500366    2.01999998    2.32999992
   13.18694496  124.27899933    2.05999994    2.34999990
   13.19027805  126.27799988    2.11999989    2.34999990
   13.19333363  130.45700073    2.17000008    2.34999990
   13.19666672  130.83700562    2.21000004    2.32999992
   13.19999981  131.26499939    2.30999994    2.32999992
   13.20305538  124.79000092    3.00000000    2.30999994
   13.20638847  131.94099426    3.34999990    2.28999996
   13.20944405  136.05299377    3.59999990    2.30999994
   13.21555519  136.05299377    3.48000002    2.32999992
   13.21972179  132.85400391    3.30999994    2.32999992
   13.22277737  132.34300232    3.20000005    2.32999992
   13.22611046  134.07400513    3.32999992    2.32999992
   13.22944355  137.24299622    3.26999998    2.34999990
   13.23249912  134.10699463    3.11999989    2.32999992
   13.23583317  134.58299255    3.30999994    2.30999994
   13.23916721  123.82499695    3.48000002    2.30999994
   13.24222279  135.42799377    3.68000007    2.32999992
   13.24555588  126.21600342    3.75000000    2.32999992
   13.24861145  132.36199951    3.84999990    2.32999992
   13.25194454  129.28199768    4.05999994    2.32999992
   13.25249958  133.95399475    4.03999996    2.30999994
   13.25833321  133.95399475    3.57999992    2.34999990
   13.26249981  125.86900330    3.55999994    2.34999990
   13.26583290  127.64299774    3.59999990    2.34999990
   13.26916599  125.24600220    3.64000010    2.32999992
   13.27222157  127.23100281    3.75000000    2.32999992
   13.27555561  126.55799866    3.99000001    2.30999994
   13.27888870  130.99299622    4.19999981    2.32999992
   13.28194427  127.61399841    4.59999990    2.32999992
   13.28527832  128.07899475    4.76000023    2.32999992
   13.28583336  125.68199921    4.76000023    2.32999992
   13.28888893  122.68900299    4.90999985    2.32999992
   13.29194450  130.07499695    4.90999985    2.30999994
   13.29527855  139.09700012    4.90999985    2.32999992
   13.30111122  139.09700012    4.90999985    2.30999994
   13.30527782  135.68899536    4.90999985    2.30999994
   13.30861092  137.38099670    4.90999985    2.28999996
   13.31194496  130.09500122    4.90999985    2.25000000
   13.31500053  133.08200073    4.90999985    2.26999998
   13.31833363  131.52299500    4.90999985    2.25000000
   13.31916618  132.30400085    4.90999985    2.25000000
   13.32194424  132.41299438    4.90999985    2.26999998
   13.32499981  133.80700684    4.90999985    2.25000000
   13.32833290  139.18800354    4.90999985    2.21000004
   13.33138847  134.24499512    4.90999985    2.23000002
   13.33472157  135.38299561    4.90999985    2.23000002
   13.33805561  141.80299377    4.90999985    2.23000002
   13.34416676  141.80299377    4.90999985    2.25000000
   13.34833336  134.32899475    4.90999985    2.30999994
   13.35138893  127.37699890    4.90999985    2.30999994
   13.35249996  131.44999695    4.90999985    2.30999994
   13.35527802  134.21400452    4.90999985    2.30999994
   13.35833359  131.60000610    4.90999985    2.28999996
   13.36166668  132.22500610    4.90999985    2.30999994
   13.36472225  142.00000000    4.90999985    2.30999994
   13.36805534  136.90800476    4.90999985    2.30999994
   13.37138939  129.68699646    4.90999985    2.32999992
   13.37444496  126.13500214    4.90999985    2.34999990
   13.37777805  125.08499908    4.90999985    2.34999990
   13.38111115  131.84599304    4.90999985    2.34999990
   13.38694477  131.84599304    4.90999985    2.34999990
   13.39111137  125.14399719    4.90999985    2.36999989
   13.39416695  121.99500275    4.90999985    2.36999989
   13.39750004  126.70200348    4.90999985    2.36999989
   13.40083313  124.73400116    4.90999985    2.36999989
   13.40388870  124.12200165    4.90999985    2.36999989
   13.40722179  123.51799774    4.90999985    2.39000010
   13.41055489  129.02099609    4.90999985    2.34999990
   13.41361046  139.04899597    4.90999985    2.36999989
   13.41694450  133.13099670    4.90999985    2.34999990
   13.41916656  132.86399841    4.90999985    2.34999990
   13.42055607  129.69200134    4.90999985    2.32999992
   13.42361164  134.04800415    4.90999985    2.32999992
   13.42972279  134.04800415    4.90999985    2.32999992
   13.43388939  137.08700562    4.90999985    2.34999990
   13.43722248  130.90600586    4.90999985    2.36999989
   13.44027805  131.60299683    4.90999985    2.36999989
   13.44361115  133.96200562    4.90999985    2.36999989
   13.44694424  126.37300110    4.90999985    2.34999990
   13.44999981  134.08000183    4.90999985    2.34999990
   13.45249939  133.75500488    4.90999985    2.34999990
   13.45388889  134.99600220    4.90999985    2.32999992
   13.45694447  135.17999268    4.90999985    2.32999992
   13.46027756  135.35000610    4.90999985    2.34999990
   13.46333313  139.10400391    4.90999985    2.30999994
   13.46666622  128.51800537    4.90999985    2.30999994
   13.47277737  128.51800537    4.90999985    2.26999998
   13.47666645  122.19799805    4.90999985    2.32999992
   13.47999954  142.74299622    4.90999985    2.30999994
   13.48333359  133.23199463    4.90999985    2.28999996
   13.48583317  132.28100586    4.90999985    2.30999994
   13.48694515  136.47799683    4.90999985    2.34999990
   13.49027824  135.18699646    4.90999985    2.28999996
   13.49361134  127.33000183    4.90999985    2.28999996
   13.49666691  127.10399628    4.90999985    2.32999992
   13.50000000  141.28500366    4.90999985    2.30999994
   13.50333309  134.45700073    4.90999985    2.28999996
   13.50638866  144.66299438    4.90999985    2.32999992
   13.50972176  144.13400269    4.90999985    2.23000002
   13.51555538  144.13400269    4.90999985    2.30999994
   13.51972198  131.56900024    4.90999985    2.32999992
   13.52277756  135.20500183    4.90999985    2.30999994
   13.52611065  144.72799683    4.90999985    2.28999996
   13.52916622  141.31799316    4.90999985    2.28999996
   13.53249931  138.26800537    4.90999985    2.32999992
   13.53583336  131.21099854    4.90999985    2.25000000
   13.53888893  131.68600464    4.90999985    2.32999992
   13.54222298  134.04400635    4.90999985    2.28999996
   13.54555607  130.24400330    4.90999985    2.30999994
   13.54861164  135.71600342    4.90999985    2.32999992
   13.55194473  130.21800232    4.90999985    2.26999998
   13.55249977  140.12699890    4.90999985    2.26999998
   13.55833340  140.12699890    4.90999985    2.32999992
   13.56250000  129.37899780    4.90999985    2.30999994
   13.56555557  136.07899475    4.90999985    2.28999996
   13.56888866  133.20799255    4.90999985    2.28999996
   13.57222176  145.31399536    4.90999985    2.28999996
   13.57527733  137.41000366    4.90999985    2.25000000
   13.57861137  133.32800293    4.90999985    2.25000000
   13.58194447  131.41999817    4.90999985    2.23000002
   13.58500004  134.78500366    4.90999985    2.23000002
   13.58583260  132.90299988    4.90999985    2.25000000
   13.58861065  132.28799438    4.90999985    2.25000000
   13.59166622  133.58500671    4.90999985    2.26999998
   13.59499931  128.98300171    4.90999985    2.26999998
   13.60111141  128.98300171    4.90999985    2.25000000
   13.60527802  137.36199951    4.90999985    2.26999998
   13.60861111  135.73100281    4.90999985    2.26999998
   13.61166668  138.11099243    4.90999985    2.28999996
   13.61500072  139.88999939    4.90999985    2.26999998
   13.61833382  125.48899841    4.90999985    2.25000000
   13.61916637  139.33000183    4.90999985    2.25000000
   13.62194443  134.73599243    4.90999985    2.26999998
   13.62500000  146.12800598    4.90999985    2.23000002
   13.62833309  140.54899597    4.90999985    2.25000000
   13.63166714  135.96299744    4.90999985    2.23000002
   13.63472176  138.64999390    4.90999985    2.23000002
   13.63805580  139.58099365    4.90999985    2.23000002
   13.64388847  139.58099365    4.90999985    2.25000000
   13.64805508  137.02799988    4.90999985    2.25000000
   13.65138817  130.17999268    4.90999985    2.23000002
   13.65249920  128.63999939    4.90999985    2.23000002
   13.65499973  134.36999512    4.90999985    2.25000000
   13.65805531  132.99699402    4.90999985    2.26999998
   13.66138840  130.36900330    4.90999985    2.25000000
   13.66472149  138.30000305    4.90999985    2.26999998
   13.66777802  135.71800232    4.90999985    2.25000000
   13.67111111  137.98800659    4.90999985    2.23000002
   13.67416668  137.84599304    4.90999985    2.25000000
   13.67750072  144.11500549    4.90999985    2.26999998
   13.68083382  136.64900208    4.90999985    2.23000002
   13.68694496  136.64900208    4.90999985    2.23000002
   13.69111156  142.02200317    4.90999985    2.23000002
   13.69416714  151.48599243    4.90999985    2.25000000
   13.69750023  141.17300415    4.90999985    2.25000000
   13.70055580  143.02600098    4.90999985    2.26999998
   13.70388889  154.22399902    4.90999985    2.25000000
   13.70722198  137.97500610    4.90999985    2.26999998
   13.71055508  139.60299683    4.90999985    2.28999996
   13.71361065  140.72000122    4.90999985    2.25000000
   13.71694374  137.24699402    4.90999985    2.28999996
   13.71916580  140.24600220    4.90999985    2.25000000
   13.72055531  140.31799316    4.90999985    2.25000000
   13.72361088  130.36999512    4.90999985    2.23000002
   13.72972202  130.36999512    4.90999985    2.25000000
   13.73388958  138.53399658    4.90999985    2.28999996
   13.73694515  138.27000427    4.90999985    2.23000002
   13.74027824  137.08399963    4.90999985    2.23000002
   13.74361134  141.28199768    4.90999985    2.26999998
   13.74666691  137.93400574    4.90999985    2.21000004
   13.75000000  121.63099670    4.90999985    2.26999998
   13.75249958  141.75799561    4.90999985    2.26999998
   13.75361156  130.21600342    4.90999985    2.25000000
   13.75666714  129.92799377    4.90999985    2.28999996
   13.76000023  141.60699463    4.90999985    2.30999994
   13.76333332  141.27699280    4.90999985    2.21000004
   13.76638889  125.77500153    4.90999985    2.28999996
   13.77250004  125.77500153    4.90999985    2.23000002
   13.77666664  128.61700439    4.90999985    2.26999998
   13.77999973  128.90800476    4.90999985    2.21000004
   13.78305531  138.70399475    4.90999985    2.26999998
   13.78583336  133.91999817    4.90999985    2.21000004
   13.78694534  130.84599304    4.90999985    2.19000006
   13.79000092  131.80900574    4.90999985    2.26999998
   13.79333401  126.62000275    4.90999985    2.30999994
   13.79666710  134.21600342    4.90999985    2.30999994
   13.79972267  134.23199463    4.90999985    2.30999994
   13.80305576  120.51399994    4.90999985    2.30999994
   13.80611134  135.18600464    4.90999985    2.28999996
   13.80944443  129.23100281    4.90999985    2.28999996
   13.81555557  129.23100281    4.90999985    2.26999998
   13.81944466  125.81400299    4.90999985    2.26999998
   13.82277775  131.89999390    4.90999985    2.25000000
   13.82611084  127.91699982    4.90999985    2.26999998
   13.82916641  128.07099915    4.90999985    2.26999998
   13.83249950  131.68899536    4.90999985    2.28999996
   13.83583260  130.54899597    4.90999985    2.26999998
   13.83888817  133.39799500    4.90999985    2.28999996
   13.84222221  137.52299500    4.90999985    2.28999996
   13.84527779  124.15499878    4.90999985    2.26999998
   13.84861088  133.66299438    4.90999985    2.25000000
   13.85194492  129.16099548    4.90999985    2.25000000
   13.85249996  134.48199463    4.90999985    2.25000000
   13.85833359  134.48199463    4.90999985    2.28999996
   13.86250019  143.68800354    4.90999985    2.25000000
   13.86555576  139.95199585    4.90999985    2.25000000
   13.86888885  132.85699463    4.90999985    2.17000008
   13.87222195  144.14199829    4.90999985    2.19000006
   13.87527752  137.98300171    4.90999985    2.13000011
   13.87861156  146.84199524    4.90999985    2.17000008
   13.88194466  143.67100525    4.90999985    2.15000010
   13.88500023  146.00000000    4.90999985    2.11999989
   13.88583279  147.64300537    4.90999985    2.11999989
   13.88861084  151.53700256    4.90999985    2.13000011
   13.89166641  142.23300171    4.90999985    2.11999989
   13.89499950  142.33500671    4.90999985    2.13000011
   13.90111065  142.33500671    4.90999985    2.17000008
   13.90527725  141.73300171    4.90999985    2.17000008
   13.90833282  133.37600708    4.90999985    2.17000008
   13.91166592  127.70300293    4.90999985    2.19000006
   13.91499996  128.81799316    4.90999985    2.19000006
   13.91805553  127.34700012    4.90999985    2.21000004
   13.91916656  124.73699951    4.90999985    2.21000004
   13.92166710  127.88099670    4.90999985    2.23000002
   13.92472267  123.41999817    4.90999985    2.25000000
   13.92805576  125.63700104    4.90999985    2.26999998
   13.93138885  146.34399414    4.90999985    2.19000006
   13.93444443  135.76300049    4.90999985    2.17000008
   13.93777752  153.44099426    4.90999985    2.21000004
   13.94388866  153.44099426    4.90999985    2.21000004
   13.94805527  148.98599243    4.90999985    2.23000002
   13.95138836  144.67300415    4.90999985    2.17000008
   13.95249939  135.48300171    4.90999985    2.15000010
   13.95499992  146.63600159    4.90999985    2.23000002
   13.95805550  143.62800598    4.90999985    2.15000010
   13.96138859  144.67799377    4.90999985    2.21000004
   13.96472168  144.35299683    4.90999985    2.19000006
   13.96777725  144.50999451    4.90999985    2.23000002
   13.97111034  133.74400330    4.90999985    2.23000002
   13.97444439  155.05999756    4.90999985    2.21000004
   13.97749996  141.39399719    4.90999985    2.19000006
   13.98083305  143.90299988    4.90999985    2.23000002
   13.98666668  143.90299988    4.90999985    2.19000006
   13.99083328  137.19000244    4.90999985    2.17000008
   13.99416733  130.11999512    4.90999985    2.15000010
   13.99750042  132.72700500    4.90999985    2.26999998
   14.00055599  155.57200623    4.90999985    2.21000004
   14.00388908  135.72900391    4.90999985    2.11999989
   14.00694466  170.39700317    4.90999985    2.17000008
   14.01027775  145.32699585    4.90999985    2.05999994
   14.01361084  178.30200195    4.90999985    2.09999990
   14.01666641  189.39999390    4.90999985    1.96000004
   14.01916599  196.07099915    4.90999985    2.05999994
   14.02027798  194.64300537    4.90999985    2.05999994
   14.02333355  174.07499695    4.90999985    2.00000000
   14.02972221  174.07499695    4.90999985    2.05999994
   14.03388977  167.99800110    4.90999985    2.09999990
   14.03722286  162.07299805    4.90999985    2.01999998
   14.04027843  146.65299988    4.90999985    2.03999996
   14.04361153  177.94400024    4.90999985    2.05999994
   14.04666710  161.58500671    4.90999985    1.98000002
   14.05000019  163.94000244    4.90999985    2.03999996
   14.05249977  179.53599548    4.90999985    2.00000000
   14.05361176  149.48800659    4.90999985    2.01999998
   14.05666733  152.76400757    4.90999985    2.07999992
   14.06000042  144.05000305    4.90999985    2.13000011
   14.06333351  169.45799255    4.90999985    2.13000011
   14.06638908  189.31399536    4.90999985    2.05999994
   14.07250023  189.31399536    4.90999985    1.80999994
   14.07666683  249.25999451    4.90999985    1.98000002
   14.07972240  153.34100342    4.90999985    1.89999998
   14.08305550  147.25000000    4.90999985    2.11999989
   14.08583260  149.84100342    4.90999985    2.11999989
   14.08666611  165.84899902    4.90999985    2.07999992
   14.08972168  139.78300476    4.90999985    2.15000010
   14.09305477  156.94599915    4.90999985    2.13000011
   14.09638882  164.59899902    4.90999985    2.13000011
   14.09944439  177.47599792    4.90999985    2.01999998
   14.10277843  165.91099548    4.90999985    2.05999994
   14.10611153  145.91099548    4.90999985    2.13000011
   14.10916710  195.81500244    4.90999985    2.09999990
   14.13166714  112.12300110    4.90999985    1.91999996
   14.13222218   65.88770294    4.90999985    1.78999996
   14.13527775  152.06799316    4.90999985    1.86000001
   14.13861084  241.36099243    4.90999985    2.09999990
   14.14166641  280.53298950    4.90999985    1.96000004
   14.14499950  156.30200195    4.90999985    1.94000006
   14.14833355  141.03199768    4.90999985    2.13000011
   14.15138817  144.70500183    4.90999985    2.15000010
   14.15833282  144.70500183    4.90999985    2.11999989
   14.16222191  133.08599854    4.90999985    2.05999994
   14.16472149  139.21800232    4.90999985    2.19000006
   14.16583252  140.62699890    4.90999985    2.19000006
   14.16916656  141.15400696    4.90999985    2.25000000
   14.17222214  136.46000671    4.90999985    2.21000004
   14.17555618  128.69999695    4.90999985    2.23000002
   14.17888927  126.62000275    4.90999985    2.28999996
   14.18194485  131.84599304    4.90999985    2.28999996
   14.18527794  152.10099792    4.90999985    2.19000006
   14.18833351  138.64700317    4.90999985    2.15000010
   14.19166660  149.52200317    4.90999985    2.13000011
   14.19499969  137.51899719    4.90999985    2.17000008
   14.20111084  137.51899719    4.90999985    2.17000008
   14.20527744  140.91900635    4.90999985    2.19000006
   14.20833302  132.69599915    4.90999985    2.21000004
   14.21166611  132.08000183    4.90999985    2.19000006
   14.21500015  130.77799988    4.90999985    2.23000002
   14.21833324  126.58999634    4.90999985    2.25000000
   14.22138882  133.69200134    4.90999985    2.30999994
   14.22472191  124.43299866    4.90999985    2.32999992
   14.22777748  125.77700043    4.90999985    2.30999994
   14.23111057  123.20099640    4.90999985    2.32999992
   14.23194408  120.28800201    4.90999985    2.32999992
   14.23472214  120.54799652    4.90999985    2.39000010
   14.23777771  130.62100220    4.90999985    2.42000008
   14.24388885  130.62100220    4.90999985    2.44000006
   14.24805546  129.20500183    4.90999985    2.40000010
   14.25138855  127.36799622    4.90999985    2.39000010
   14.25444412  127.48100281    4.90999985    2.34999990
   14.25777817  122.77899933    4.90999985    2.36999989
   14.26083374  117.47000122    4.90999985    2.34999990
   14.26416683  124.70099640    4.90999985    2.36999989
   14.26527786  125.05799866    4.90999985    2.34999990
   14.26777744  126.05999756    4.90999985    2.36999989
   14.27083302  115.79399872    4.90999985    2.40000010
   14.27416611  124.06199646    4.90999985    2.40000010
   14.27750015  118.31199646    4.90999985    2.40000010
   14.28055573  124.50499725    4.90999985    2.39000010
   14.28666687  124.50499725    4.90999985    2.36999989
   14.29083347  125.82499695    4.90999985    2.34999990
   14.29416752  123.22000122    4.90999985    2.36999989
   14.29722309  128.47599792    4.90999985    2.36999989
   14.29888916  119.50800323    4.90999985    2.39000010
   14.30111122  122.31800079    4.90999985    2.40000010
   14.30416679  122.87699890    4.90999985    2.42000008
   14.30749989  121.37100220    4.90999985    2.40000010
   14.31083393  121.54299927    4.90999985    2.42000008
   14.31388950  125.22200012    4.90999985    2.42000008
   14.31722260  126.58000183    4.90999985    2.44000006
   14.32055569  122.36900330    4.90999985    2.44000006
   14.32361126  128.10400391    4.90999985    2.48000002
   14.32972240  128.10400391    4.90999985    2.46000004
   14.33361053  121.83100128    4.90999985    2.48000002
   14.33694458  124.60900116    4.90999985    2.46000004
   14.34027767  124.98500061    4.90999985    2.46000004
   14.34333324  119.99700165    4.90999985    2.40000010
   14.34666634  124.00700378    4.90999985    2.44000006
   14.35000038  121.53399658    4.90999985    2.36999989
   14.35305595  128.08599854    4.90999985    2.39000010
   14.35638905  133.55400085    4.90999985    2.26999998
   14.35944462  146.60299683    4.90999985    2.26999998
   14.36277771  235.97500610    4.90999985    2.15000010
   14.36555576  177.63499451    4.90999985    1.89999998
   14.36666679  210.80900574    4.90999985    1.98000002
   14.37250042  210.80900574    4.90999985    1.80999994
   14.37666702  257.24099731    4.90999985    1.85000002
   14.38000011  301.03601074    4.90999985    1.83000004
   14.38194466  329.09201050    4.90999985    1.86000001
   14.38305569  299.52398682    4.90999985    1.85000002
   14.38444424  246.91600037    4.90999985    1.76999998
   14.38583279  192.68800354    4.90999985    1.85000002
   14.38611126  133.55400085    4.90999985    2.26999998
   14.38611126  146.60299683    4.90999985    2.26999998
   14.38611126  235.97500610    4.90999985    2.15000010
   14.38611126  210.80900574    4.90999985    1.98000002
   14.38638878  257.24099731    4.90999985    1.85000002
   14.38638878  301.03601074    4.90999985    1.83000004
   14.38638878  124.00700378    4.90999985    2.44000006
   14.38638878  121.53399658    4.90999985    2.36999989
   14.38638878  128.08599854    4.90999985    2.39000010
   14.38722229  165.91400146    4.90999985    1.89999998
   14.39027786  158.97200012    4.90999985    2.05999994
   14.39361095  160.14300537    4.90999985    2.11999989
   14.39666653  146.97599792    4.90999985    2.09999990
   14.39999962  143.19500732    4.90999985    2.17000008
   14.40666676  143.19500732    4.90999985    2.15000010
   14.41083336  196.41200256    4.90999985    2.03999996
   14.41416645  168.36599731    4.90999985    2.01999998
   14.41722298  151.99699402    4.90999985    2.07999992
   14.41972256  199.20300293    4.90999985    2.07999992
   14.42083359  296.56500244    4.90999985    2.05999994
   14.42416668  320.59500122    4.90999985    1.86000001
   14.42611122  135.49600220    4.90999985    1.83000004
   14.42611122  158.97200012    4.90999985    2.05999994
   14.42611122  160.14300537    4.90999985    2.11999989
   14.42611122  146.97599792    4.90999985    2.09999990
   14.42638874  143.19500732    4.90999985    2.17000008
   14.42638874  196.41200256    4.90999985    2.03999996
   14.42638874  168.36599731    4.90999985    2.01999998
   14.42638874  151.99699402    4.90999985    2.07999992
   14.42638874  296.56500244    4.90999985    2.05999994
   14.42833328   -1.00000000    4.90999985    1.76999998
   14.43166733  351.25900269    4.90999985    1.61000001
   14.43361092  319.26300049    4.90999985    1.78999996
   14.43500042  286.15600586    4.90999985    1.85000002
   14.43638897  262.42599487    4.90999985    1.86000001
   14.43777752  285.72500610    4.90999985    1.89999998
   14.43916702  159.63900757    4.90999985    1.78999996
   14.43916702   -1.00000000    4.90999985    1.76999998
   14.43916702  351.25900269    4.90999985    1.61000001
   14.43972206  251.63800049    4.90999985    1.78999996
   14.44305515  303.73498535    4.90999985    1.75000000
   14.44499969  270.23901367    4.90999985    1.75000000
   14.44638920  246.30299377    4.90999985    1.88000000
   14.44777775  178.34800720    4.90999985    1.88000000
   14.44777775  251.63800049    4.90999985    1.78999996
   14.44777775  303.73498535    4.90999985    1.75000000
   14.44833374  160.22099304    4.90999985    1.91999996
   14.45166683  141.74699402    4.90999985    2.09999990
   14.45472240  139.75500488    4.90999985    2.25000000
   14.45805550  137.93699646    4.90999985    2.30999994
   14.46138859  121.06099701    4.90999985    2.28999996
   14.46444416  129.79499817    4.90999985    2.26999998
   14.46861076  129.79499817    4.90999985    2.21000004
   14.47277737  167.54100037    4.90999985    2.13000011
   14.47583294  193.75900269    4.90999985    2.00000000
   14.47916603  148.71899414    4.90999985    2.01999998
   14.48138809  157.08599854    4.90999985    2.15000010
   14.48277760  145.96600342    4.90999985    2.13000011
   14.48611164  139.34899902    4.90999985    2.17000008
   14.48916721  144.39100647    4.90999985    2.23000002
   14.49250031  148.57699585    4.90999985    2.19000006
   14.49583340  217.52699280    4.90999985    1.94000006
   14.49888897  189.12699890    4.90999985    1.91999996
   14.50222206  184.13000488    4.90999985    2.00000000
   14.50555515  183.30099487    4.90999985    2.05999994
   14.51138878  183.30099487    4.90999985    2.03999996
   14.51555538   -1.00000000    4.90999985    1.69000006
   14.51888847   -1.00000000    4.90999985    1.50000000
   14.52194405   -1.00000000    4.90999985    1.61000001
   14.52527714   -1.00000000    4.90999985    1.55999994
   14.52861118   -1.00000000   -1.00000000   -1.00000000
   14.53166676  255.80499268    4.90999985    1.78999996
   14.53500080  306.49200439    4.90999985    1.78999996
   14.53694534   -1.00000000    4.90999985    1.50000000
   14.53694534   -1.00000000    4.90999985    1.61000001
   14.53694534   -1.00000000    4.90999985    1.55999994
   14.53722286   -1.00000000   -1.00000000   -1.00000000
   14.53722286  255.80499268    4.90999985    1.78999996
   14.53722286  306.49200439    4.90999985    1.78999996
   14.53722286  184.13000488    4.90999985    2.00000000
   14.53750038  183.30099487    4.90999985    2.05999994
   14.53750038   -1.00000000    4.90999985    1.69000006
   14.53944492   -1.00000000   -1.00000000   -1.00000000
   14.54277802  261.17599487    4.90999985    1.69000006
   14.54583359  153.11300659    4.90999985    1.83000004
   14.54916668   -1.00000000    4.90999985    1.69000006
   14.55249977   -1.00000000    4.90999985    1.53999996
   14.55777836   -1.00000000    4.90999985    1.86000001
   14.56166649  258.39300537    4.90999985    2.00000000
   14.56500053  213.06799316    4.90999985    1.98000002
   14.56833363  190.00799561    4.90999985    1.98000002
   14.57083321  174.54699707    4.90999985    1.78999996
   14.57166672  235.42399597    4.90999985    1.80999994
   14.57499981  244.10600281    4.90999985    1.76999998
   14.57833290  222.40199280    4.90999985    2.00000000
   14.58138847  187.12699890    4.90999985    1.98000002
   14.58472157  189.08200073    4.90999985    2.01999998
   14.58777714  171.18200684    4.90999985    2.01999998
   14.59111118  212.14599609    4.90999985    2.03999996
   14.59444427  172.53500366    4.90999985    2.00000000
   14.60055637  172.53500366    4.90999985    2.13000011
   14.60472298  168.23100281    4.90999985    2.09999990
   14.60777855  150.14100647    4.90999985    2.07999992
   14.61111164  191.44400024    4.90999985    2.11999989
   14.61444473  143.26100159    4.90999985    2.03999996
   14.61750031  127.84600067    4.90999985    2.19000006
   14.62083340  125.56700134    4.90999985    2.28999996
   14.62416649  125.20999908    4.90999985    2.30999994
   14.62722206  127.51399994    4.90999985    2.34999990
   14.63055611  120.76200104    4.90999985    2.39000010
   14.63361073  129.01199341    4.90999985    2.36999989
   14.63694477  127.81900024    4.90999985    2.34999990
   14.63749981  125.23000336    4.90999985    2.36999989
   14.64333344  125.23000336    4.90999985    2.39000010
   14.64750004  122.03099823    4.90999985    2.42000008
   14.65083313  129.38000488    4.90999985    2.39000010
   14.65388870  137.68800354    4.90999985    2.28999996
   14.65722179  186.38699341    4.90999985    2.13000011
   14.66027737  199.26600647    4.90999985    2.00000000
   14.66361046  170.49800110    4.90999985    2.00000000
   14.66694450  157.86500549    4.90999985    2.09999990
   14.67000008  180.52499390    4.90999985    2.13000011
   14.67083359  164.41099548    4.90999985    2.13000011
   14.67388916  192.04699707    4.90999985    2.15000010
   14.67694473  128.42599487    4.90999985    2.01999998
   14.68027782  326.08401489    4.90999985    1.73000002
   14.68222237  313.45300293    4.90999985    1.91999996
   14.68361092  116.45700073    4.90999985    1.88000000
   14.68361092  128.42599487    4.90999985    2.01999998
   14.68361092  326.08401489    4.90999985    1.73000002
   14.68361092  137.68800354    4.90999985    2.28999996
   14.68388939  186.38699341    4.90999985    2.13000011
   14.68388939  199.26600647    4.90999985    2.00000000
   14.68388939  170.49800110    4.90999985    2.00000000
   14.68388939  157.86500549    4.90999985    2.09999990
   14.68416691  180.52499390    4.90999985    2.13000011
   14.68416691  192.04699707    4.90999985    2.15000010
   14.68500042  317.81600952    4.90999985    1.76999998
   14.68694496  261.13900757    4.90999985    1.88000000
   14.68833351  247.60200500    4.90999985    1.89999998
   14.68972206  145.03300476    4.90999985    1.89999998
   14.68972206  317.81600952    4.90999985    1.76999998
   14.69027805  144.37100220    4.90999985    1.96000004
   14.69361115  141.05900574    4.90999985    2.17000008
   14.69666672  133.92399597    4.90999985    2.30999994
   14.69999981  125.59500122    4.90999985    2.39000010
   14.70305538  131.98899841    4.90999985    2.39000010
   14.70638847  120.83399963    4.90999985    2.44000006
   14.71055508  120.83399963    4.90999985    2.44000006
   14.71472168  128.16700745    4.90999985    2.42000008
   14.71777725  126.58799744    4.90999985    2.44000006
   14.72111034  128.83299255    4.90999985    2.42000008
   14.72361088  126.34600067    4.90999985    2.40000010
   14.72472191  129.65499878    4.90999985    2.40000010
   14.72805500  137.53300476    4.90999985    2.30999994
   14.73111057  135.48899841    4.90999985    2.26999998
   14.73444462  134.26199341    4.90999985    2.26999998
   14.73777771  133.74400330    4.90999985    2.28999996
   14.74083328  127.48400116    4.90999985    2.39000010
   14.74416733  128.05400085    4.90999985    2.34999990
   14.74750042  134.68299866    4.90999985    2.36999989
   14.75333309  134.68299866    4.90999985    2.39000010
   14.75749969  121.45200348    4.90999985    2.39000010
   14.76083374  124.15499878    4.90999985    2.42000008
   14.76388931  130.98100281    4.90999985    2.44000006
   14.76722240  123.04199982    4.90999985    2.44000006
   14.77055550  131.15100098    4.90999985    2.40000010
   14.77361107  136.05900574    4.90999985    2.32999992
   14.77694416  141.86199951    4.90999985    2.30999994
   14.78027725  135.47999573    4.90999985    2.15000010
   14.78333378  130.77400208    4.90999985    2.26999998
   14.78666687  138.85499573    4.90999985    2.30999994
   14.78972244  131.72200012    4.90999985    2.32999992
   14.79027843  123.75499725    4.90999985    2.32999992
   14.79611111  123.75499725    4.90999985    2.26999998
   14.80027771  148.84300232    4.90999985    2.26999998
   14.80361176  133.06300354    4.90999985    2.21000004
   14.80666733  150.80400085    4.90999985    2.30999994
   14.81000042  141.14999390    4.90999985    2.28999996
   14.81333351  145.61399841    4.90999985    2.23000002
   14.81638908  161.82699585    4.90999985    2.21000004
   14.81972218  158.95199585    4.90999985    2.26999998
   14.82305527  139.45599365    4.90999985    2.23000002
   14.82361126  142.12399292    4.90999985    2.25000000
   14.82666683  132.14199829    4.90999985    2.23000002
   14.82972240  138.62300110    4.90999985    2.25000000
   14.83305550  159.26800537    4.90999985    2.21000004
   14.83916664  159.26800537    4.90999985    2.25000000
   14.84305477  156.03700256    4.90999985    2.19000006
   14.84638882  162.83799744    4.90999985    2.21000004
   14.84972191  158.65800476    4.90999985    2.17000008
   14.85277843  146.07099915    4.90999985    2.23000002
   14.85611153  152.14100647    4.90999985    2.19000006
   14.85694504  140.87100220    4.90999985    2.21000004
   14.85972214  150.31300354    4.90999985    2.19000006
   14.86305618  144.08099365    4.90999985    2.25000000
   14.86611176  145.51300049    4.90999985    2.26999998
   14.86944485  143.93699646    4.90999985    2.25000000
   14.87250042  142.22999573    4.90999985    2.30999994
   14.87583351  132.19900513    4.90999985    2.32999992
   14.88194466  132.19900513    4.90999985    2.39000010
   14.88611126  129.77900696    4.90999985    2.39000010
   14.88916683  126.57800293    4.90999985    2.34999990
   14.89027786  136.77299500    4.90999985    2.34999990
   14.89277744  131.74200439    4.90999985    2.32999992
   14.89611053  142.49299622    4.90999985    2.39000010
   14.89916611  134.53900146    4.90999985    2.34999990
   14.90249920  136.87300110    4.90999985    2.32999992
   14.90555477  140.66700745    4.90999985    2.32999992
   14.90888882  139.80099487    4.90999985    2.30999994
   14.91222191  137.81900024    4.90999985    2.26999998
   14.91527748  138.12100220    4.90999985    2.28999996
   14.91861153  136.89300537    4.90999985    2.30999994
   14.92472267  136.89300537    4.90999985    2.30999994
   14.92888927  151.59700012    4.90999985    2.28999996
   14.93222237  156.43400574    4.90999985    2.30999994
   14.93527794  148.41099548    4.90999985    2.21000004
   14.93861103  156.41400146    4.90999985    2.25000000
   14.94194412  155.76400757    4.90999985    2.21000004
   14.94499969  154.70199585    4.90999985    2.17000008
   14.94833374  148.04600525    4.90999985    2.21000004
   14.95166683  162.60400391    4.90999985    2.19000006
   14.95472240  157.92900085    4.90999985    2.19000006
   14.95694447  174.16499329    4.90999985    2.13000011
   14.95833302  172.41099548    4.90999985    2.11999989
   14.96166611  161.33500671    4.90999985    2.09999990
   14.96749973  161.33500671    4.90999985    2.03999996
   14.97166634  196.20199585    4.90999985    2.07999992
   14.97499943  223.10499573    4.90999985    2.03999996
   14.97805500  221.86300659    4.90999985    2.01999998
   14.98138809  214.99600220    4.90999985    2.01999998
   14.98472214  227.28700256    4.90999985    2.00000000
   14.98777771  196.08900452    4.90999985    1.96000004
   14.99027824  238.54299927    4.90999985    1.98000002
   14.99138927  198.05799866    4.90999985    1.94000006
   14.99472237  240.24699402    4.90999985    2.01999998
   14.99777794  218.25000000    4.90999985    1.98000002
   15.00111103  190.84199524    4.90999985    2.01999998
   15.00416660  182.81399536    4.90999985    2.01999998
   15.01055527  182.81399536    4.90999985    2.03999996
   15.01444435  217.47200012    4.90999985    2.01999998
   15.01777744  219.58500671    4.90999985    2.03999996
   15.02111053  190.64700317    4.90999985    2.00000000
   15.02361107  179.72900391    4.90999985    2.03999996
   15.02472210  187.51499939    4.90999985    2.03999996
   15.02805519  207.89700317    4.90999985    2.01999998
   15.03111076  197.39900208    4.90999985    2.01999998
   15.03444481  275.89498901    4.90999985    2.01999998
   15.03750038  263.34399414    4.90999985    1.96000004
   15.04083347  303.10998535    4.90999985    1.94000006
   15.04277802  283.11700439    4.90999985    1.89999998
   15.04416752  289.88000488    4.90999985    1.94000006
   15.04555607  269.97299194    4.90999985    1.91999996
   15.04694462  344.40899658    4.90999985    1.91999996
   15.04833412  355.02700806    4.90999985    1.91999996
   15.04972267  303.94198608    4.90999985    1.83000004
   15.05111122  286.31900024    4.90999985    1.86000001
   15.05249977  216.85499573    4.90999985    1.85000002
   15.05249977  263.34399414    4.90999985    1.96000004
   15.05249977  303.10998535    4.90999985    1.94000006
   15.05277824  217.47200012    4.90999985    2.01999998
   15.05277824  219.58500671    4.90999985    2.03999996
   15.05277824  190.64700317    4.90999985    2.00000000
   15.05277824  187.51499939    4.90999985    2.03999996
   15.05277824  207.89700317    4.90999985    2.01999998
   15.05277824  197.39900208    4.90999985    2.01999998
   15.05305576  275.89498901    4.90999985    2.01999998
   15.05361176  254.48100281    4.90999985    1.89999998
   15.05666733  236.55400085    4.90999985    1.94000006
   15.06000042  214.00300598    4.90999985    2.01999998
   15.06333351  196.58999634    4.90999985    2.00000000
   15.06638908  185.43400574    4.90999985    2.01999998
   15.07333374  185.43400574    4.90999985    2.07999992
   15.07750034  183.99600220    4.90999985    2.03999996
   15.08055592  207.58999634    4.90999985    2.01999998
   15.08388901  186.68200684    4.90999985    1.98000002
   15.08638859  188.68299866    4.90999985    2.01999998
   15.08722210  199.21000671    4.90999985    2.00000000
   15.09055519  183.61700439    4.90999985    2.01999998
   15.09388828  166.32699585    4.90999985    2.05999994
   15.09694386  147.68600464    4.90999985    2.13000011
   15.10027790  146.78500366    4.90999985    2.17000008
   15.10361195  154.18099976    4.90999985    2.17000008
   15.10666752  138.20799255    4.90999985    2.25000000
   15.11000061  148.81300354    4.90999985    2.23000002
   15.11611176  148.81300354    4.90999985    2.25000000
   15.12027836  141.76600647    4.90999985    2.30999994
   15.12333393  141.48500061    4.90999985    2.28999996
   15.12666702  139.48199463    4.90999985    2.28999996
   15.13000011  136.64500427    4.90999985    2.28999996
   15.14944458  134.55000305    4.90999985    2.42000008
   15.15277767  133.68699646    4.90999985    2.39000010
   15.15333271  129.52900696    4.90999985    2.39000010
   15.25305557   -1.00000000   -1.00000000   -1.00000000
   15.37111092   -1.00000000   -1.00000000   -1.00000000
   15.48500061   -1.00000000   -1.00000000   -1.00000000
   15.52833271  120.94799805    4.90999985    2.48000002
   15.53166676  125.86900330    4.90999985    2.50000000
   15.53500080  123.87100220    4.90999985    2.51999998
   15.53805637  122.99099731    4.90999985    2.53999996
   15.54138947  117.18199921    4.90999985    2.53999996
   15.54472256  121.32800293    4.90999985    2.53999996
   15.54861164  121.32800293    4.90999985    2.53999996
   15.55277824  117.81300354    4.90999985    2.55999994
   15.55611134  117.00299835    4.90999985    2.51999998
   15.55944443  108.28600311    4.90999985    2.55999994
   15.56166649  122.22000122    4.76000023    2.53999996
   15.56277752  123.56199646    4.67999983    2.55999994
   15.56611156  118.80799866    4.19999981    2.55999994
   15.56916618  121.81099701    3.66000009    2.57999992
   15.57250023  117.65599823    3.11999989    2.59999990
   15.57583332  116.04799652    2.84999990    2.59999990
   15.57888889  116.42099762    2.94000006    2.59999990
   15.58222198  115.73899841    3.14000010    2.59999990
   15.58527756  116.37699890    3.55999994    2.59999990
   15.59166622  116.37699890    3.95000005    2.57999992
   15.59555531  121.00099945    4.28999996    2.57999992
   15.59888840  109.38400269    4.51000023    2.57999992
   15.60222244  116.07800293    4.88999987    2.55999994
   15.60527802  112.73500061    4.84999990    2.57999992
   15.60861111  113.27200317    4.90999985    2.57999992
   15.61194515  113.22699738    4.90999985    2.55999994
   15.61500072  109.55500031    4.90999985    2.57999992
   15.61833382  117.39900208    4.90999985    2.55999994
   15.62166691  118.40000153    4.90999985    2.55999994
   15.62472248  112.52899933    4.90999985    2.53999996
   15.62805557  114.98999786    4.90999985    2.53999996
   15.62861156  107.99500275    4.90999985    2.51999998
   15.63444424  107.99500275    4.90999985    2.55999994
   15.63861084  108.42600250    4.90999985    2.55999994
   15.64166641  119.10299683    4.90999985    2.51999998
   15.64499950  104.12899780    4.90999985    2.51999998
   15.64833355  113.54499817    4.90999985    2.51999998
   15.65138817  119.54299927    4.90999985    2.51999998
   15.65472221  121.29499817    4.90999985    2.46000004
   15.65777779  118.76499939    4.90999985    2.40000010
   15.66111088  121.69200134    4.90999985    2.42000008
   15.66194439  117.05200195    4.90999985    2.50000000
   15.66472149  111.15699768    4.90999985    2.48000002
   15.66805553  119.13099670    4.90999985    2.48000002
   15.67138958  110.61199951    4.90999985    2.50000000
   15.67722225  110.61199951    4.90999985    2.46000004
   15.68138885  117.51200104    4.90999985    2.42000008
   15.68472195  129.05700684    4.90999985    2.40000010
   15.68777752  124.17700195    4.90999985    2.40000010
   15.69111156  128.28700256    4.90999985    2.46000004
   15.69416714  121.87100220    4.90999985    2.46000004
   15.69527817  128.62699890    4.90999985    2.46000004
   15.69777775  127.08399963    4.90999985    2.48000002
   15.70111084  119.58100128    4.90999985    2.48000002
   15.70444393  130.08799744    4.90999985    2.46000004
   15.70749950  126.53099823    4.90999985    2.46000004
   15.71083355  130.31300354    4.90999985    2.46000004
   15.71416664  119.74700165    4.90999985    2.42000008
   15.71999931  119.74700165    4.90999985    2.46000004
   15.72416592  124.94100189    4.90999985    2.42000008
   15.72749996  127.15100098    4.90999985    2.40000010
   15.72861099  127.69300079    4.90999985    2.40000010
   15.73083305  122.19999695    4.90999985    2.40000010
   15.73416710  124.24299622    4.90999985    2.39000010
   15.73750019  131.40299988    4.90999985    2.40000010
   15.74055576  122.29299927    4.90999985    2.40000010
   15.74388885  128.89700317    4.90999985    2.36999989
   15.74722290  119.57800293    4.90999985    2.32999992
   15.75027752  125.91600037    4.90999985    2.40000010
   15.75361156  121.79699707    4.90999985    2.39000010
   15.75666714  125.38400269    4.90999985    2.39000010
   15.76305580  125.38400269    4.90999985    2.44000006
   15.76694393  126.33499908    4.90999985    2.42000008
   15.77027798  125.34700012    4.90999985    2.40000010
   15.77361107  126.42900085    4.90999985    2.46000004
   15.77666664  125.51799774    4.90999985    2.42000008
   15.77999973  117.18399811    4.90999985    2.42000008
   15.78333378  125.36299896    4.90999985    2.40000010
   15.78638935  139.07200623    4.90999985    2.39000010
   15.78972244  134.95399475    4.90999985    2.36999989
   15.79305553  139.95300293    4.90999985    2.30999994
   15.79527855  139.64599609    4.90999985    2.28999996
   15.79638958  138.05400085    4.90999985    2.30999994
   15.79972267  139.64500427    4.90999985    2.32999992
   15.80583382  139.64500427    4.90999985    2.30999994
   15.81000042  126.14600372    4.90999985    2.23000002
   15.81305599  140.86999512    4.90999985    2.34999990
   15.81638908  129.12699890    4.90999985    2.32999992
   15.81972218  118.86199951    4.90999985    2.42000008
   15.82277775  123.52799988    4.90999985    2.44000006
   15.82611084  124.22000122    4.90999985    2.46000004
   15.82861137  118.47699738    4.90999985    2.46000004
   15.82944393  121.90699768    4.90999985    2.40000010
   15.83277798  128.96800232    4.90999985    2.40000010
   15.83611107  130.50399780    4.90999985    2.42000008
   15.83916664  123.80500031    4.90999985    2.36999989
   15.84249973  126.86000061    4.90999985    2.42000008
   15.84861088  126.86000061    4.90999985    2.44000006
   15.85277843  136.70899963    4.90999985    2.44000006
   15.85611153  124.07800293    4.90999985    2.30999994
   15.85916710  126.00900269    4.90999985    2.36999989
   15.86194515  128.75199890    4.90999985    2.42000008
   15.86277771  124.39399719    4.90999985    2.40000010
   15.86611176  117.56700134    4.90999985    2.40000010
   15.86944485  122.71600342    4.90999985    2.46000004
   15.87250042  123.49800110    4.90999985    2.42000008
   15.87583351  120.87400055    4.90999985    2.42000008
   15.87916660  115.29599762    4.90999985    2.36999989
   15.88222218  122.21900177    4.90999985    2.39000010
   15.88555527  125.37300110    4.90999985    2.44000006
   15.89138889  125.37300110    4.90999985    2.40000010
   15.89555550  132.46600342    4.90999985    2.39000010
   15.89888859  150.92100525    4.90999985    2.25000000
   15.90194416  148.38000488    4.90999985    2.21000004
   15.90527725  133.82499695    4.90999985    2.25000000
   15.90861034  397.07000732    4.90999985    2.25000000
   15.91055489  145.04600525    4.90999985    2.25000000
   15.91055489  115.29599762    4.90999985    2.36999989
   15.91055489  122.21900177    4.90999985    2.39000010
   15.91055489  125.37300110    4.90999985    2.44000006
   15.91083336  132.46600342    4.90999985    2.39000010
   15.91083336  150.92100525    4.90999985    2.25000000
   15.91083336  148.38000488    4.90999985    2.21000004
   15.91083336  133.82499695    4.90999985    2.25000000
   15.91111088  397.07000732    4.90999985    2.25000000
   15.91111088  120.87400055    4.90999985    2.42000008
   15.91277695  155.29299927    4.90999985    2.21000004
   15.91611099  152.64799500    4.90999985    2.23000002
   15.91916656  169.74400330    4.90999985    2.17000008
   15.92250061  150.27900696    4.90999985    2.13000011
   15.92555618  160.24499512    4.90999985    2.17000008
   15.93138885  160.24499512    4.90999985    2.21000004
   15.93555546  154.55999756    4.90999985    2.23000002
   15.93861103  167.58799744    4.90999985    2.21000004
   15.94194412  181.65199280    4.90999985    2.13000011
   15.94444466  191.05499268    4.90999985    2.09999990
   15.94527817  188.52299500    4.90999985    2.09999990
   15.94861126  148.55200195    4.90999985    2.11999989
   15.95194435  164.42799377    4.90999985    2.19000006
   15.95499992  155.91400146    4.90999985    2.15000010
   15.95833302  164.40600586    4.90999985    2.15000010
   15.96138859  156.21000671    4.90999985    2.13000011
   15.96472168  189.06199646    4.90999985    2.19000006
   15.96805477  136.34399414    4.90999985    2.15000010
   15.97416592  136.34399414    4.90999985    2.26999998
   15.97833252  177.56500244    4.90999985    2.23000002
   15.98138809  169.05200195    4.90999985    2.13000011
   15.98472214  138.21099854    4.90999985    2.17000008
   15.98805618  145.91600037    4.90999985    2.19000006
   15.99111176  142.41900635    4.90999985    2.25000000
   15.99444485  122.04799652    4.90999985    2.36999989
   15.99777794  121.73600006    4.90999985    2.42000008
   16.00083351  130.98100281    4.90999985    2.40000010
   16.00416756  123.96700287    4.90999985    2.34999990
   16.00722313  135.23100281    4.90999985    2.30999994
   16.01055527  134.20899963    4.90999985    2.32999992
   16.01111031  142.74600220    4.90999985    2.32999992
   16.01694489  142.74600220    4.90999985    2.28999996
   16.02111053  137.23399353    4.90999985    2.32999992
   16.02444458  150.69999695    4.90999985    2.36999989
   16.02750015  145.89599609    4.90999985    2.25000000
   16.03083229  145.82099915    4.90999985    2.25000000
   16.03388786  133.41299438    4.90999985    2.32999992
   16.03722191  135.96699524    4.90999985    2.32999992
   16.04055595  141.83999634    4.90999985    2.32999992
   16.04361153  155.53500366    4.90999985    2.32999992
   16.04444313  155.57200623    4.90999985    2.28999996
   16.04749870  166.84399414    4.90999985    2.21000004
   16.05055428  158.09500122    4.90999985    2.19000006
   16.05388832  173.27699280    4.90999985    2.26999998
   16.05972099  173.27699280    4.90999985    2.28999996
   16.06388855  132.60800171    4.90999985    2.32999992
   16.06722260  135.45399475    4.90999985    2.30999994
   16.07027817  138.42799377    4.90999985    2.30999994
   16.07361221  129.13299561    4.90999985    2.36999989
   16.07694626  129.13299561    4.90999985    2.42000008
   16.07777786  139.02000427    4.90999985    2.42000008
   16.08027840  140.41900635    4.90999985    2.36999989
   16.08361244  142.67399597    4.90999985    2.36999989
   16.08694458  167.58700562    4.90999985    2.28999996
   16.09000015  159.19299316    4.90999985    2.25000000
   16.09333420  151.18099976    4.90999985    2.25000000
   16.09638977  164.31599426    4.90999985    2.21000004
   16.10277748  164.31599426    4.90999985    2.21000004
   16.10694504  145.96499634    4.90999985    2.32999992
   16.11000061  154.13099670    4.90999985    2.30999994
   16.11111069  156.36599731    4.90999985    2.28999996
   16.11388969  178.10200500    4.90999985    2.32999992
   16.11694527  243.70899963    4.90999985    2.19000006
   16.12027740  270.42599487    4.90999985    2.01999998
   16.12333298  239.13000488    4.90999985    2.09999990
   16.12666702  181.86199951    4.90999985    2.13000011
   16.13000107  285.87298584    4.90999985    2.00000000
   16.13305473  301.60198975    4.90999985    2.01999998
   16.13500023  308.35800171    4.90999985    2.07999992
   16.13638878  162.64399719    4.90999985    2.05999994
   16.13638878  239.13000488    4.90999985    2.09999990
   16.13666725  181.86199951    4.90999985    2.13000011
   16.13666725  285.87298584    4.90999985    2.00000000
   16.13666725  301.60198975    4.90999985    2.01999998
   16.13666725  145.96499634    4.90999985    2.32999992
   16.13694382  154.13099670    4.90999985    2.30999994
   16.13694382  178.10200500    4.90999985    2.32999992
   16.13694382  243.70899963    4.90999985    2.19000006
   16.13694382  270.42599487    4.90999985    2.01999998
   16.13777733  318.80200195    4.90999985    1.98000002
   16.13999939  131.11500549    4.90999985    1.94000006
   16.14194489  175.27099609    4.90999985    1.89999998
   16.14500046  336.45800781    4.90999985    1.96000004
   16.14722252  348.94000244    4.90999985    1.98000002
   16.14833260  217.33599854    4.90999985    1.94000006
   16.14861107  175.27099609    4.90999985    1.89999998
   16.14861107  336.45800781    4.90999985    1.96000004
   16.14972115  225.51400757    4.90999985    1.96000004
   16.15305519  238.42300415    4.90999985    2.03999996
   16.15611076  396.85998535    4.90999985    2.13000011
   16.15805435  242.47300720    4.90999985    2.03999996
   16.15944481   72.10019684    4.90999985    2.09999990
   16.15944481  225.51400757    4.90999985    1.96000004
   16.15944481  238.42300415    4.90999985    2.03999996
   16.15972137  396.85998535    4.90999985    2.13000011
   16.16083336  120.25800323    4.90999985    1.96000004
   16.16388893  326.29800415    4.90999985    1.83000004
   16.16583252   90.33339691    4.90999985    2.03999996
   16.16611099  120.25800323    4.90999985    1.96000004
   16.16611099  326.29800415    4.90999985    1.83000004
   16.16805458  266.97900391    4.90999985    1.86000001
   16.17138863  229.93400574    4.90999985    1.98000002
   16.17444420  409.31201172    4.90999985    2.11999989
   16.17638779  316.31100464    4.90999985    1.91999996
   16.17777634  311.57000732    4.90999985    1.88000000
   16.17916679  238.38099670    4.90999985    1.94000006
   16.18055534  289.17498779    4.90999985    1.83000004
   16.18194389  368.16900635    4.90999985    1.89999998
   16.18333244  370.40899658    4.90999985    1.98000002
   16.18472099  226.04299927    4.90999985    2.01999998
   16.18610954  231.40699768    4.90999985    2.15000010
   16.18750000  252.43600464    4.90999985    2.11999989
   16.18888855  251.99699402    4.90999985    2.05999994
   16.19027710  250.99099731    4.90999985    2.03999996
   16.19166565  192.68800354    4.90999985    2.07999992
   16.19166565  266.97900391    4.90999985    1.86000001
   16.19166565  229.93400574    4.90999985    1.98000002
   16.19194412  409.31201172    4.90999985    2.11999989
   16.19249916  237.59700012    4.90999985    2.11999989
   16.19555473  164.66600037    4.90999985    2.13000011
   16.19888878  173.79200745    4.90999985    2.19000006
   16.20222282  163.09700012    4.90999985    2.21000004
   16.20527840  177.35099792    4.90999985    2.25000000
   16.20861244  243.89700317    4.90999985    2.13000011
   16.21277809  243.89700317    4.90999985    2.07999992
   16.21666718  171.05900574    4.90999985    2.25000000
   16.22000122  213.03599548    4.90999985    2.15000010
   16.22333336  213.92399597    4.90999985    2.13000011
   16.22555542  240.39700317    4.90999985    2.17000008
   16.22666740  280.77801514    4.90999985    2.15000010
   16.23000145  255.19299316    4.90999985    2.03999996
   16.23333359  287.29800415    4.90999985    1.89999998
   16.23638916  325.70599365    4.90999985    2.05999994
   16.23833275  148.07000732    4.90999985    2.03999996
   16.23861122  280.77801514    4.90999985    2.15000010
   16.23861122  255.19299316    4.90999985    2.03999996
   16.23861122  287.29800415    4.90999985    1.89999998
   16.23861122  325.70599365    4.90999985    2.05999994
   16.23861122  177.35099792    4.90999985    2.25000000
   16.23888969  243.89700317    4.90999985    2.13000011
   16.23888969  171.05900574    4.90999985    2.25000000
   16.23888969  213.03599548    4.90999985    2.15000010
   16.23888969  213.92399597    4.90999985    2.13000011
   16.24055672  348.38699341    4.90999985    1.91999996
   16.24277878   66.98880005    4.90999985    2.01999998
   16.24472237   -1.00000000    4.90999985    1.86000001
   16.24777794  119.23600006    4.90999985    1.71000004
   16.25111198   90.96640015    4.90999985    1.85000002
   16.25444412  203.02900696    4.90999985    2.03999996
   16.25749969   85.26650238    4.90999985    1.88000000
   16.26333427   85.26650238    4.90999985    1.71000004
   16.26749992  253.03300476    4.90999985    2.19000006
   16.27083397  110.57099915    4.90999985    2.01999998
   16.27416611  224.58700562    4.90999985    1.94000006
   16.27638817  181.41700745    4.90999985    2.17000008
   16.27750015  181.93899536    4.90999985    2.17000008
   16.28083229  248.70399475    4.90999985    2.17000008
   16.28388786  279.79199219    4.90999985    2.05999994
   16.28722191  152.71000671    4.90999985    1.94000006
   16.29055595  319.64700317    4.90999985    1.91999996
   16.29249954  345.00000000    4.90999985    1.98000002
   16.29361153  268.67800903    4.90999985    1.94000006
   16.29500008  214.38699341    4.90999985    1.98000002
   16.29527664  248.70399475    4.90999985    2.17000008
   16.29527664  279.79199219    4.90999985    2.05999994
   16.29527664  152.71000671    4.90999985    1.94000006
   16.29527664  319.64700317    4.90999985    1.91999996
   16.29527664   85.26650238    4.90999985    1.88000000
   16.29555511  253.03300476    4.90999985    2.19000006
   16.29555511  110.57099915    4.90999985    2.01999998
   16.29555511  224.58700562    4.90999985    1.94000006
   16.29555511  181.93899536    4.90999985    2.17000008
   16.29611015  186.64900208    4.90999985    2.03999996
   16.29944420  161.89100647    4.90999985    2.23000002
   16.30277634  161.22399902    4.90999985    2.30999994
   16.30583191  157.28199768    4.90999985    2.26999998
   16.30916595  154.65499878    4.90999985    2.30999994
   16.31583214  154.65499878    4.90999985    2.17000008
   16.32000160  230.41499329    4.90999985    2.17000008
   16.32333374  253.64300537    4.90999985    2.13000011
   16.32638931  216.16499329    4.90999985    2.15000010
   16.32888985  171.86500549    4.90999985    2.13000011
   16.33000183  162.38000488    4.90999985    2.05999994
   16.33305550  126.38899994    4.90999985    2.32999992
   16.33638954  127.68599701    4.90999985    2.36999989
   16.33972359  124.76100159    4.90999985    2.30999994
   16.34277916  133.31799316    4.90999985    2.44000006
   16.34611130  155.09300232    4.90999985    2.39000010
   16.34944534  187.70899963    4.90999985    2.17000008
   16.35250092  180.05000305    4.90999985    2.17000008
   16.35861206  180.05000305    4.90999985    2.09999990
   16.36277771  111.60500336    4.90999985    2.42000008
   16.36611176  144.09899902    4.90999985    2.42000008
   16.36944389  160.69700623    4.90999985    2.39000010
   16.37249947  162.59300232    4.90999985    2.03999996
   16.37583351  153.11000061    4.90999985    2.01999998
   16.37916756  199.76100159    4.90999985    2.26999998
   16.38222313  185.71200562    4.90999985    2.13000011
   16.38555527  264.48901367    4.90999985    2.13000011
   16.38861084  149.66400146    4.90999985    2.09999990
   16.39194489  179.46699524    4.90999985    2.30999994
   16.39527702  150.07299805    4.90999985    2.26999998
   16.39555550  141.27400208    4.90999985    2.26999998
   16.40166664  141.27400208    4.90999985    2.40000010
   16.40583229  146.60299683    4.90999985    2.19000006
   16.40888786  223.26600647    4.90999985    2.34999990
   16.41222191  166.72999573    4.90999985    2.07999992
   16.41555595  202.34100342    4.90999985    2.19000006
   16.41860962  122.56400299    4.90999985    2.21000004
   16.42194366  149.70399475    4.90999985    2.39000010
   16.42499924  165.01199341    4.90999985    2.13000011
   16.42833328  316.25601196    4.90999985    2.01999998
   16.43027687  130.16200256    4.90999985    2.01999998
   16.43027687  146.60299683    4.90999985    2.19000006
   16.43055534  223.26600647    4.90999985    2.34999990
   16.43055534  166.72999573    4.90999985    2.07999992
   16.43055534  202.34100342    4.90999985    2.19000006
   16.43055534  122.56400299    4.90999985    2.21000004
   16.43055534  149.70399475    4.90999985    2.39000010
   16.43083191  165.01199341    4.90999985    2.13000011
   16.43083191  316.25601196    4.90999985    2.01999998
   16.43083191  150.07299805    4.90999985    2.26999998
   16.43277740  145.97300720    4.90999985    2.30999994
   16.43610954  126.82499695    4.90999985    2.39000010
   16.43916512  126.62500000    4.90999985    2.44000006
   16.44249916  137.85800171    4.90999985    2.34999990
   16.44583321  172.13800049    4.90999985    2.30999994
   16.45111275  172.13800049    4.90999985    2.21000004
   16.45527840  144.75999451    4.90999985    2.19000006
   16.45833397  148.31399536    4.90999985    2.21000004
   16.46166801  130.31199646    4.90999985    2.13000011
   16.46416664  126.73200226    4.90999985    2.36999989
   16.46527863  125.98500061    4.90999985    2.39000010
   16.46833420  132.67399597    4.90999985    2.34999990
   16.47166634  127.85199738    4.90999985    2.44000006
   16.47472191  138.24699402    4.90999985    2.34999990
   16.47805595  129.03500366    4.90999985    2.36999989
   16.48139000  135.43200684    4.90999985    2.40000010
   16.48444557  136.21699524    4.90999985    2.34999990
   16.48777771  120.60199738    4.90999985    2.40000010
   16.49388885  120.60199738    4.90999985    2.42000008
   16.49805641  120.94200134    4.90999985    2.39000010
   16.50138855  128.97300720    4.90999985    2.42000008
   16.50444412  123.41300201    4.90999985    2.48000002
   16.50777817  122.94200134    4.90999985    2.46000004
   16.51111031  135.93200684    4.90999985    2.48000002
   16.51416588  126.02500153    4.90999985    2.44000006
   16.51749992  128.99400330    4.90999985    2.40000010
   16.52083397  122.63800049    4.90999985    2.40000010
   16.52388954  133.86300659    4.90999985    2.32999992
   16.52722168  164.54299927    4.90999985    2.17000008
   16.54638863  181.14999390    4.90999985    2.13000011
   16.55055428  181.14999390    4.90999985    2.17000008
   16.55472183  162.34800720    4.90999985    2.17000008
   16.55777740  162.90499878    4.90999985    2.30999994
   16.56110954  161.98399353    4.90999985    2.26999998
   16.56444359  158.63499451    4.90999985    2.30999994
   16.56750107  141.19099426    4.90999985    2.28999996
   16.57083511  161.87899780    4.90999985    2.30999994
   16.57389069  155.21299744    4.90999985    2.03999996
   16.57722282  160.14500427    4.90999985    2.30999994
   16.57972336  146.62600708    4.90999985    2.34999990
   16.58083344  174.27499390    4.90999985    2.30999994
   16.58416748  213.63600159    4.90999985    2.25000000
   16.58750153  235.02200317    4.90999985    2.17000008
   16.59333420  235.02200317    4.90999985    2.00000000
   16.59749985  247.56700134    4.90999985    2.01999998
   16.60083389  231.80999756    4.90999985    2.13000011
   16.60388947  189.16600037    4.90999985    2.11999989
   16.60722351  225.49499512    4.90999985    2.13000011
   16.61055565  259.79000854    4.90999985    2.13000011
   16.61305618  290.55599976    4.90999985    2.01999998
   16.61388969  286.32501221    4.90999985    2.01999998
   16.61722183  187.54100037    4.90999985    2.03999996
   16.62055588  209.96499634    4.90999985    2.21000004
   16.62361145  244.67799377    4.90999985    2.17000008
   16.62694550  171.13499451    4.90999985    2.15000010
   16.63027763  147.02900696    4.90999985    2.23000002
   16.63611031  147.02900696    4.90999985    2.32999992
   16.64027786  281.19000244    4.90999985    2.17000008
   16.64361191  255.84100342    4.90999985    1.89999998
   16.64638901   82.73909760    4.90999985    2.05999994
   16.64694405  109.24500275    4.90999985    1.86000001
   16.65027809  178.66000366    4.90999985    1.85000002
   16.65361023  182.47999573    4.90999985    2.21000004
   16.65666580  160.39799500    4.90999985    2.13000011
   16.65999985  137.21400452    4.90999985    2.19000006
   16.66333389  131.89399719    4.90999985    2.26999998
   16.66638756  133.34399414    4.90999985    2.39000010
   16.66972160  126.78900146    4.90999985    2.40000010
   16.67277718  130.94799805    4.90999985    2.40000010
   16.67916679  130.94799805    4.90999985    2.34999990
   16.68305397  120.37899780    4.90999985    2.30999994
   16.68638802  148.71099854    4.90999985    2.40000010
   16.68972206  147.69500732    4.90999985    2.26999998
   16.69277763  161.93499756    4.90999985    2.30999994
   16.69610977  147.40800476    4.90999985    2.25000000
   16.69944382  148.88999939    4.90999985    2.28999996
   16.70250130  122.42600250    4.90999985    2.36999989
   16.70583344  144.19900513    4.90999985    2.39000010
   16.70888901  127.77600098    4.90999985    2.21000004
   16.71222305  135.38499451    4.90999985    2.36999989
   16.71416664  145.05099487    4.90999985    2.34999990
   16.71583366  144.07800293    4.90999985    2.23000002
   16.72194481  144.07800293    4.90999985    2.19000006
   16.72611237  113.31900024    4.90999985    1.78999996
   16.72916794   49.31869888    4.90999985    1.86000001
   16.73250008  105.77500153    4.90999985    1.78999996
   16.73583412   -1.00000000    4.90999985    1.78999996
   16.73888969   -1.00000000    4.90999985    1.73000002
   16.74222183   -1.00000000    4.90999985    1.46000004
   16.74527740   27.97809982    4.90999985    1.66999996
   16.74888992   -1.00000000    4.90999985    1.71000004
   16.75222206  143.35000610    4.90999985    1.86000001
   16.75527763   -1.00000000    4.90999985    1.80999994
   16.75861168  123.25000000    4.90999985    1.78999996
   16.76472282  123.25000000    4.90999985    2.21000004
   16.76888847  230.29499817    4.90999985    2.09999990
   16.77222252  260.58499146    4.90999985    1.88000000
   16.77527809  170.78999329    4.90999985    2.00000000
   16.77861023  243.04499817    4.90999985    2.07999992
   16.78083229  129.68800354    4.90999985    2.03999996
   16.78222275   -1.00000000    4.90999985    1.76999998
   16.78555489  334.91500854    4.90999985    1.80999994
   16.78750038  249.80099487    4.90999985    1.89999998
   16.78888893  165.51800537    4.90999985    1.88000000
   16.78888893  230.29499817    4.90999985    2.09999990
   16.78888893  260.58499146    4.90999985    1.88000000
   16.78888893  170.78999329    4.90999985    2.00000000
   16.78888893  243.04499817    4.90999985    2.07999992
   16.78916550   -1.00000000    4.90999985    1.76999998
   16.78916550  334.91500854    4.90999985    1.80999994
   16.78916550  143.35000610    4.90999985    1.86000001
   16.78916550   -1.00000000    4.90999985    1.80999994
   16.78944397  123.25000000    4.90999985    1.78999996
   16.79055595  156.15400696    4.90999985    2.03999996
   16.79361153  134.34199524    4.90999985    2.34999990
   16.79694366  179.08999634    4.90999985    2.25000000
   16.80027771  161.20300293    4.90999985    2.01999998
   16.80333328  127.57900238    4.90999985    1.94000006
   16.80944443  127.57900238    4.90999985    2.15000010
   16.81361008  187.51100159    4.90999985    2.07999992
   16.81694603  262.32101440    4.90999985    2.15000010
   16.82000160  175.05099487    4.90999985    2.15000010
   16.82250023  190.79600525    4.90999985    2.25000000
   16.82361221  160.62899780    4.90999985    2.09999990
   16.82694626  136.10099792    4.90999985    2.32999992
   16.83000183  128.21499634    4.90999985    2.32999992
   16.83333397  129.52299500    4.90999985    2.32999992
   16.83638954  129.78900146    4.90999985    2.32999992
   16.83972359  133.33099365    4.90999985    2.19000006
   16.84305573  126.62699890    4.90999985    2.32999992
   16.84611130  130.92399597    4.90999985    2.39000010
   16.85250092  130.92399597    4.90999985    2.30999994
   16.85639000  133.44700623    4.90999985    2.30999994
   16.85972214  135.90400696    4.90999985    2.34999990
   16.86305618  130.97000122    4.90999985    2.30999994
   16.86611176  133.09399414    4.90999985    2.36999989
   16.86944389  129.57099915    4.90999985    2.32999992
   16.87277794  139.36500549    4.90999985    2.39000010
   16.87583351  127.45099640    4.90999985    2.36999989
   16.87916756  130.61199951    4.90999985    2.30999994
   16.88222313  133.84100342    4.90999985    2.28999996
   16.88555527  138.25900269    4.90999985    2.30999994
   16.88888931  139.42999268    4.90999985    2.25000000
   16.88944435  150.08099365    4.90999985    2.25000000
   16.89527702  150.08099365    4.90999985    2.21000004
   16.89944458  123.01399994    4.90999985    2.11999989
   16.90250015  141.34100342    4.90999985    2.30999994
   16.90583229  146.94400024    4.90999985    2.26999998
   16.90916634  155.87399292    4.90999985    2.28999996
   16.91222191  151.46699524    4.90999985    2.25000000
   16.91555595  148.27299500    4.90999985    2.23000002
   16.91860962  164.62800598    4.90999985    2.23000002
   16.92194366  207.81500244    4.90999985    2.17000008
   16.92277718  147.34100342    4.90999985    2.13000011
   16.92555428  216.46400452    4.90999985    2.09999990
   16.92888832  268.25698853    4.90999985    2.03999996
   16.93194389  164.78700256    4.90999985    2.07999992
   16.93805504  164.78700256    4.90999985    2.26999998
   16.94222069  162.69599915    4.90999985    2.00000000
   16.94555473  190.71000671    4.90999985    2.07999992
   16.94888878  198.47900391    4.90999985    2.09999990
   16.95194435  278.00601196    4.90999985    2.05999994
   16.95527840  173.71600342    4.90999985    2.00000000
   16.95611191  288.01300049    4.90999985    2.05999994
   16.95888901  184.62500000    4.90999985    1.98000002
   16.96222305  186.75399780    4.90999985    2.09999990
   16.96527863  139.33500671    4.90999985    2.21000004
   16.96861076  136.89599609    4.90999985    2.25000000
   16.97194481  137.29499817    4.90999985    2.32999992
   16.97500038  145.77000427    4.90999985    2.26999998
   16.98083305  145.77000427    4.90999985    2.19000006
   16.98500061  138.09199524    4.90999985    2.28999996
   16.98833275  288.49398804    4.90999985    2.23000002
   16.98944473  218.43400574    4.90999985    2.05999994
   16.99194527  136.04800415    4.90999985    2.13000011
   16.99527740  131.25700378    4.90999985    2.28999996
   16.99833298  141.81700134    4.90999985    2.32999992
   17.00166702  140.99800110    4.90999985    2.13000011
   17.00499916  136.09399414    4.90999985    2.26999998
   17.00805473  160.86300659    4.90999985    2.26999998
   17.01138878  193.43899536    4.90999985    2.11999989
   17.01472282  154.58299255    4.90999985    2.17000008
   17.01777840  229.88200378    4.90999985    2.26999998
   17.02388954  229.88200378    4.90999985    2.23000002
   17.02777672  128.74400330    4.90999985    2.25000000
   17.03111076  137.41400146    4.90999985    2.36999989
   17.03444481  134.32400513    4.90999985    2.36999989
   17.03750038  134.63299561    4.90999985    2.28999996
   17.04083252  143.35000610    4.90999985    2.34999990
   17.04416656  149.22099304    4.90999985    2.25000000
   17.04722214  171.55799866    4.90999985    2.23000002
   17.05055428  140.81199646    4.90999985    2.23000002
   17.05360985  139.50500488    4.90999985    2.25000000
   17.05611038  150.37699890    4.90999985    2.23000002
   17.05722237  204.38499451    4.90999985    2.23000002
   17.06055450  186.65600586    4.90999985    2.19000006
   17.06666756  186.65600586    4.90999985    2.19000006
   17.07083511  143.75399780    4.90999985    2.26999998
   17.07389069  146.70500183    4.90999985    2.23000002
   17.07722282  124.68699646    4.90999985    2.28999996
   17.08055687  139.45599365    4.90999985    2.26999998
   17.08361244  142.74699402    4.90999985    2.30999994
   17.08694458  142.53900146    4.90999985    2.19000006
   17.08944511  155.29899597    4.90999985    2.26999998
   17.09055710  142.36099243    4.90999985    2.23000002
   17.09388924  144.81100464    4.90999985    2.28999996
   17.09694481  168.13900757    4.90999985    2.23000002
   17.10027885  145.40600586    4.90999985    2.17000008
   17.10361099  142.96699524    4.90999985    2.21000004
   17.10944557  142.96699524    4.90999985    2.34999990
   17.11361122  131.38099670    4.90999985    2.34999990
   17.11694527  136.41299438    4.90999985    2.28999996
   17.12027740  133.31300354    4.90999985    2.30999994
   17.12277794  129.43499756    4.90999985    2.32999992
   17.12361145  133.27400208    4.90999985    2.32999992
   17.12694550  144.78799438    4.90999985    2.32999992
   17.13000107  125.82099915    4.90999985    2.32999992
   17.13333321  130.35499573    4.90999985    2.32999992
   17.13666725  130.39199829    4.90999985    2.28999996
   17.13972282  125.53900146    4.90999985    2.30999994
   17.14305496  122.22100067    4.90999985    2.32999992
   17.14638901  126.32499695    4.90999985    2.32999992
   17.15222168  126.32499695    4.90999985    2.32999992
   17.15638924  114.94400024    4.90999985    2.28999996
   17.15972137  135.94700623    4.90999985    2.36999989
   17.16277695  123.47000122    4.90999985    2.26999998
   17.16611099  130.81799316    4.90999985    2.28999996
   17.16944313  116.16100311    4.90999985    2.25000000
   17.17249870  121.89700317    4.90999985    2.39000010
   17.17583275  123.42400360    4.90999985    2.26999998
   17.17916679  121.39600372    4.90999985    2.40000010
   17.18222237  114.26799774    4.90999985    2.40000010
   17.18555450  110.85900116    4.90999985    2.46000004
   17.18861008  120.68699646    4.90999985    2.42000008
   17.18944359  119.43299866    4.90999985    2.32999992
   17.19527626  119.43299866    4.90999985    2.48000002
   17.19944382  123.56400299    4.90999985    2.46000004
   17.20250130  116.90799713    4.90999985    2.46000004
   17.20583344  131.23100281    4.90999985    2.46000004
   17.20888901  134.92199707    4.90999985    2.36999989
   17.21222305  119.45500183    4.90999985    2.40000010
   17.21555710  124.46900177    4.90999985    2.34999990
   17.21861076  115.39099884    4.90999985    2.42000008
   17.22194481  120.44400024    4.90999985    2.50000000
   17.22277832  117.53800201    4.90999985    2.50000000
   17.22555542  119.17500305    4.90999985    2.46000004
   17.22888947  120.18599701    4.90999985    2.42000008
   17.23222351  132.81199646    4.90999985    2.40000010
   17.23805618  132.81199646    4.90999985    2.50000000
   17.24222183  277.53399658    4.90999985    2.32999992
   17.24527740  116.11499786    4.90999985    2.39000010
   17.24861145  118.78900146    4.90999985    2.48000002
   17.25194359  118.51300049    4.90999985    2.46000004
   17.25499916  124.97699738    4.90999985    2.39000010
   17.25611115  102.65599823    4.90999985    2.44000006
   17.25861168  119.69400024    4.90999985    2.46000004
   17.26194382  111.72899628    4.90999985    2.44000006
   17.26527786  115.94400024    4.90999985    2.48000002
   17.26833344  115.43599701    4.90999985    2.48000002
   17.27166557  126.83599854    4.90999985    2.44000006
   17.27472115  119.24800110    4.90999985    2.30999994
   17.28083229  119.24800110    4.90999985    2.39000010
   17.28499985  119.07299805    4.90999985    2.46000004
   17.28833199  121.82199860    4.90999985    2.44000006
   17.28944397  130.68899536    4.90999985    2.44000006
   17.29166603  137.91999817    4.90999985    2.30999994
   17.29500008  135.18200684    4.90999985    2.23000002
   17.29833221  131.10600281    4.90999985    2.21000004
   17.30138779  106.32900238    4.90999985    2.28999996
   17.30472183  119.85900116    4.90999985    2.39000010
   17.30777740  122.74900055    4.90999985    2.26999998
   17.31110954  136.05200195    4.90999985    2.25000000
   17.31444359  322.29598999    4.90999985    2.34999990
   17.31638718  121.82199860    4.90999985    2.44000006
   17.31638718  137.91999817    4.90999985    2.30999994
   17.31666756  135.18200684    4.90999985    2.23000002
   17.31666756  131.10600281    4.90999985    2.21000004
   17.31666756  106.32900238    4.90999985    2.28999996
   17.31666756  119.85900116    4.90999985    2.39000010
   17.31666756  122.74900055    4.90999985    2.26999998
   17.31694603  136.05200195    4.90999985    2.25000000
   17.31888962  154.11900330    4.90999985    1.80999994
   17.32194519  121.41899872    4.90999985    2.30999994
   17.32527924  119.97799683    4.90999985    2.39000010
   17.32861137  224.99600220    4.90999985    2.17000008
   17.33166695  159.14500427    4.90999985    2.17000008
   17.33722305  159.14500427    4.90999985    2.07999992
   17.34111214  138.05400085    4.90999985    2.19000006
   17.34444427  226.37300110    4.90999985    1.86000001
   17.34777832  150.07699585    4.90999985    1.86000001
   17.35027885  252.26800537    4.90999985    2.13000011
   17.35111237  276.02801514    4.90999985    1.88000000
   17.35444450  132.44500732    4.90999985    2.21000004
   17.35750008  167.77099609    4.90999985    2.25000000
   17.36083412  142.32299805    4.90999985    2.32999992
   17.36416626  138.39199829    4.90999985    2.32999992
   17.36722183  129.89300537    4.90999985    2.19000006
   17.37055588  127.61399841    4.90999985    2.25000000
   17.37388992  129.04100037    4.90999985    2.28999996
   17.38000107  129.04100037    4.90999985    2.30999994
   17.38416672  216.91200256    4.90999985    2.03999996
   17.38722229  133.94000244    4.90999985    2.03999996
   17.39055634  135.14900208    4.90999985    2.26999998
   17.39361191   -1.00000000    4.90999985    2.09999990
   17.39694405   -1.00000000    4.90999985    1.44000006
   17.40027809   -1.00000000    4.90999985    1.83000004
   17.40333366  212.21899414    4.90999985    1.50000000
   17.40666580  124.48400116    4.90999985    2.07999992
   17.40999985  262.30499268    4.90999985    2.36999989
   17.41305542  120.05500031    4.90999985    2.32999992
   17.41638756  210.56599426    4.90999985    2.46000004
   17.41694450  180.61999512    4.90999985    2.46000004
   17.42277718  180.61999512    4.90999985    2.28999996
   17.42694473  120.32599640    4.90999985    2.32999992
   17.43000031  117.76999664    4.90999985    2.40000010
   17.43333244  120.59300232    4.90999985    2.34999990
   17.43666649  131.28999329    4.90999985    2.39000010
   17.43972206   -1.00000000    4.90999985    1.91999996
   17.44305420  173.91200256    4.90999985    1.33000004
   17.44638824  111.08300018    4.90999985    2.25000000
   17.44944382  132.88900757    4.90999985    2.51999998
   17.45027924  114.98999786    4.90999985    2.42000008
   17.45305634  135.43899536    4.90999985    2.05999994
   17.45639038  120.12999725    4.90999985    2.36999989
   17.45972252  118.04599762    4.90999985    2.46000004
   17.46555710  118.04599762    4.90999985    2.46000004
   17.46972275  137.49299622    4.90999985    2.42000008
   17.47305679  113.80400085    4.90999985    2.21000004
   17.47611237  110.34700012    4.90999985    2.46000004
   17.47944450  127.23600006    4.90999985    2.40000010
   17.48277855  121.30000305    4.90999985    2.40000010
   17.48361206  118.29799652    4.90999985    2.40000010
   17.48611069  128.55900574    4.90999985    2.36999989
   17.48944473  130.23599243    4.90999985    2.39000010
   17.49277878  119.82299805    4.90999985    2.39000010
   17.49583435  109.03900146    4.90999985    2.42000008
   17.49916649  115.08999634    4.90999985    2.44000006
   17.50222206  121.31600189    4.90999985    2.44000006
   17.50833321  121.31600189    4.90999985    2.46000004
   17.51250076  106.93699646    4.90999985    2.53999996
   17.51583290  107.75299835    4.90999985    2.51999998
   17.51694489  106.10900116    4.90999985    2.51999998
   17.51944351  107.54799652    4.90999985    2.51999998
   17.52277756  105.36299896    4.90999985    2.53999996
   17.52611160  109.27899933    4.90999985    2.53999996
   17.52916718  111.04000092    4.90999985    2.51999998
   17.53249931  113.77799988    4.90999985    2.51999998
   17.53555489  114.94000244    4.90999985    2.51999998
   17.53888893  113.38999939    4.90999985    2.51999998
   17.54222107  112.79399872    4.90999985    2.51999998
   17.54527664  114.77999878    4.90999985    2.50000000
   17.56722260  114.77999878    4.90999985    2.46000004
   17.57139015  116.33200073    4.90999985    2.40000010
   17.57472229  122.09400177    4.90999985    2.34999990
   17.57777786  128.72300720    4.90999985    2.34999990
   17.58111191  124.05300140    4.90999985    2.28999996
   17.58444595  135.51199341    4.90999985    2.28999996
   17.58750153  130.87100220    4.90999985    2.28999996
   17.59083366  125.55999756    4.90999985    2.32999992
   17.59388924  125.25599670    4.90999985    2.30999994
   17.59722328  122.69699860    4.90999985    2.32999992
   17.59805679  121.99900055    4.90999985    2.32999992
   17.60083389  131.27200317    4.90999985    2.34999990
   17.60388947  124.80000305    4.90999985    2.34999990
   17.61000061  124.80000305    4.90999985    2.36999989
   17.61416626  114.05899811    4.90999985    2.39000010
   17.61750031  118.97200012    4.90999985    2.39000010
   17.62055588  118.06400299    4.90999985    2.40000010
   17.62388992  114.02999878    4.90999985    2.39000010
   17.62694550  123.22399902    4.90999985    2.36999989
   17.63027763  123.80699921    4.90999985    2.36999989
   17.63138962  123.29199982    4.90999985    2.34999990
   17.63388824  132.77099609    4.90999985    2.30999994
   17.63694382  126.48899841    4.90999985    2.30999994
   17.64027786  127.07199860    4.90999985    2.26999998
   17.64361191  109.45300293    4.90999985    2.30999994
   17.64666748  119.59100342    4.90999985    2.34999990
   17.65277672  119.59100342    4.90999985    2.30999994
   17.65694427  128.76499939    4.90999985    2.30999994
   17.66027832  129.28799438    4.90999985    2.28999996
   17.66361046  122.08200073    4.90999985    2.26999998
   17.66499901  132.58500671    4.90999985    2.28999996
   17.66722107  122.72100067    4.90999985    2.28999996
   17.67027664  122.38200378    4.90999985    2.28999996
   17.67361069  130.07699585    4.90999985    2.26999998
   17.67666626  130.29200745    4.90999985    2.30999994
   17.68000031  117.24800110    4.90999985    2.32999992
   17.68333244  120.40699768    4.90999985    2.32999992
   17.68638802  117.11199951    4.90999985    2.34999990
   17.68972206  125.14499664    4.90999985    2.34999990
   17.69583321  125.14499664    4.90999985    2.30999994
   17.69972038  131.40800476    4.90999985    2.32999992
   17.70305634  130.69900513    4.90999985    2.23000002
   17.70639038  124.25900269    4.90999985    2.28999996
   17.70944595  131.88299561    4.90999985    2.28999996
   17.71277809  142.26499939    4.90999985    2.26999998
   17.71611214   -1.00000000    4.90999985    0.83999997
   17.71916771  128.81100464    4.90999985    0.41999999
   17.72249985  103.37000275    4.90999985    0.67000002
   17.72555542  137.11599731    4.90999985    2.21000004
   17.72888947  140.94599915    4.90999985    2.21000004
   17.73166656  132.65299988    4.90999985    2.21000004
   17.73250008  141.15299988    4.90999985    2.21000004
   17.73861122  141.15299988    4.90999985    2.23000002
   17.74277878  136.45300293    4.90999985    2.23000002
   17.74583435  136.13099670    4.90999985    2.19000006
   17.74916649  133.27099609    4.90999985    2.17000008
   17.75250053  120.63700104    4.90999985    2.17000008
   17.75555611  137.08999634    4.90999985    2.17000008
   17.75888824  144.36900330    4.90999985    2.17000008
   17.76194382  127.06700134    4.90999985    2.13000011
   17.76499939  106.09600067    4.90999985    2.09999990
   17.76555634  122.34400177    4.90999985    2.09999990
   17.76888847  160.48800659    4.90999985    2.15000010
   17.77222252  142.16600037    4.90999985    2.13000011
   17.77527809  140.64300537    4.90999985    2.13000011
   17.78138924  140.64300537    4.90999985    2.19000006
   17.78555489  121.28600311    4.90999985    2.25000000
   17.78888893  127.92600250    4.90999985    2.26999998
   17.79194450  121.99400330    4.90999985    2.28999996
   17.79527664  126.66400146    4.90999985    2.11999989
   17.79833221  125.68299866    4.90999985    2.26999998
   17.79888916  124.08999634    4.90999985    2.26999998
   17.80194283  126.50399780    4.90999985    2.28999996
   17.80527687  120.78800201    4.90999985    2.30999994
   17.80833244  117.16799927    4.90999985    2.32999992
   17.81166649  127.12200165    4.90999985    2.00000000
   17.81499863  127.53600311    4.90999985    2.34999990
   17.81805611  131.06700134    4.90999985    2.36999989
   17.82416725  131.06700134    4.90999985    2.00000000
   17.82833481   89.43759918    4.90999985    2.23000002
   17.83194542   -1.00000000    4.90999985    2.09999990
   17.83527756   92.62259674    4.90999985    1.21000004
   17.83861160  124.01399994    4.90999985    1.88000000
   17.84166718   -1.00000000    4.90999985    0.51999998
   17.84500122   -1.00000000    4.90999985    1.91999996
   17.84805679  139.33200073    4.90999985    0.31999999
   17.85138893  142.90199280    4.90999985    2.28999996
   17.85472298  141.74099731    4.90999985    2.32999992
   17.85777855  132.20899963    4.90999985    2.30999994
   17.86111069  124.28099823    4.90999985    2.30999994
   17.86722183  124.28099823    4.90999985    2.17000008
   17.87111092  180.73399353    4.90999985    2.13000011
   17.87444496  179.79100037    4.90999985    2.07999992
   17.87777710  149.17900085    4.90999985    2.07999992
   17.88083267  148.11799622    4.90999985    2.15000010
   17.88416672  150.83000183    4.90999985    2.15000010
   17.88750076  140.47700500    4.90999985    2.13000011
   17.89055634  132.32200623    4.90999985    2.09999990
   17.89388847  145.53199768    4.90999985    2.11999989
   17.89694405  136.63000488    4.90999985    2.13000011
   17.89833260  145.96200562    4.90999985    2.17000008
   17.90083313  137.80200195    4.90999985    2.15000010
   17.90388870  125.20600128    4.90999985    2.17000008
   17.90999985  125.20600128    4.90999985    2.07999992
   17.91416550  128.61500549    4.90999985    2.25000000
   17.91722107  133.84100342    4.90999985    2.25000000
   17.92055511  120.56500244    4.90999985    2.30999994
   17.92388916  130.54699707    4.90999985    2.26999998
   17.92694473  121.22000122    4.90999985    0.50000000
   17.93027687  134.33299255    4.90999985    2.05999994
   17.93361092   -1.00000000    4.90999985    0.13000000
   17.93694305   -1.00000000    4.90999985    2.21000004
   17.94027710   -1.00000000    4.90999985    0.41999999
   17.94333267   -1.00000000    4.90999985    0.15000001
   17.94666672   -1.00000000    4.90999985    0.61000001
   17.95694542  114.61000061    4.90999985    1.63000000
   17.96000099  142.83299255    4.90999985    2.30999994
   17.96333504  121.22399902    4.90999985    1.64999998
   17.96527863  127.03800201    4.90999985    2.30999994
   17.96694565  136.43800354    4.90999985    2.26999998
   17.97027779  138.93299866    4.90999985    2.28999996
   17.97361183   -1.00000000    4.90999985    2.32999992
   17.97666740  121.10099792    4.90999985    0.56999999
   17.98000145  124.61799622    4.90999985    0.67000002
   17.98333359   -1.00000000    4.90999985    1.01999998
   17.98638916   -1.00000000    4.90999985    1.73000002
   17.98972321   -1.00000000    4.90999985    0.61000001
   17.99555588   -1.00000000    4.90999985    2.25000000
   17.99972153  141.54400635    4.90999985    2.28999996
   18.00305557  145.05299377    4.90999985    2.30999994
   18.00611115  125.23100281    4.90999985    2.30999994
   18.00944519  116.92199707    4.90999985    2.11999989
   18.01277733  119.56800079    4.90999985    2.26999998
   18.01583290  122.87200165    4.90999985    2.25000000
   18.01916695  136.18600464    4.90999985    2.23000002
   18.02249908  112.53600311    4.90999985    2.25000000
   18.02555466   -1.00000000    4.90999985    0.17000000
   18.02888870   -1.00000000    4.90999985    0.09000000
   18.03194427  162.96499634    4.90999985    1.69000006
   18.03222275  197.78900146    4.90999985    1.69000006
   18.03861046  197.78900146    4.90999985    1.89999998
   18.04249954  144.52600098    4.90999985    2.15000010
   18.04583359  129.48800659    4.90999985    2.21000004
   18.04916573  129.04400635    4.90999985    2.32999992
   18.05222130  116.10199738    4.90999985    2.34999990
   18.05555534  130.65100098    4.90999985    2.34999990
   18.05888748  134.88299561    4.90999985    2.34999990
   18.06194305   89.99929810    4.90999985    2.26999998
   18.06527710   56.38539886    4.90999985    0.70999998
   18.06555557   -1.00000000    4.90999985    0.20999999
   18.06888962   -1.00000000    4.90999985    0.05000000
   18.07222366   -1.00000000    2.44000006    0.01000000
   18.07527924   -1.00000000    1.01999998    0.01000000
   18.08555603   -1.00000000    4.90999985    0.15000001
   18.08861160   -1.00000000    4.90999985    0.31999999
   18.09194565   -1.00000000    4.90999985    0.47999999
   18.09500122   -1.00000000    4.90999985    0.73000002
   18.09833336   -1.00000000    4.90999985    0.25000000
   18.10194397   -1.00000000    4.90999985    0.17000000
   18.10527802  136.02799988    4.90999985    0.81999999
   18.10861206  133.94700623    4.90999985    2.36999989
   18.11166763   -1.00000000    4.90999985    1.41999996
   18.11499977   -1.00000000    4.90999985    0.34000000
   18.11805534   -1.00000000    4.90999985    0.13000000
   18.12833405   -1.00000000    4.90999985    0.05000000
   18.13138962   -1.00000000    4.90999985    0.03000000
   18.13500023   -1.00000000    4.90999985    0.03000000
   18.13833237   -1.00000000    4.90999985    0.03000000
   18.14166641   -1.00000000    4.90999985    0.03000000
   18.14472198   -1.00000000    4.90999985    0.03000000
   18.14805603   -1.00000000    1.69000006    0.01000000
   18.15111160   -1.00000000    4.90999985    0.11000000
   18.15444374   -1.00000000    4.90999985    0.03000000
   18.15777779   -1.00000000    4.90999985    0.03000000
   18.16083336   -1.00000000    4.90999985    0.03000000
   18.17111015   -1.00000000    4.90999985    0.03000000
   18.17444420   -1.00000000    4.90999985    0.01000000
   18.17749977   -1.00000000    4.90999985    0.01000000
   18.18083191   -1.00000000    4.90999985    0.01000000
   18.18416595   -1.00000000    4.90999985    0.01000000
   18.18722153   -1.00000000    4.90999985    0.01000000
   18.19055557   -1.00000000    4.90999985    0.01000000
   18.19361115   -1.00000000    4.90999985    0.01000000
   18.19694328   -1.00000000    4.90999985    0.01000000
   18.20055580   -1.00000000    4.90999985    0.01000000
   18.20388985   -1.00000000    4.90999985    0.01000000
   18.21389008   -1.00000000    4.90999985    0.01000000
   18.21722221   -1.00000000    3.50000000    0.01000000
   18.22055626   -1.00000000    2.44000006    0.03000000
   18.22361183   -1.00000000    4.90999985    0.03000000
   18.22694588   -1.00000000    4.90999985    0.03000000
   18.23000145   -1.00000000    4.90999985    0.03000000
   18.23361206   -1.00000000    4.90999985    0.03000000
   18.23694420   -1.00000000    4.90999985    0.03000000
   18.24027824   -1.00000000    4.90999985    0.03000000
   18.24333382   -1.00000000    4.90999985    0.03000000
   18.24666786   -1.00000000    4.90999985    0.03000000
   18.25694466   -1.00000000    4.90999985    0.03000000
   18.26000023   -1.00000000    4.90999985    0.03000000
   18.26333427   -1.00000000    4.90999985    0.03000000
   18.26666641   -1.00000000    4.90999985    0.03000000
   18.27000046   -1.00000000    4.90999985    0.03000000
   18.27333260   -1.00000000    4.90999985    0.03000000
   18.27638817   -1.00000000    4.90999985    0.03000000
   18.27972221   -1.00000000    4.90999985    0.03000000
   18.28277779   -1.00000000    4.90999985    0.03000000
   18.28610992   -1.00000000    4.90999985    0.03000000
   18.28944397   -1.00000000    4.90999985    0.03000000
   18.29972076   -1.00000000    4.90999985    0.03000000
   18.30277634   -1.00000000    4.90999985    0.03000000
   18.30611038   -1.00000000    4.90999985    0.03000000
   18.30944443   -1.00000000    4.90999985    0.03000000
   18.31250000   -1.00000000    4.90999985    0.03000000
   18.31583214   -1.00000000    4.90999985    0.03000000
   18.31916809   -1.00000000    4.90999985    0.03000000
   18.32222366   -1.00000000    4.90999985    0.03000000
   18.32555580   -1.00000000    4.90999985    0.03000000
   18.32861137   -1.00000000    4.90999985    0.03000000
   18.33194542   -1.00000000    4.90999985    0.03000000
   18.34250069   -1.00000000    4.90999985    0.03000000
   18.34583473   -1.00000000    4.90999985    0.03000000
   18.34889030   -1.00000000    4.90999985    0.03000000
   18.35222244   -1.00000000    4.90999985    0.03000000
   18.35555649   -1.00000000    4.90999985    0.03000000
   18.35861206   -1.00000000    4.90999985    0.03000000
   18.36194420   -1.00000000    4.90999985    0.03000000
   18.36499977   -1.00000000    4.90999985    0.03000000
   18.36861038   -1.00000000    4.90999985    0.03000000
   18.37194443   -1.00000000    4.90999985    0.03000000
   18.37527847   -1.00000000    4.90999985    0.03000000
   18.38527679   -1.00000000    4.90999985    0.03000000
   18.38861084   -1.00000000    4.90999985    0.03000000
   18.39194489   -1.00000000    4.90999985    0.03000000
   18.39500046   -1.00000000    4.90999985    0.03000000
   18.39833260   -1.00000000    4.90999985    0.03000000
   18.40166664   -1.00000000    4.90999985    0.03000000
   18.40499878   -1.00000000    4.90999985    0.03000000
   18.40833282   -1.00000000    4.90999985    0.03000000
   18.41138840   -1.00000000    4.90999985    0.03000000
   18.41472244   -1.00000000    4.90999985    0.03000000
   18.41777802   -1.00000000    4.90999985    0.03000000
   18.42833328   -1.00000000    4.90999985    0.03000000
   18.43138885   -1.00000000    4.90999985    0.03000000
   18.43499947   -1.00000000    4.90999985    0.03000000
   18.43833160   -1.00000000    4.90999985    0.03000000
   18.44166565   -1.00000000    4.90999985    0.03000000
   18.44472122   -1.00000000    4.90999985    0.03000000
   18.44805527   -1.00000000    4.90999985    0.03000000
   18.45111275   -1.00000000    4.90999985    0.03000000
   18.45444489   -1.00000000    4.90999985    0.03000000
   18.45777893   -1.00000000    4.90999985    0.03000000
   18.46083450   -1.00000000    4.90999985    0.03000000
   18.47111130   -1.00000000    4.90999985    0.03000000
   18.47416687   -1.00000000    4.90999985    0.03000000
   18.47750092   -1.00000000    4.90999985    0.03000000
   18.48083305   -1.00000000    4.90999985    0.03000000
   18.48388863   -1.00000000    4.90999985    0.03000000
   18.48722267   -1.00000000    4.90999985    0.03000000
   18.49055672   -1.00000000    4.90999985    0.03000000
   18.49361229   -1.00000000    4.90999985    0.03000000
   18.49694443   -1.00000000    4.90999985    0.03000000
   18.50027847   -1.00000000    4.90999985    0.03000000
   18.50361061   -1.00000000    4.90999985    0.03000000
   18.51388931   -1.00000000    4.90999985    0.03000000
   18.51722145   -1.00000000    4.90999985    0.03000000
   18.52027702   -1.00000000    4.90999985    0.03000000
   18.52361107   -1.00000000    4.90999985    0.03000000
   18.52694511   -1.00000000    4.90999985    0.03000000
   18.53000069   -1.00000000    4.90999985    0.03000000
   18.53361130   -1.00000000    4.90999985    0.03000000
   18.53694344   -1.00000000    4.90999985    0.03000000
   18.54027748   -1.00000000    4.90999985    0.03000000
   18.54333305   -1.00000000    4.90999985    0.03000000
   18.54666710   -1.00000000    4.90999985    0.03000000
   18.55666542   -1.00000000    4.90999985    0.01000000
   18.55999947   -1.00000000    4.90999985    0.01000000
   18.56333351   -1.00000000    4.90999985    0.01000000
   18.58305550   -1.00000000    4.90999985    0.01000000
   18.58638954   -1.00000000    4.90999985    0.01000000
   18.58944511   -1.00000000    4.90999985    0.01000000
   18.59972191   -1.00000000    4.90999985    0.01000000
   18.60305595   -1.00000000    4.90999985    0.01000000
   18.60611153   -1.00000000    4.90999985    0.01000000
   18.60944557   -1.00000000    4.90999985    0.01000000
   18.61250114   -1.00000000    4.90999985    0.01000000
   18.61611176   -1.00000000    4.90999985    0.01000000
   18.61916733   -1.00000000    4.90999985    0.01000000
   18.62249947   -1.00000000    4.90999985    0.01000000
   18.62583351   -1.00000000    4.90999985    0.09000000
   18.62888908   -1.00000000    4.90999985    0.09000000
   18.63222313   -1.00000000    4.90999985    0.09000000
   18.64249992   -1.00000000    4.90999985    0.09000000
   18.64583397   -1.00000000    4.90999985    0.09000000
   18.64944458   -1.00000000    4.90999985    0.09000000
   18.65250015   -1.00000000    4.90999985    0.09000000
   18.65583229   -1.00000000    4.90999985    0.09000000
   18.65916634   -1.00000000    4.90999985    0.09000000
   18.66222191   -1.00000000    4.90999985    0.09000000
   18.66555595   -1.00000000    4.90999985    0.09000000
   18.66860962   -1.00000000    4.90999985    0.09000000
   18.67194366   -1.00000000    4.90999985    0.09000000
   18.67527771   -1.00000000    4.90999985    0.09000000
   18.68527603   -1.00000000    4.90999985    0.09000000
   18.68861008   -1.00000000    4.90999985    0.09000000
   18.69194412   -1.00000000    4.90999985    0.09000000
   18.69499969   -1.00000000    4.90999985    0.09000000
   18.69833183   -1.00000000    4.90999985    0.09000000
   18.70166779   -1.00000000    4.90999985    0.09000000
   18.70472336   -1.00000000    4.90999985    0.09000000
   18.70805550   -1.00000000    4.90999985    0.09000000
   18.71111107   -1.00000000    4.90999985    0.09000000
   18.71472359   -1.00000000    4.90999985    0.09000000
   18.71777916   -1.00000000    4.90999985    0.09000000
   18.72833443   -1.00000000    4.90999985    0.09000000
   18.73139000   -1.00000000    4.90999985    0.09000000
   18.73472214   -1.00000000    4.90999985    0.09000000
   18.73805618   -1.00000000    4.90999985    0.09000000
   18.74111176   -1.00000000    4.90999985    0.09000000
   18.74444389   -1.00000000    4.90999985    0.09000000
   18.74805641   -1.00000000    4.90999985    0.09000000
   18.75111198   -1.00000000    4.90999985    0.03000000
   18.75444412   -1.00000000    4.90999985    0.01000000
   18.75777817   -1.00000000    4.90999985    0.05000000
   18.76083374   -1.00000000    4.90999985    0.11000000
   18.77111053   -1.00000000    4.90999985    0.03000000
   18.77444458   -1.00000000    3.82999992    0.03000000
   18.77750015   -1.00000000    4.90999985    0.05000000
   18.78111076   -1.00000000    4.90999985    0.20999999
   18.78444481   -1.00000000    4.90999985    0.86000001
   18.78750038   -1.00000000    4.90999985    1.50000000
   18.79083252   -1.00000000    4.90999985    1.41999996
   18.79388809   -1.00000000    4.90999985    1.44000006
   18.79722214   -1.00000000    4.90999985    1.16999996
   18.80055428   -1.00000000    4.90999985    0.03000000
   18.80360985   -1.00000000    3.03999996    0.01000000
   18.81444359   -1.00000000    3.03999996    0.01000000
   18.81750107   -1.00000000    3.03999996    0.01000000
   18.82083511   -1.00000000    3.03999996    0.01000000
   18.82416725   -1.00000000    3.03999996    0.01000000
   18.82722282   -1.00000000    3.03999996    0.01000000
   18.83055687   -1.00000000    3.03999996    0.01000000
   18.83361244   -1.00000000    3.03999996    0.01000000
   18.83694458   -1.00000000    3.03999996    0.01000000
   18.84027863   -1.00000000    3.03999996    0.01000000
   18.84333420   -1.00000000    3.03999996    0.01000000
   18.84666824   -1.00000000    4.90999985    0.01000000
   18.85666656   -1.00000000    4.90999985    0.07000000
   18.86000061   -1.00000000    4.90999985    0.05000000
   18.86333466   -1.00000000    2.78999996    0.01000000
   18.86638832   -1.00000000    1.94000006    0.01000000
   18.86972237   -1.00000000    1.94000006    0.01000000
   18.87305641   -1.00000000    1.94000006    0.01000000
   18.87611198   -1.00000000    1.94000006    0.01000000
   18.87944412   -1.00000000    1.94000006    0.01000000
   18.88305473   -1.00000000    1.94000006    0.01000000
   18.88611031   -1.00000000    1.94000006    0.01000000
   18.88944435   -1.00000000    1.94000006    0.01000000
   18.89972115   -1.00000000    1.94000006    0.01000000
   18.90277672   -1.00000000    1.94000006    0.01000000
   18.90611076   -1.00000000    1.94000006    0.01000000
   18.90944481   -1.00000000    1.94000006    0.01000000
   18.91250038   -1.00000000    1.94000006    0.01000000
   18.91611099   -1.00000000    1.94000006    0.01000000
   18.91916656   -1.00000000    1.94000006    0.01000000
   18.92249870   -1.00000000    1.94000006    0.01000000
   18.92583275   -1.00000000    1.94000006    0.01000000
   18.92916679   -1.00000000    1.94000006    0.01000000
   18.93249893   -1.00000000    1.94000006    0.01000000
   18.94249916   -1.00000000    1.94000006    0.01000000
   18.94583321   -1.00000000    1.94000006    0.01000000
   18.94916534   -1.00000000    1.94000006    0.01000000
   18.95250130   -1.00000000    1.94000006    0.01000000
   18.95555687   -1.00000000    1.94000006    0.01000000
   18.95888901   -1.00000000    1.94000006    0.01000000
   18.96194458   -1.00000000    1.94000006    0.01000000
   18.96527863   -1.00000000    1.94000006    0.01000000
   18.96861076   -1.00000000    1.94000006    0.01000000
   18.97166634   -1.00000000    1.94000006    0.01000000
   18.97500038   -1.00000000    1.94000006    0.01000000
   18.98527718   -1.00000000    1.94000006    0.01000000
   18.98861122   -1.00000000    1.94000006    0.01000000
   18.99166679   -1.00000000    1.94000006    0.01000000
   18.99500084   -1.00000000    1.94000006    0.01000000
   18.99833298   -1.00000000    1.94000006    0.01000000
   19.00138855   -1.00000000    1.94000006    0.01000000
   19.00472260   -1.00000000    1.94000006    0.01000000
   19.00805473   -1.00000000    1.94000006    0.01000000
   19.01111031   -1.00000000    1.94000006    0.01000000
   19.01472282   -1.00000000    1.94000006    0.01000000
   19.01777840   -1.00000000    1.94000006    0.01000000
