    HOUR (UT)   FLARE FACTOR    SKY TESTER    SUN TESTER
   12.19861126   -1.00000000   -1.00000000   -1.00000000
   12.22694397  166.36000061    0.75000000    1.86000001
   12.22999954  174.83599854    0.73000002    1.86000001
   12.23333359  159.11199951    0.73000002    1.86000001
   12.23638916  170.51400757    0.75000000    1.88000000
   12.23972225  158.72599792    0.73000002    1.86000001
   12.24305534  158.40499878    0.75000000    1.88000000
   12.24694443  158.40499878    0.73000002    1.89999998
   12.25111103  150.47099304    0.73000002    1.89999998
   12.25444412  155.50300598    0.75000000    1.89999998
   12.25749969  151.88299561    0.75000000    1.89999998
   12.26000023  146.56599426    0.73000002    1.89999998
   12.26138878  156.89599609    0.73000002    1.89999998
   12.26444435  156.94299316    0.75000000    1.89999998
   12.26777744  161.43800354    0.75000000    1.89999998
   12.27083302  147.42599487    0.75000000    1.89999998
   12.27416611  165.14500427    0.73000002    1.89999998
   12.27722168  153.41600037    0.75000000    1.89999998
   12.28055573  171.21800232    0.73000002    1.91999996
   12.28361130  173.86000061    0.73000002    1.91999996
   12.29000092  173.86000061    0.75000000    1.91999996
   12.29416752  170.30999756    0.75000000    1.91999996
   12.29722309  170.80499268    0.75000000    1.91999996
   12.30055618  179.15699768    0.75000000    1.94000006
   12.30361176  169.87300110    0.75000000    1.94000006
   12.30694485  182.21299744    0.75000000    1.94000006
   12.31027794  170.02400208    0.75000000    1.94000006
   12.31333351  168.73399353    0.73000002    1.94000006
   12.31666660  173.22200012    0.75000000    1.94000006
   12.31972218  169.03199768    0.75000000    1.94000006
   12.32305527  167.37100220    0.75000000    1.94000006
   12.32611084  167.10499573    0.75000000    1.94000006
   12.32666683  161.55299377    0.75000000    1.94000006
   12.33277798  161.55299377    0.73000002    1.96000004
   12.33694458  162.97399902    0.73000002    1.96000004
   12.34000015  162.18099976    0.73000002    1.96000004
   12.34333324  176.01199341    0.70999998    1.98000002
   12.34638882  178.70100403    0.73000002    1.98000002
   12.34972191  162.67700195    0.73000002    1.98000002
   12.35277843  168.09199524    0.73000002    1.98000002
   12.35611153  170.74499512    0.73000002    1.98000002
   12.35944462  161.52400208    0.73000002    1.98000002
   12.36000061  170.77499390    0.73000002    1.98000002
   12.36333370  161.37500000    0.73000002    1.98000002
   12.36638927  166.80700684    0.73000002    1.98000002
   12.36972237  166.09399414    0.75000000    1.98000002
   12.37555599  166.09399414    0.75000000    1.98000002
   12.37972260  167.10400391    0.73000002    2.00000000
   12.38305569  161.49099731    0.73000002    2.00000000
   12.38611126  161.33900452    0.73000002    2.00000000
   12.38944435  165.30799866    0.73000002    2.01999998
   12.39249992  171.22500610    0.75000000    2.00000000
   12.39333344  158.11099243    0.75000000    2.00000000
   12.39611053  168.79899597    0.75000000    2.00000000
   12.39916611  150.11099243    0.79000002    2.01999998
   12.40249920  160.10600281    0.76999998    2.01999998
   12.40555477  159.57299805    0.76999998    2.00000000
   12.40888882  153.68400574    0.76999998    2.00000000
   12.41194439  176.78799438    0.76999998    2.00000000
   12.41833401  176.78799438    0.79000002    2.01999998
   12.42250061  165.35600281    0.76999998    2.01999998
   12.42583370  170.47200012    0.76999998    2.01999998
   12.42666721  163.10000610    0.76999998    2.01999998
   12.42944431  163.58599854    0.79000002    2.03999996
   12.43249989  163.43200684    0.76999998    2.03999996
   12.43583298  162.64300537    0.76999998    2.03999996
   12.43888855  163.90800476    0.75000000    2.03999996
   12.44222260  162.29299927    0.75000000    2.03999996
   12.44555569  166.21699524    0.76999998    2.03999996
   12.44861126  159.21699524    0.76999998    2.03999996
   12.45194435  170.75199890    0.76999998    2.03999996
   12.45527744  168.05999756    0.76999998    2.03999996
   12.46138859  168.05999756    0.75000000    2.05999994
   12.46527767  170.34100342    0.75000000    2.05999994
   12.46861076  160.56100464    0.73000002    2.05999994
   12.47194386  174.56700134    0.73000002    2.05999994
   12.47527695  166.78399658    0.70999998    2.05999994
   12.47833252  169.40400696    0.73000002    1.50000000
   12.48166656  166.06100464    0.73000002    1.50000000
   12.48472214  167.55099487    0.70999998    1.76999998
   12.48805618  155.73800659    0.70999998    2.07999992
   12.49138927  169.87800598    0.69000000    2.07999992
   12.49333382  172.16499329    0.69000000    2.07999992
   12.49499989  170.41499329    0.69000000    2.07999992
   12.49805546  174.64900208    0.69000000    2.07999992
   12.50416660  174.64900208    0.67000002    2.07999992
   12.50833321  169.28599548    0.67000002    2.07999992
   12.51138878  172.19299316    0.67000002    2.09999990
   12.51472187  163.78999329    0.67000002    2.09999990
   12.51805496  161.73800659    0.64999998    2.09999990
   12.52111053  164.44900513    0.67000002    2.09999990
   12.52444458  161.75300598    0.67000002    2.09999990
   12.52666664  158.47000122    0.67000002    2.09999990
   12.52805519  165.37500000    0.67000002    2.09999990
   12.53138828  154.68200684    0.67000002    2.09999990
   12.53444481  154.89300537    0.64999998    2.09999990
   12.53777790  155.43299866    0.67000002    2.09999990
   12.54083347  163.35800171    0.67000002    2.11999989
   12.54694462  163.35800171    0.67000002    2.09999990
   12.55111122  158.89900208    0.64999998    2.11999989
   12.55444431  160.71699524    0.64999998    2.13000011
   12.55749989  152.15499878    0.67000002    2.11999989
   12.56000042  154.60800171    0.64999998    2.11999989
   12.56111145  159.58099365    0.64999998    2.11999989
   12.56444454  170.42900085    0.64999998    2.11999989
   12.56750011  160.95100403    0.64999998    2.11999989
   12.57083321  153.27000427    0.64999998    2.11999989
   12.57388878  162.40600586    0.64999998    2.11999989
   12.57722187  154.06900024    0.64999998    2.11999989
   12.58055592  165.14900208    0.63000000    2.13000011
   12.58361053  160.22799683    0.63000000    2.13000011
   12.58972168  160.22799683    0.63000000    2.13000011
   12.59388828  163.56900024    0.63000000    2.13000011
   12.59722233  165.53399658    0.63000000    2.13000011
   12.60027790  161.10400391    0.61000001    2.13000011
   12.60361195  162.22700500    0.61000001    2.13000011
   12.60694504  149.50700378    0.61000001    2.13000011
   12.61000061  155.54600525    0.61000001    2.13000011
   12.61333370  155.10400391    0.63000000    2.15000010
   12.61666679  162.83200073    0.63000000    2.15000010
   12.61972237  164.51899719    0.61000001    2.15000010
   12.62305546  153.80400085    0.63000000    2.15000010
   12.62611103  150.36000061    0.63000000    2.15000010
   12.62666702  152.19799805    0.63000000    2.15000010
   12.63277817  152.19799805    0.61000001    2.15000010
   12.63694477  148.37300110    0.58999997    2.15000010
   12.64027786  163.72300720    0.61000001    2.17000008
   12.64333344  161.14399719    0.61000001    2.15000010
   12.64666653  156.95399475    0.61000001    2.15000010
   12.64972210  158.50700378    0.61000001    2.17000008
   12.65305519  158.22900391    0.61000001    2.17000008
   12.65638828  159.72000122    0.61000001    2.17000008
   12.65972137  162.67700195    0.58999997    2.17000008
   12.66027737  163.20700073    0.58999997    2.17000008
   12.66305542  161.66700745    0.61000001    2.17000008
   12.66638851  156.62100220    0.61000001    2.17000008
   12.66972256  157.29899597    0.61000001    2.17000008
   12.67555618  157.29899597    0.58999997    2.17000008
   12.67972279  151.78300476    0.61000001    2.19000006
   12.68277836  149.10800171    0.61000001    2.19000006
   12.68611145  152.61300659    0.61000001    2.19000006
   12.68944454  150.55299377    0.61000001    2.19000006
   12.69250011  155.01300049    0.58999997    2.19000006
   12.69361115  151.08099365    0.58999997    2.19000006
   12.69611073  158.66299438    0.58999997    2.19000006
   12.69944477  149.77799988    0.58999997    2.19000006
   12.70277786  150.99200439    0.58999997    2.17000008
   12.70583344  144.60000610    0.58999997    2.19000006
   12.70916653  150.01699829    0.58999997    2.19000006
   12.71222210  144.16700745    0.58999997    2.19000006
   12.71833324  144.16700745    0.58999997    2.19000006
   12.72249985  141.90100098    0.61000001    2.21000004
   12.72583294  150.05200195    0.58999997    2.21000004
   12.72694397  153.38600159    0.58999997    2.21000004
   12.72916603  156.85099792    0.58999997    2.21000004
   12.73249912  154.44900513    0.58999997    2.21000004
   12.73583317  159.41900635    0.58999997    2.19000006
   12.73888874  150.72900391    0.58999997    2.21000004
   12.74222279  159.60899353    0.61000001    2.19000006
   12.74555588  162.66400146    0.61000001    2.21000004
   12.74861145  157.89399719    0.61000001    2.23000002
   12.75194454  164.45899963    0.61000001    2.23000002
   12.75527763  158.36199951    0.63000000    2.21000004
   12.76111126  158.36199951    0.61000001    2.21000004
   12.76527786  156.35800171    0.58999997    2.21000004
   12.76861095  158.59100342    0.58999997    2.21000004
   12.77166653  151.82600403    0.58999997    2.23000002
   12.77499962  156.18699646    0.56999999    2.23000002
   12.77833271  155.06100464    0.56999999    2.23000002
   12.78138828  154.94799805    0.56999999    2.23000002
   12.78472233  146.40899658    0.56999999    2.23000002
   12.78777790  148.61500549    0.56999999    2.23000002
   12.79111195  144.42100525    0.56999999    2.23000002
   12.79361153  141.73699951    0.55000001    2.23000002
   12.79472256  148.16299438    0.55000001    2.23000002
   12.79805565  148.03100586    0.55000001    2.23000002
   12.80416679  148.03100586    0.58999997    2.23000002
   12.80833340  145.86500549    0.56999999    2.23000002
   12.81138897  146.30900574    0.56999999    2.23000002
   12.81472206  148.63999939    0.56999999    2.23000002
   12.81777763  151.36500549    0.56999999    2.23000002
   12.82111073  156.17100525    0.56999999    2.25000000
   12.82444477  157.42900085    0.56999999    2.25000000
   12.82694435  157.94799805    0.55000001    2.25000000
   12.82805538  161.25000000    0.55000001    2.25000000
   12.83138847  158.98800659    0.56999999    2.25000000
   12.83472157  157.71000671    0.56999999    2.25000000
   12.83777714  152.88000488    0.55000001    2.25000000
   12.84111118  151.28900146    0.55000001    2.25000000
   12.84694386  151.28900146    0.56999999    2.25000000
   12.85111141  158.10099792    0.55000001    2.26999998
   12.85416698  159.15499878    0.55000001    2.25000000
   12.85750008  158.05299377    0.55000001    2.25000000
   12.86027813  148.08999634    0.55000001    2.25000000
   12.86083412  152.99200439    0.55000001    2.25000000
   12.86416721  163.54100037    0.55000001    2.26999998
   12.86750031  157.78799438    0.55000001    2.26999998
   12.87055588  151.77999878    0.52999997    2.26999998
   12.87388897  154.23599243    0.55000001    2.26999998
   12.87694454  149.92900085    0.52999997    2.28999996
   12.88027763  155.93099976    0.52999997    2.26999998
   12.88361073  144.04499817    0.55000001    2.26999998
   12.88972187  144.04499817    0.55000001    2.26999998
   12.89388847  154.41700745    0.55000001    2.26999998
   12.89694405  147.75100708    0.55000001    2.26999998
   12.90027714  145.24699402    0.55000001    2.26999998
   12.90361118  149.74000549    0.55000001    2.28999996
   12.90666676  140.29299927    0.56999999    2.26999998
   12.90999985  150.09899902    0.56999999    2.26999998
   12.91333294  154.42199707    0.56999999    2.26999998
   12.91638851  149.12600708    0.56999999    2.28999996
   12.91972256  155.71299744    0.55000001    2.28999996
   12.92277813  153.02400208    0.55000001    2.28999996
   12.92611122  154.16600037    0.52999997    2.28999996
   12.92694473  152.97799683    0.52999997    2.28999996
   12.93249989  152.97799683    0.52999997    2.28999996
   12.93666649  155.95899963    0.52999997    2.28999996
   12.94000053  152.40600586    0.52999997    2.28999996
   12.94305515  158.08299255    0.52999997    2.28999996
   12.94638920  155.26499939    0.51999998    2.28999996
   12.94972229  156.30400085    0.52999997    2.28999996
   12.95277786  147.88900757    0.51999998    2.28999996
   12.95611095  149.08200073    0.51999998    2.28999996
   12.95916653  153.81799316    0.51999998    2.30999994
   12.96027756  146.82099915    0.51999998    2.28999996
   12.96277714  144.41099548    0.51999998    2.28999996
   12.96611118  147.88099670    0.52999997    2.28999996
   12.96944427  141.34899902    0.51999998    2.30999994
   12.97555542  141.34899902    0.51999998    2.30999994
   12.97944355  145.08200073    0.52999997    2.30999994
   12.98277760  143.58799744    0.51999998    2.28999996
   12.98611164  147.34700012    0.51999998    2.32999992
   12.98916721  154.76300049    0.51999998    2.32999992
   12.99250031  151.03900146    0.51999998    2.30999994
   12.99361134  140.13200378    0.51999998    2.30999994
   12.99611092  146.95599365    0.51999998    2.30999994
   12.99916649  143.75300598    0.51999998    2.30999994
   13.00249958  149.13800049    0.51999998    2.30999994
   13.00555515  152.95599365    0.52999997    2.32999992
   13.00888920  151.28999329    0.51999998    2.32999992
   13.01222229  152.59199524    0.50000000    2.32999992
   13.01833344  152.59199524    0.51999998    2.32999992
   13.02250004  153.01499939    0.51999998    2.32999992
   13.02555561  148.67599487    0.51999998    2.30999994
   13.02694416  148.68099976    0.51999998    2.30999994
   13.02916622  154.34500122    0.51999998    2.30999994
   13.03249931  148.44000244    0.51999998    2.30999994
   13.03583336  146.93899536    0.51999998    2.32999992
   13.03888893  147.80900574    0.51999998    2.32999992
   13.04222298  146.86799622    0.51999998    2.32999992
   13.04555607  148.92799377    0.51999998    2.32999992
   13.04861164  152.33900452    0.51999998    2.32999992
   13.05194473  150.70799255    0.51999998    2.32999992
   13.05500031  153.56900024    0.50000000    2.32999992
   13.06111145  153.56900024    0.51999998    2.32999992
   13.06527805  148.72999573    0.50000000    2.32999992
   13.06833363  143.72399902    0.50000000    2.32999992
   13.07166672  145.49699402    0.50000000    2.32999992
   13.07499981  141.12399292    0.51999998    2.34999990
   13.07805538  144.01800537    0.51999998    2.32999992
   13.08138847  148.44999695    0.50000000    2.32999992
   13.08472157  148.20399475    0.50000000    2.32999992
   13.08777714  145.62600708    0.50000000    2.32999992
   13.09111118  147.55999756    0.51999998    2.34999990
   13.09361076  143.13999939    0.50000000    2.32999992
   13.09444427  145.47500610    0.50000000    2.32999992
   13.09777737  148.43899536    0.51999998    2.34999990
   13.10388947  148.43899536    0.50000000    2.34999990
   13.10805607  145.38800049    0.50000000    2.34999990
   13.11138916  152.61399841    0.50000000    2.34999990
   13.11444473  140.35499573    0.50000000    2.34999990
   13.11777782  144.82299805    0.50000000    2.34999990
   13.12111092  152.94900513    0.50000000    2.34999990
   13.12416649  142.89300537    0.51999998    2.34999990
   13.12694454  142.77299500    0.50000000    2.34999990
   13.12777805  140.86500549    0.50000000    2.34999990
   13.13111115  144.89399719    0.51999998    2.34999990
   13.13444424  147.46000671    0.51999998    2.34999990
   13.13749981  144.03599548    0.51999998    2.34999990
   13.14083290  148.46200562    0.51999998    2.36999989
   13.14694405  148.46200562    0.51999998    2.36999989
   13.15083313  140.32600403    0.51999998    2.36999989
   13.15416622  150.08599854    0.51999998    2.36999989
   13.15749931  149.32699585    0.50000000    2.36999989
   13.16027737  146.36199951    0.50000000    2.36999989
   13.16083336  157.45700073    0.50000000    2.36999989
   13.16416645  138.31500244    0.50000000    2.36999989
   13.16750050  149.63299561    0.50000000    2.36999989
   13.17055607  154.94900513    0.50000000    2.36999989
   13.17388916  153.31700134    0.47999999    2.36999989
   13.17722225  149.84399414    0.50000000    2.36999989
   13.18027782  155.89700317    0.47999999    2.39000010
   13.18361092  147.67599487    0.47999999    2.36999989
   13.18972206  147.67599487    0.50000000    2.39000010
   13.19388866  146.03399658    0.50000000    2.36999989
   13.19694424  145.83900452    0.47999999    2.39000010
   13.20027733  138.75500488    0.47999999    2.36999989
   13.20361137  141.69700623    0.50000000    2.39000010
   13.20666695  147.80599976    0.50000000    2.39000010
   13.21000004  147.82099915    0.47999999    2.39000010
   13.21305561  147.61900330    0.47999999    2.39000010
   13.21638870  142.62500000    0.47999999    2.39000010
   13.21972179  146.52400208    0.47999999    2.36999989
   13.22277737  144.59800720    0.50000000    2.39000010
   13.22611046  145.55700684    0.50000000    2.39000010
   13.22694397  143.50399780    0.47999999    2.36999989
   13.24777794  143.50399780    0.47999999    2.39000010
   13.25166702  139.52499390    0.50000000    2.40000010
   13.25500011  138.12600708    0.50000000    2.39000010
   13.25833321  138.60800171    0.47999999    2.39000010
   13.26027775  137.16700745    0.47999999    2.39000010
   13.26194477  141.88800049    0.47999999    2.39000010
   13.26500034  143.73899841    0.47999999    2.39000010
   13.26833344  141.53700256    0.50000000    2.39000010
   13.27138901  139.88600159    0.47999999    2.39000010
   13.27472210  143.61300659    0.50000000    2.39000010
   13.27805519  144.89399719    0.50000000    2.39000010
   13.28111076  143.17100525    0.47999999    2.39000010
   13.28444481  144.75500488    0.47999999    2.39000010
   13.29027843  144.75500488    0.47999999    2.40000010
   13.29444504  146.84399414    0.47999999    2.39000010
   13.29777813  137.22000122    0.47999999    2.40000010
   13.30111122  139.91299438    0.47999999    2.40000010
   13.30416679  156.95199585    0.47999999    2.40000010
   13.30749989  148.30099487    0.47999999    2.39000010
   13.31055546  150.33700562    0.47999999    2.40000010
   13.31388950  145.31799316    0.47999999    2.40000010
   13.31722260  146.96299744    0.47999999    2.40000010
   13.32027817  142.66200256    0.47999999    2.40000010
   13.32361126  139.89999390    0.47999999    2.40000010
   13.32694435  149.83900452    0.47999999    2.40000010
   13.32722187  146.50999451    0.47999999    2.40000010
   13.33333302  146.50999451    0.47999999    2.40000010
   13.33749962  147.73899841    0.47999999    2.40000010
   13.34055519  138.17700195    0.47999999    2.40000010
   13.34388828  147.58099365    0.47999999    2.40000010
   13.34694386  145.89199829    0.47999999    2.40000010
   13.35027790  138.39999390    0.46000001    2.40000010
   13.35361195  153.75700378    0.46000001    2.40000010
   13.35666752  142.86399841    0.47999999    2.42000008
   13.36000061  152.35699463    0.46000001    2.40000010
   13.36055565  151.46400452    0.46000001    2.40000010
   13.36361122  152.94500732    0.47999999    2.40000010
   13.36694431  144.18299866    0.47999999    2.40000010
   13.36999989  150.04899597    0.47999999    2.42000008
   13.37611103  150.04899597    0.47999999    2.40000010
   13.38027763  146.43699646    0.47999999    2.40000010
   13.38333321  147.53300476    0.47999999    2.40000010
   13.38666630  151.54299927    0.47999999    2.40000010
   13.39000034  148.08999634    0.47999999    2.42000008
   13.39305496  147.49499512    0.47999999    2.42000008
   13.39388847  144.73599243    0.47999999    2.42000008
   13.39666653  145.18099976    0.47999999    2.42000008
   13.39999962  149.24299622    0.47999999    2.42000008
   13.40305519  143.94099426    0.47999999    2.42000008
   13.40638828  133.44999695    0.47999999    2.42000008
   13.40972137  148.24000549    0.47999999    2.42000008
   13.41277695  136.89799500    0.47999999    2.40000010
   13.41888905  136.89799500    0.47999999    2.40000010
   13.42305565  147.31399536    0.47999999    2.42000008
   13.42638874  145.51199341    0.47999999    2.42000008
   13.42722225  139.21400452    0.47999999    2.42000008
   13.43000031  147.76699829    0.47999999    2.42000008
   13.43333340  139.10600281    0.47999999    2.42000008
   13.43638897  139.42799377    0.47999999    2.42000008
   13.43972206  142.23399353    0.47999999    2.42000008
   13.44305515  134.11500549    0.50000000    2.42000008
   13.44611073  139.70300293    0.47999999    2.42000008
   13.44944477  138.05299377    0.47999999    2.42000008
   13.45249939  139.58999634    0.47999999    2.42000008
   13.45583344  135.11300659    0.47999999    2.44000006
   13.46166611  135.11300659    0.47999999    2.42000008
   13.46583271  146.08799744    0.47999999    2.42000008
   13.46916580  140.42799377    0.47999999    2.42000008
   13.47249985  147.60200500    0.47999999    2.44000006
   13.47555542  143.60899353    0.47999999    2.42000008
   13.47888851  147.59700012    0.47999999    2.44000006
   13.48194408  149.22700500    0.47999999    2.44000006
   13.48527813  140.98100281    0.47999999    2.44000006
   13.48861122  147.34800720    0.47999999    2.44000006
   13.49166679  138.24299622    0.47999999    2.42000008
   13.49416733  147.54699707    0.47999999    2.44000006
   13.49527836  148.14100647    0.47999999    2.44000006
   13.49861145  142.70300293    0.47999999    2.44000006
   13.50472260  142.70300293    0.47999999    2.44000006
   13.50888920  147.10299683    0.47999999    2.44000006
   13.51194477  146.58700562    0.46000001    2.44000006
   13.51527786  146.71400452    0.47999999    2.44000006
   13.51833344  137.50199890    0.47999999    2.44000006
   13.52166653  142.69900513    0.47999999    2.46000004
   13.52499962  151.76300049    0.47999999    2.46000004
   13.52722168  144.99899292    0.47999999    2.44000006
   13.52861118  136.61000061    0.47999999    2.44000006
   13.53194427  125.75499725    0.47999999    2.44000006
   13.53527832  139.43899536    0.47999999    2.44000006
   13.53861141  135.75799561    0.47999999    2.46000004
   13.54166698  143.10800171    0.47999999    2.46000004
   13.54750061  143.10800171    0.47999999    2.46000004
   13.55166721  133.39500427    0.46000001    2.46000004
   13.55500031  135.23399353    0.46000001    2.44000006
   13.55833340  142.94900513    0.47999999    2.46000004
   13.56055546  140.22999573    0.47999999    2.46000004
   13.56194496  143.17700195    0.47999999    2.46000004
   13.56527805  148.19700623    0.47999999    2.46000004
   13.56833363  135.79899597    0.47999999    2.46000004
   13.57166672  136.31399536    0.46000001    2.46000004
   13.57499981  129.61199951    0.46000001    2.46000004
   13.57805538  136.12699890    0.47999999    2.46000004
   13.58138847  138.17999268    0.47999999    2.46000004
   13.58472157  142.12899780    0.46000001    2.46000004
   13.59027767  142.12899780    0.47999999    2.48000002
   13.59444427  143.04200745    0.46000001    2.48000002
   13.59777737  140.31599426    0.46000001    2.46000004
   13.60083389  146.97599792    0.46000001    2.46000004
   13.60416698  147.35299683    0.47999999    2.46000004
   13.60750008  135.95899963    0.47999999    2.46000004
   13.61055565  141.97799683    0.46000001    2.46000004
   13.61388969  141.42500305    0.47999999    2.46000004
   13.61694431  141.25799561    0.47999999    2.46000004
   13.62027836  139.14300537    0.47999999    2.46000004
   13.62361145  133.45399475    0.47999999    2.46000004
   13.62666702  130.13099670    0.47999999    2.46000004
   13.62722206  133.86399841    0.47999999    2.46000004
   13.63305569  133.86399841    0.47999999    2.46000004
   13.63722229  137.31900024    0.47999999    2.46000004
   13.64055538  133.99400330    0.47999999    2.46000004
   13.64388847  130.37899780    0.47999999    2.46000004
   13.64694405  134.67999268    0.47999999    2.46000004
   13.65027714  131.28100586    0.47999999    2.48000002
   13.65333271  140.80000305    0.47999999    2.48000002
   13.65666676  138.47000122    0.47999999    2.46000004
   13.65999985  134.91200256    0.47999999    2.46000004
   13.66055489  138.00100708    0.47999999    2.46000004
   13.66333294  132.92799377    0.47999999    2.46000004
   13.66666698  140.65899658    0.47999999    2.46000004
   13.66972256  134.08999634    0.47999999    2.46000004
   13.67611122  134.08999634    0.47999999    2.48000002
   13.68027782  138.01199341    0.47999999    2.46000004
   13.68333340  134.21299744    0.47999999    2.48000002
   13.68666649  139.75399780    0.46000001    2.48000002
   13.68972206  133.50999451    0.46000001    2.48000002
   13.69305515  138.16000366    0.44000000    2.48000002
   13.69388866  138.61599731    0.44000000    2.48000002
   13.69666672  134.20799255    0.44000000    2.48000002
   13.69999981  140.00599670    0.44000000    2.48000002
   13.70305538  132.00599670    0.44000000    2.48000002
   13.70638847  132.10899353    0.44000000    2.48000002
   13.70972157  132.47300720    0.41999999    2.48000002
   13.71277714  136.43200684    0.44000000    2.48000002
   13.71888828  136.43200684    0.44000000    2.48000002
   13.72305489  128.07200623    0.44000000    2.48000002
   13.72611046  127.88999939    0.44000000    2.48000002
   13.72722149  130.85600281    0.44000000    2.48000002
   13.72972202  131.03199768    0.46000001    2.48000002
   13.73305511  129.60800171    0.46000001    2.48000002
   13.73611164  125.67500305    0.44000000    2.50000000
   13.73944473  131.95199585    0.44000000    2.48000002
   13.74277782  133.67599487    0.44000000    2.48000002
   13.74583340  135.17900085    0.44000000    2.48000002
   13.74916649  137.47999573    0.44000000    2.48000002
   13.75249958  131.85099792    0.44000000    2.48000002
   13.75555515  132.05299377    0.44000000    2.48000002
   13.76166630  132.05299377    0.52999997    2.48000002
   13.76583290  131.45399475    0.52999997    2.48000002
   13.76916599  134.88600159    0.52999997    2.48000002
   13.77222157  138.99000549    0.47999999    2.50000000
   13.77555561  136.97500610    0.51999998    2.50000000
   13.77888870  138.68299866    0.51999998    2.50000000
   13.78194427  134.88200378    0.46000001    2.50000000
   13.78527832  136.71099854    0.51999998    2.50000000
   13.78833389  134.44500732    0.51999998    2.50000000
   13.79166698  139.04400635    0.50000000    2.50000000
   13.79416752  137.57299805    0.46000001    2.50000000
   13.79527855  139.37300110    0.46000001    2.50000000
   13.79861164  140.88600159    0.44000000    2.50000000
   13.80444431  140.88600159    0.41999999    2.48000002
   13.80861092  148.01899719    0.44000000    2.48000002
   13.81194496  137.77999878    0.44000000    2.50000000
   13.81527805  138.15100098    0.44000000    2.50000000
   13.81833363  135.53100586    0.44000000    2.50000000
   13.82166672  138.73300171    0.44000000    2.50000000
   13.82472229  131.11500549    0.44000000    2.50000000
   13.82750034  135.45300293    0.41999999    2.50000000
   13.82833290  131.84199524    0.41999999    2.50000000
   13.83166695  136.22099304    0.44000000    2.50000000
   13.83472157  135.51499939    0.44000000    2.48000002
   13.83805561  130.45100403    0.44000000    2.50000000
   13.84138870  144.64999390    0.44000000    2.50000000
   13.84749985  144.64999390    0.46000001    2.50000000
   13.85166740  122.14900208    0.44000000    2.51999998
   13.85472298  128.01300049    0.46000001    2.51999998
   13.85805607  127.10800171    0.44000000    2.51999998
   13.86083412  129.81100464    0.44000000    2.51999998
   13.86166668  125.45800018    0.44000000    2.51999998
   13.86500072  130.70899963    0.44000000    2.50000000
   13.86833382  136.24699402    0.44000000    2.50000000
   13.87138939  135.03199768    0.44000000    2.51999998
   13.87472248  134.56599426    0.44000000    2.50000000
   13.87777805  136.20599365    0.41999999    2.50000000
   13.88111115  133.56300354    0.41999999    2.50000000
   13.88444424  133.28500366    0.44000000    2.51999998
   13.89027786  133.28500366    0.41999999    2.51999998
   13.89444447  147.71400452    0.41999999    2.51999998
   13.89750004  149.46200562    0.44000000    2.51999998
   13.90083313  137.24200439    0.44000000    2.51999998
   13.90416622  143.25300598    0.41999999    2.50000000
   13.90722179  130.17300415    0.44000000    2.50000000
   13.91055489  133.99600220    0.41999999    2.51999998
   13.91388893  131.16200256    0.41999999    2.50000000
   13.91694450  131.39700317    0.41999999    2.51999998
   13.92027855  133.36000061    0.41999999    2.51999998
   13.92361164  131.40899658    0.41999999    2.51999998
   13.92666721  131.87800598    0.41999999    2.51999998
   13.92750072  134.20300293    0.41999999    2.51999998
   13.93305588  134.20300293    0.40000001    2.51999998
   13.93722248  134.30799866    0.40000001    2.51999998
   13.94055557  139.67199707    0.41999999    2.51999998
   13.94361115  130.59300232    0.41999999    2.51999998
   13.94694424  135.11000061    0.41999999    2.51999998
   13.95027733  132.34399414    0.41999999    2.51999998
   13.95333290  130.51499939    0.44000000    2.51999998
   13.95666695  131.89100647    3.91000009    2.44000006
   13.95972157  140.06500244    4.90999985    2.46000004
   13.96083355  137.11099243    4.90999985    2.42000008
   13.96333313  139.73699951    4.90999985    2.40000010
   13.96666622  136.70199585    4.90999985    2.50000000
   13.96999931  133.67900085    4.90999985    2.48000002
   13.97583294  133.67900085    4.65999985    2.48000002
   13.97999954  135.75399780    4.09999990    2.51999998
   13.98333359  137.50000000    2.91000009    2.51999998
   13.98666668  133.70599365    2.42000008    2.53999996
   13.98972225  137.51400757    2.17000008    2.51999998
   13.99305534  130.83000183    1.36000001    2.51999998
   13.99416733  132.00399780    1.16999996    2.51999998
   13.99638939  134.94000244    0.81999999    2.51999998
   13.99972248  130.22599792    0.47999999    2.51999998
   14.00305557  133.12100220    0.44000000    2.51999998
   14.00611115  135.68099976    0.40000001    2.51999998
   14.00944424  127.97699738    0.40000001    2.51999998
   14.01249981  127.96499634    0.40000001    2.53999996
   14.01888847  127.96499634    0.38000000    2.51999998
   14.02305508  133.52200317    0.40000001    2.53999996
   14.02611065  130.27499390    0.40000001    2.53999996
   14.02750015  123.80699921    0.40000001    2.53999996
   14.02972221  130.47099304    0.40000001    2.53999996
   14.03305531  127.94100189    0.41999999    2.53999996
   14.03638935  128.46499634    0.40000001    2.53999996
   14.03944492  128.18200684    0.40000001    2.53999996
   14.04277802  123.90399933    0.40000001    2.51999998
   14.04583359  118.31800079    0.40000001    2.51999998
   14.04916668  128.92999268    0.40000001    2.53999996
   14.05249977  128.48599243    0.38000000    2.53999996
   14.05555534  127.81700134    0.40000001    2.53999996
   14.06166649  127.81700134    0.40000001    2.51999998
   14.06583309  123.46399689    0.38000000    2.51999998
   14.06888866  126.97200012    0.38000000    2.53999996
   14.07222176  129.51499939    0.40000001    2.53999996
   14.07555580  128.75500488    0.40000001    2.53999996
   14.07861137  123.85600281    0.40000001    2.53999996
   14.08194447  130.67999268    0.38000000    2.53999996
   14.08527756  129.64599609    0.38000000    2.53999996
   14.08861065  126.03800201    0.38000000    2.53999996
   14.09166622  131.11799622    0.38000000    2.53999996
   14.09416676  129.68099976    0.40000001    2.53999996
   14.09527779  127.63200378    0.38000000    2.53999996
   14.09861088  127.05599976    0.40000001    2.53999996
   14.10444450  127.05599976    0.38000000    2.53999996
   14.10861111  121.66400146    0.40000001    2.53999996
   14.11194515  126.26799774    0.40000001    2.53999996
   14.11500072  128.28599548    0.38000000    2.55999994
   14.11833382  126.87699890    0.40000001    2.53999996
   14.12166691  123.87500000    0.38000000    2.53999996
   14.12472248  136.12199402    0.40000001    2.53999996
   14.12750053  124.82900238    0.41999999    2.53999996
   14.12833309  140.29200745    0.40000001    2.53999996
   14.13166714  126.83499908    0.38000000    2.53999996
   14.13500023  130.44099426    0.40000001    2.53999996
   14.13805580  128.83299255    0.40000001    2.53999996
   14.14138889  129.33099365    0.40000001    2.53999996
   14.14722252  129.33099365    0.40000001    2.53999996
   14.15138817  129.96800232    0.40000001    2.55999994
   14.15472221  127.19100189    0.40000001    2.55999994
   14.15777779  127.94999695    0.38000000    2.55999994
   14.16083336  127.64399719    0.40000001    2.53999996
   14.16138840  126.30999756    0.38000000    2.55999994
   14.16472149  129.50500488    0.40000001    2.53999996
   14.16805553  123.83000183    0.40000001    2.53999996
   14.17111111  131.99600220    0.40000001    2.53999996
   14.17444515  126.65100098    0.40000001    2.53999996
   14.17750072  128.71400452    0.40000001    2.53999996
   14.18083382  130.40899658    0.40000001    2.53999996
   14.18416691  127.03199768    0.40000001    2.55999994
   14.19027805  127.03199768    0.40000001    2.55999994
   14.19444466  138.01699829    0.40000001    2.55999994
   14.19750023  127.01799774    0.40000001    2.55999994
   14.20083332  130.31399536    0.40000001    2.55999994
   14.20388889  131.89300537    0.38000000    2.53999996
   14.20722198  125.75700378    0.38000000    2.53999996
   14.21055508  129.37399292    0.40000001    2.53999996
   14.21361065  126.65000153    0.40000001    2.55999994
   14.21694374  131.23300171    0.40000001    2.55999994
   14.22027779  136.79899597    0.40000001    2.55999994
   14.22333336  127.01599884    0.40000001    2.55999994
   14.22666645  124.73100281    0.41999999    2.53999996
   14.22749996  128.01199341    0.41999999    2.53999996
   14.23305511  128.01199341    0.41999999    2.55999994
   14.23722267  131.58399963    0.40000001    2.55999994
   14.24027824  127.24099731    0.41999999    2.53999996
   14.24361134  126.60600281    0.41999999    2.55999994
   14.26111126  142.50799561    0.40000001    2.55999994
   14.26361084  134.57600403    0.41999999    2.55999994
   14.26694393  122.66300201    0.41999999    2.53999996
   14.26999950  124.79499817    0.41999999    2.53999996
   14.27611065  124.79499817    0.44000000    2.55999994
   14.27999973  123.58200073    0.44000000    2.55999994
   14.28333378  126.50199890    0.41999999    2.55999994
   14.28666687  119.58399963    0.41999999    2.57999992
   14.28972244  121.32700348    0.40000001    2.55999994
   14.29305553  134.43600464    0.40000001    2.55999994
   14.29444504  128.19200134    0.40000001    2.55999994
   14.29666710  121.16600037    0.40000001    2.55999994
   14.29972267  119.95999908    0.40000001    2.55999994
   14.30305576  123.10700226    0.41999999    2.55999994
   14.30638885  132.70799255    0.40000001    2.55999994
   14.30944443  128.64900208    0.40000001    2.55999994
   14.31277752  125.34500122    0.40000001    2.55999994
   14.31888866  125.34500122    0.40000001    2.55999994
   14.32305527  126.83100128    0.40000001    2.55999994
   14.32611084  124.63099670    0.40000001    2.55999994
   14.32777786  125.31900024    0.40000001    2.55999994
   14.32999992  118.47599792    0.41999999    2.57999992
   14.33305550  121.85600281    0.41999999    2.57999992
   14.33638859  133.55299377    0.41999999    2.55999994
   14.33972168  123.17400360    0.41999999    2.55999994
   14.34277725  117.97799683    0.41999999    2.55999994
   14.34611034  129.64700317    0.40000001    2.55999994
   14.34944439  129.30200195    0.40000001    2.55999994
   14.35249996  128.50000000    0.40000001    2.55999994
   14.35583401  133.77600098    0.40000001    2.55999994
   14.36166668  133.77600098    0.40000001    2.55999994
   14.36583328  134.40600586    0.40000001    2.55999994
   14.36916637  129.91999817    0.40000001    2.57999992
   14.37222195  134.59599304    0.40000001    2.55999994
   14.37555599  121.89900208    0.40000001    2.57999992
   14.37888908  135.25500488    0.40000001    2.57999992
   14.38194466  146.05299377    0.40000001    2.55999994
   14.38527775  126.00800323    0.38000000    2.57999992
   14.38833332  121.45600128    0.40000001    2.55999994
   14.39166641  142.45199585    0.38000000    2.57999992
   14.39444447  129.84399414    0.38000000    2.55999994
   14.39527798  131.68699646    0.38000000    2.55999994
   14.39833355  144.55499268    0.38000000    2.57999992
   14.40444374  144.55499268    0.38000000    2.55999994
   14.40861034  146.14599609    0.38000000    2.55999994
   14.41194439  126.35800171    0.38000000    2.57999992
   14.41499996  126.87699890    0.40000001    2.55999994
   14.41833401  126.32800293    0.38000000    2.55999994
   14.42166710  122.79599762    0.40000001    2.57999992
   14.42472267  131.39500427    0.40000001    2.57999992
   14.42777824  137.27400208    0.40000001    2.57999992
   14.42861176  127.22200012    0.38000000    2.57999992
   14.43194485  127.10299683    0.38000000    2.57999992
   14.43500042  126.22799683    0.40000001    2.55999994
   14.43833351  125.70200348    0.38000000    2.57999992
   14.44138908  120.84500122    0.40000001    2.57999992
   14.44750023  120.84500122    0.38000000    2.55999994
   14.45138836  126.98500061    0.40000001    2.57999992
   14.45472240  129.81599426    0.40000001    2.57999992
   14.45805550  141.21800232    0.40000001    2.57999992
   14.46111107  121.00800323    0.40000001    2.57999992
   14.46166611  122.50499725    0.40000001    2.55999994
   14.46472168  137.15199280    0.40000001    2.55999994
   14.46805477  121.30000305    0.40000001    2.57999992
   14.47111034  135.46299744    0.40000001    2.57999992
   14.47444439  126.12200165    0.40000001    2.57999992
   14.47777748  127.61699677    0.40000001    2.55999994
   14.48083305  127.62699890    0.40000001    2.57999992
   14.48416710  142.13900757    0.38000000    2.57999992
   14.49027824  142.13900757    0.38000000    2.57999992
   14.49444485  130.84500122    0.38000000    2.59999990
   14.49472237  128.52299500    0.38000000    2.59999990
   14.49805546  130.49499512    0.38000000    2.57999992
   14.50138855  127.37500000    0.38000000    2.57999992
   14.50444412  137.50000000    0.40000001    2.57999992
   14.50777817  127.50800323    0.40000001    2.57999992
   14.51111126  129.50100708    0.40000001    2.57999992
   14.51444435  119.49600220    0.40000001    2.57999992
   14.51749992  119.72599792    0.40000001    2.57999992
   14.52083302  123.14499664    0.40000001    2.57999992
   14.52416611  120.58699799    0.40000001    2.57999992
   14.52722168  121.06500244    0.40000001    2.59999990
   14.52833271  128.11300659    0.40000001    2.59999990
   14.53305531  128.11300659    0.40000001    2.57999992
   14.53722286  121.86699677    0.38000000    2.59999990
   14.54055595  123.22000122    0.38000000    2.59999990
   14.54361153  123.63600159    0.38000000    2.59999990
   14.54694462  123.99700165    0.38000000    2.57999992
   14.55027771  135.06300354    0.38000000    2.57999992
   14.55333328  116.17900085    0.38000000    2.57999992
   14.55666733  122.89399719    0.38000000    2.57999992
   14.55972195  123.01499939    0.40000001    2.57999992
   14.56166649  120.61599731    0.40000001    2.57999992
   14.56333351  126.61100006    0.38000000    2.57999992
   14.56666660  126.25900269    0.40000001    2.57999992
   14.56972218  126.54299927    0.40000001    2.57999992
   14.57583332  126.54299927    0.38000000    2.57999992
   14.57999992  128.11399841    0.38000000    2.57999992
   14.58333302  123.55400085    0.38000000    2.57999992
   14.58666611  129.93099976    0.38000000    2.59999990
   14.58972168  131.11799622    0.38000000    2.59999990
   14.59305477  123.31600189    0.38000000    2.57999992
   14.59499931  122.27300262    0.38000000    2.57999992
   14.59666634  117.66100311    0.36000001    2.57999992
   14.60000038  112.63300323    0.38000000    2.57999992
   14.60333347  121.21900177    0.38000000    2.57999992
   14.60638905  122.62400055    0.36000001    2.59999990
   14.60972214  116.94599915    0.40000001    2.59999990
   14.61277771  122.29799652    0.40000001    2.59999990
   14.61888885  122.29799652    0.38000000    2.59999990
   14.62305546  128.40100098    0.36000001    2.59999990
   14.62611103  128.41999817    0.36000001    2.59999990
   14.62833309  129.72300720    0.36000001    2.59999990
   14.62972260  127.85600281    0.36000001    2.59999990
   14.63305569  123.91400146    0.36000001    2.57999992
   14.63638878  127.72799683    0.36000001    2.57999992
   14.63944435  124.40100098    0.36000001    2.57999992
   14.64277744  133.83599854    0.36000001    2.59999990
   14.64583302  128.33299255    0.36000001    2.59999990
   14.64916611  126.51100159    0.36000001    2.59999990
   14.65249920  129.75500488    0.36000001    2.59999990
   14.65555477  128.08500671    0.34000000    2.59999990
   14.66166592  128.08500671    0.34000000    2.59999990
   14.66583252  122.85199738    0.34000000    2.57999992
   14.66888905  123.74099731    0.34000000    2.57999992
   14.67222214  124.19999695    0.34000000    2.57999992
   14.67555618  132.26800537    0.34000000    2.59999990
   14.67861176  122.53099823    0.36000001    2.59999990
   14.68194485  129.08700562    0.34000000    2.57999992
   14.68527794  131.95300293    0.34000000    2.57999992
   14.68833351  116.73400116    0.34000000    2.59999990
   14.69166660  131.57699585    0.36000001    2.59999990
   14.69499969  119.22599792    0.34000000    2.59999990
   14.69527817  120.78600311    0.34000000    2.59999990
   14.69861126  129.67100525    0.36000001    2.59999990
   14.70444393  129.67100525    0.34000000    2.59999990
   14.70861053  120.90399933    0.34000000    2.59999990
   14.71194458  123.16899872    0.34000000    2.59999990
   14.71500015  125.23400116    0.36000001    2.59999990
   14.71833324  121.80999756    0.34000000    2.59999990
   14.72138882  123.54399872    0.34000000    2.61999989
   14.72472191  125.83999634    0.34000000    2.59999990
   14.72805500  124.92600250    0.34000000    2.59999990
   14.72861099  123.42700195    0.34000000    2.59999990
   14.73166656  119.73000336    0.34000000    2.59999990
   14.73500061  122.74400330    0.34000000    2.59999990
   14.73833370  128.50700378    0.34000000    2.59999990
   14.74138927  125.43199921    0.34000000    2.59999990
   14.74722290  125.43199921    0.34000000    2.59999990
   14.75138855  124.64700317    0.34000000    2.61999989
   14.75472260  120.12899780    0.34000000    2.61999989
   14.75777817  124.33200073    0.34000000    2.61999989
   14.76111126  132.78599548    0.34000000    2.59999990
   14.76194477  127.36900330    0.34000000    2.59999990
   14.76472187  123.98600006    0.34000000    2.61999989
   14.76805496  122.00000000    0.34000000    2.61999989
   14.77138901  127.51799774    0.34000000    2.61999989
   14.77444458  123.05100250    0.31999999    2.59999990
   14.77777767  139.81199646    0.31999999    2.59999990
   14.78111076  126.39800262    0.34000000    2.61999989
   14.78416729  138.10200500    0.31999999    2.59999990
   14.79027843  138.10200500    0.34000000    2.61999989
   14.79444504  132.60000610    0.31999999    2.59999990
   14.79527855  137.96099854    0.31999999    2.59999990
   14.79777813  143.01800537    0.34000000    2.59999990
   14.80111122  137.92599487    0.34000000    2.59999990
   14.80416679  140.86900330    0.34000000    2.59999990
   14.80749989  132.92799377    0.34000000    2.59999990
   14.81083393  123.41999817    0.34000000    2.59999990
   14.81388950  124.77999878    0.34000000    2.59999990
   14.81722260  125.55100250    0.31999999    2.61999989
   14.82055569  125.46299744    0.34000000    2.61999989
   14.82361126  133.86300659    0.34000000    2.59999990
   14.82694435  133.16900635    0.34000000    2.61999989
   14.82861137  121.58300018    0.34000000    2.61999989
   14.83305550  121.58300018    0.31999999    2.61999989
   14.83722210  119.43599701    0.31999999    2.61999989
   14.84055519  123.13099670    0.34000000    2.61999989
   14.84361076  123.45099640    0.34000000    2.61999989
   14.84694386  125.37400055    0.34000000    2.61999989
   14.85027790  122.71900177    0.34000000    2.61999989
   14.85333347  126.39700317    0.31999999    2.61999989
   14.85666752  120.89399719    0.34000000    2.61999989
   14.85972214  128.65899658    0.34000000    2.59999990
   14.86194515  121.44899750    0.34000000    2.59999990
   14.86333370  126.25900269    0.34000000    2.61999989
   14.86666679  119.33200073    0.34000000    2.59999990
   14.86972237  129.71600342    0.34000000    2.61999989
   14.87583351  129.71600342    0.31999999    2.61999989
   14.88000011  123.35700226    0.34000000    2.61999989
   14.88333321  113.94999695    0.34000000    2.61999989
   14.88638878  123.50700378    0.34000000    2.61999989
   14.88972187  124.87899780    0.34000000    2.61999989
   14.89305496  121.17400360    0.31999999    2.61999989
   14.89527798  119.34999847    0.31999999    2.61999989
   14.89638901  122.26399994    0.34000000    2.61999989
   14.89972210  120.80200195    0.34000000    2.61999989
   14.90277767  124.91200256    0.34000000    2.61999989
   14.90611076  118.08799744    0.34000000    2.61999989
   14.90944386  123.36599731    0.31999999    2.59999990
   14.91249943  117.38899994    0.31999999    2.59999990
   14.91861153  117.38899994    0.31999999    2.61999989
   14.92277813  118.86199951    0.36000001    2.61999989
   14.92611122  116.68199921    0.38000000    2.61999989
   14.92861176  121.81700134    0.38000000    2.61999989
   14.92972279  122.92400360    0.40000001    2.61999989
   14.93305588  123.77400208    0.40000001    2.61999989
   14.93638897  116.84999847    0.40000001    2.61999989
   14.93944454  155.55400085    0.46000001    2.59999990
   14.94277763  120.12899780    0.47999999    2.61999989
   14.94583321  133.21800232    0.55000001    2.61999989
   14.94916630  116.39199829    0.56999999    2.61999989
   14.95249939  123.94499969    0.64999998    2.61999989
   14.95555496  119.60099792    0.63000000    2.61999989
   14.96166611  119.60099792    0.63000000    2.61999989
   14.96555519  115.69999695    0.58999997    2.61999989
   14.96888828  121.43099976    0.58999997    2.61999989
   14.97222137  119.04100037    0.61000001    2.61999989
   14.97527695  115.21499634    0.64999998    2.61999989
   14.97861099  115.82900238    0.69000000    2.61999989
   14.98194408  115.91100311    0.67000002    2.61999989
   14.98500061  115.41600037    0.69000000    2.61999989
   14.98833370  114.38200378    0.63000000    2.61999989
   14.99138927  116.43699646    0.63000000    2.61999989
   14.99472237  113.02999878    0.63000000    2.61999989
   14.99666691  117.56900024    0.63000000    2.61999989
   14.99833393  131.94299316    0.63000000    2.61999989
   15.00444412  131.94299316    0.63000000    2.61999989
   15.00861073  115.91300201    0.56999999    2.61999989
   15.01166630  122.75099945    0.56999999    2.61999989
   15.01500034  129.42100525    0.56999999    2.61999989
   15.01833344  118.69699860    0.56999999    2.61999989
   15.02166653  129.11999512    0.56999999    2.61999989
   15.02472210  129.43299866    0.56999999    2.61999989
   15.02805519  127.15799713    0.63000000    2.59999990
   15.02999973  133.40299988    0.64999998    2.61999989
   15.03166676  138.29499817    0.64999998    2.61999989
   15.03500080  131.69000244    0.56999999    2.61999989
   15.03833389  134.99499512    0.58999997    2.61999989
   15.04138947  119.50599670    0.56999999    2.61999989
   15.04722309  119.50599670    0.55000001    2.64000010
   15.05138874  138.05000305    0.61000001    2.61999989
   15.05472279  155.88699341    0.61000001    2.61999989
   15.05777836  130.80900574    0.55000001    2.61999989
   15.06111145  135.14199829    0.51999998    2.61999989
   15.06333351  122.27700043    0.51999998    2.61999989
   15.06472206  126.59700012    0.55000001    2.59999990
   15.06805515  131.71499634    0.47999999    2.61999989
   15.07111073  113.78500366    0.47999999    2.61999989
   15.07444477  129.10899353    0.41999999    2.64000010
   15.07777786  120.89399719    0.40000001    2.61999989
   15.08083344  144.36599731    0.40000001    2.61999989
   15.08416653  116.06300354    0.41999999    2.61999989
   15.09000015  116.06300354    0.46000001    2.64000010
   15.09416676  134.87899780    0.47999999    2.64000010
   15.09666634  150.01699829    0.44000000    2.61999989
   15.09777737  144.73300171    0.44000000    2.61999989
   15.10111141  140.69400024    0.41999999    2.61999989
   15.10416698  115.66799927    0.40000001    2.61999989
   15.10750008  125.59799957    0.40000001    2.64000010
   15.11083412  133.75100708    0.40000001    2.61999989
   15.11388969  122.24099731    0.41999999    2.64000010
   15.11722279  143.40100098    0.41999999    2.64000010
   15.12027836  129.43299866    0.40000001    2.61999989
   15.12361145  131.69999695    0.40000001    2.64000010
   15.12694454  130.08700562    0.41999999    2.61999989
   15.13305569  130.08700562    0.44000000    2.61999989
   15.13694477  130.47599792    0.44000000    2.61999989
   15.14027786  137.74600220    0.44000000    2.61999989
   15.14361095  112.62799835    0.40000001    2.64000010
   15.14666653  145.56700134    0.40000001    2.61999989
   15.14999962  141.20899963    0.40000001    2.61999989
   15.15333271  139.41999817    0.41999999    2.61999989
   15.15638828  117.28900146    0.44000000    2.64000010
   15.15972137  126.33999634    0.46000001    2.64000010
   15.16305542  130.13200378    0.46000001    2.64000010
   15.16388893  130.86900330    0.46000001    2.64000010
   15.16638851  138.20799255    0.46000001    2.64000010
   15.16972256  118.68699646    0.47999999    2.61999989
   15.17583370  118.68699646    0.50000000    2.64000010
   15.18000031  134.07299805    0.51999998    2.61999989
   15.18333340  110.67800140    0.51999998    2.61999989
   15.18638897  136.33599854    0.51999998    2.61999989
   15.18972206  132.48899841    0.52999997    2.61999989
   15.19305515  147.47500610    0.47999999    2.61999989
   15.19611073  127.49299622    0.50000000    2.61999989
   15.19722271  143.06799316    0.50000000    2.61999989
   15.19972229  140.21299744    0.50000000    2.64000010
   15.20305538  143.53300476    0.51999998    2.64000010
   15.20638847  141.26899719    0.51999998    2.64000010
   15.20944405  134.43299866    0.47999999    2.64000010
   15.21277714  125.93499756    0.50000000    2.64000010
   15.21861076  125.93499756    0.51999998    2.64000010
   15.22277737  147.81399536    0.51999998    2.66000009
   15.22611046  134.66299438    0.50000000    2.64000010
   15.22916603  140.71600342    0.50000000    2.64000010
   15.23083305  141.77600098    0.50000000    2.64000010
   15.23277760  133.81900024    0.50000000    2.64000010
   15.23611164  156.38400269    0.50000000    2.64000010
   15.23944473  133.07299805    0.47999999    2.64000010
   15.24250031  136.52600098    0.50000000    2.64000010
   15.24583340  133.80999756    0.47999999    2.64000010
   15.24888897  124.71700287    0.46000001    2.64000010
   15.25222206  133.46200562    0.46000001    2.64000010
   15.25555515  114.41500092    0.46000001    2.64000010
   15.26138878  114.41500092    0.41999999    2.64000010
   15.27999973  124.23400116    0.40000001    2.64000010
   15.28305531  151.69599915    0.38000000    2.64000010
   15.28638935  138.00700378    0.38000000    2.64000010
   15.28944492  131.50100708    0.36000001    2.64000010
   15.29277802  119.31500244    0.36000001    2.64000010
   15.29611111  130.06799316    0.38000000    2.61999989
   15.29916668  113.23300171    0.38000000    2.64000010
   15.30444431  113.23300171    0.38000000    2.64000010
   15.30861092  122.40899658    0.36000001    2.64000010
   15.31194496  138.41999817    0.38000000    2.64000010
   15.31277752  138.66099548    0.38000000    2.64000010
   15.31555557  129.71299744    0.36000001    2.64000010
   15.31888866  131.18600464    0.36000001    2.64000010
   15.32194424  118.94300079    0.36000001    2.64000010
   15.32527733  127.56800079    0.36000001    2.64000010
   15.32861137  132.68400574    0.38000000    2.64000010
   15.33166695  115.37000275    0.34000000    2.64000010
   15.33500004  132.30099487    0.34000000    2.64000010
   15.33833313  120.22000122    0.34000000    2.64000010
   15.34138870  117.85700226    0.34000000    2.64000010
   15.34749985  117.85700226    0.34000000    2.64000010
   15.35138893  116.76200104    0.34000000    2.64000010
   15.35472298  123.80500031    0.36000001    2.64000010
   15.35805607  116.67600250    0.38000000    2.64000010
   15.46194458   -1.00000000   -1.00000000   -1.00000000
   15.56500053   -1.00000000   -1.00000000   -1.00000000
   15.67861176   -1.00000000   -1.00000000   -1.00000000
   15.73305511  137.96099854    4.90999985    2.59999990
   15.73611164  138.84800720    4.90999985    2.55999994
   15.73944473  156.09800720    4.90999985    2.50000000
   15.74250031  130.87800598    4.90999985    2.51999998
   15.74583340  133.65600586    4.90999985    2.48000002
   15.74916649  144.98399353    4.90999985    2.50000000
   15.75333309  144.98399353    4.90999985    2.48000002
   15.75722218  149.57899475    4.90999985    2.48000002
   15.76055527  130.88900757    4.90999985    2.55999994
   15.76388931  131.87199402    4.90999985    2.53999996
   15.76638889  124.84600067    4.90999985    2.51999998
   15.76722240  136.03999329    4.90999985    2.53999996
   15.77055550  135.10200500    4.90999985    2.55999994
   15.77361107  135.49699402    4.90999985    2.53999996
   15.77694416  136.87899780    4.90999985    2.55999994
   15.78027725  147.23899841    4.82999992    2.59999990
   15.78333378  126.61599731    3.55999994    2.64000010
   15.78666687  137.60200500    1.30999994    2.64000010
   15.79000092  129.96699524    0.79000002    2.66000009
   15.79611111  129.96699524    0.41999999    2.66000009
   15.80027771  132.24400330    0.38000000    2.66000009
   15.80333328  135.99699402    0.40000001    2.66000009
   15.80666733  151.72099304    0.40000001    2.66000009
   15.81000042  140.09199524    0.38000000    2.66000009
   15.81305599  132.46899414    0.38000000    2.67000008
   15.81638908  136.62199402    0.38000000    2.66000009
   15.81944466  136.94799805    0.38000000    2.66000009
   15.82277775  143.58099365    0.36000001    2.66000009
   15.82611084  127.38200378    0.36000001    2.66000009
   15.82916641  134.43400574    0.36000001    2.66000009
   15.83249950  133.55000305    0.36000001    2.66000009
   15.83305550  119.90299988    0.36000001    2.66000009
   15.83888817  119.90299988    0.36000001    2.66000009
   15.84305477  116.72699738    0.38000000    2.66000009
   15.84638882  118.57800293    0.38000000    2.66000009
   15.84944439  132.01600647    0.38000000    2.66000009
   15.85277843  128.42599487    0.40000001    2.66000009
   15.85583401  122.53900146    0.40000001    2.66000009
   15.85916710  135.47399902    0.40000001    2.66000009
   15.86250019  125.03700256    0.40000001    2.66000009
   15.86555576  123.36000061    0.36000001    2.64000010
   15.86638927  122.47000122    0.36000001    2.64000010
   15.86916637  126.47599792    0.38000000    2.66000009
   15.87250042  133.18899536    0.38000000    2.66000009
   15.87583351  119.75299835    0.40000001    2.66000009
   15.88194466  119.75299835    0.50000000    2.66000009
   15.88611126  124.63300323    0.63000000    2.66000009
   15.88916683  126.34799957    0.70999998    2.66000009
   15.89249992  125.16100311    0.55000001    2.66000009
   15.89583302  119.29299927    0.55000001    2.66000009
   15.89888859  117.29799652    0.47999999    2.64000010
   15.89972210  120.16500092    0.47999999    2.64000010
   15.90249920  116.04399872    0.56999999    2.66000009
   15.90583324  123.91000366    0.58999997    2.67000008
   15.90916634  116.48799896    0.58999997    2.66000009
   15.91222191  124.79000092    0.55000001    2.67000008
   15.91555500  132.24400330    0.50000000    2.66000009
   15.91888905  120.66600037    0.47999999    2.67000008
   15.92472267  120.66600037    0.47999999    2.66000009
   15.92861176  114.83899689    0.56999999    2.64000010
   15.93194485  118.57399750    0.70999998    2.66000009
   15.93305588  118.95099640    0.70999998    2.64000010
   15.93555546  123.06400299    0.70999998    2.64000010
   15.93888855  123.75099945    0.88000000    2.66000009
   15.94222260  121.14299774    1.00000000    2.66000009
   15.94527817  123.54599762    1.30999994    2.64000010
   15.94861126  121.32900238    3.61999989    2.46000004
   15.95194435  128.15600586    4.90999985    2.51999998
   15.95499992  122.64600372    4.90999985    2.57999992
   15.95833302  118.04799652    4.90999985    2.64000010
   15.96138859  122.11699677    4.90999985    2.59999990
   15.96749973  122.11699677    4.90999985    2.66000009
   15.97166634  123.93800354    4.82999992    2.64000010
   15.97472191  122.05200195    3.48000002    2.61999989
   15.97805500  122.98000336    2.28999996    2.64000010
   15.98111057  116.05200195    1.33000004    2.67000008
   15.98444462  128.18099976    0.61000001    2.66000009
   15.98777771  127.17099762    0.41999999    2.64000010
   15.99083328  117.67299652    0.36000001    2.66000009
   15.99416733  125.81199646    0.34000000    2.64000010
   15.99750042  123.99700165    0.34000000    2.66000009
   15.99972248  118.48500061    0.34000000    2.66000009
   16.00083351  113.53500366    0.31999999    2.66000009
   16.00416756  123.75299835    0.34000000    2.66000009
   16.01027870  123.75299835    0.34000000    2.67000008
   16.01444435  113.01999664    0.31999999    2.67000008
   16.01777840  110.09400177    0.34000000    2.67000008
   16.02083397  110.13200378    0.34000000    2.67000008
   16.02416611  115.94300079    0.34000000    2.67000008
   16.02722168  122.47200012    0.31999999    2.66000009
   16.03055573  118.66600037    0.34000000    2.66000009
   16.03305435  121.45999908    0.34000000    2.66000009
   16.03416634  116.73699951    0.34000000    2.66000009
   16.03750038  115.84899902    0.34000000    2.66000009
   16.04083252  117.68299866    0.34000000    2.67000008
   16.04416656  114.86199951    0.34000000    2.67000008
   16.04722214  117.40799713    0.34000000    2.67000008
   16.05305481  117.40799713    0.31999999    2.67000008
   16.05722237  119.98799896    0.31999999    2.67000008
   16.06055450  109.87300110    0.34000000    2.66000009
   16.06361008  121.30100250    0.34000000    2.66000009
   16.06638718  120.13400269    0.34000000    2.66000009
   16.06750107  111.68099976    0.34000000    2.66000009
   16.07055664  113.31999969    0.36000001    2.66000009
   16.07389069  113.09899902    0.36000001    2.67000008
   16.07694626  116.15399933    0.36000001    2.66000009
   16.08027840  110.82199860    0.34000000    2.67000008
   16.08361244  113.16600037    0.34000000    2.67000008
   16.08666801  115.40100098    0.34000000    2.67000008
   16.09000015  117.02500153    0.34000000    2.66000009
   16.09611130  117.02500153    0.36000001    2.66000009
   16.10000038  112.49400330    0.40000001    2.66000009
   16.10333443  118.20999908    0.41999999    2.66000009
   16.10666656  113.84300232    0.46000001    2.66000009
   16.10972214  119.54900360    0.51999998    2.67000008
   16.11305618  118.26699829    0.47999999    2.66000009
   16.11638832  115.80599976    0.47999999    2.66000009
   16.11944389  120.73200226    0.47999999    2.66000009
   16.12277794  115.74199677    0.47999999    2.66000009
   16.12583351  117.18499756    0.47999999    2.66000009
   16.12916756  109.16799927    0.46000001    2.66000009
   16.13249969  117.81500244    0.50000000    2.66000009
   16.13305473  123.43800354    0.50000000    2.66000009
   16.13888931  123.43800354    0.51999998    2.66000009
   16.14305496  111.40599823    0.61000001    2.66000009
   16.14611053  116.54699707    0.76999998    2.66000009
   16.14944458  113.84700012    0.95999998    2.66000009
   16.15277672  121.76200104    1.14999998    2.66000009
   16.15583229  117.62400055    1.21000004    2.66000009
   16.15916634  118.37400055    1.21000004    2.66000009
   16.16222191  117.59799957    1.50000000    2.64000010
   16.16555595  113.90299988    1.91999996    2.64000010
   16.16638756  114.96600342    1.64999998    2.66000009
   16.16916656  115.67400360    1.38000000    2.66000009
   16.17222214  115.93099976    1.38000000    2.66000009
   16.17555428  123.32299805    1.36000001    2.66000009
   16.18166542  123.32299805    3.61999989    2.67000008
   16.18583298  118.41600037    4.90999985    2.61999989
   16.18916512  123.07299805    4.90999985    2.57999992
   16.19222069  122.22200012    4.90999985    2.55999994
   16.19555473  119.31999969    4.90999985    2.51999998
   16.19861031  118.50700378    4.90999985    2.55999994
   16.19972038  122.04499817    4.90999985    2.55999994
   16.20250130  130.21499634    4.90999985    2.51999998
   16.20555687  127.55999756    4.90999985    2.51999998
   16.20888901  125.77600098    4.90999985    2.51999998
   16.21194458  122.31700134    4.90999985    2.50000000
   16.21527863  129.82299805    4.90999985    2.51999998
   16.21861076  127.03099823    4.90999985    2.50000000
   16.22444534  127.03099823    4.90999985    2.42000008
   16.22861099  129.23800659    4.90999985    2.40000010
   16.23194504  137.07099915    4.90999985    2.39000010
   16.23305511  119.25499725    4.90999985    2.36999989
   16.23555565  123.94400024    4.90999985    2.44000006
   16.23861122  125.63999939    4.90999985    2.46000004
   16.24194527  134.05599976    4.90999985    2.44000006
   16.24500084  119.11499786    4.90999985    2.42000008
   16.24833298  125.06700134    4.90999985    2.48000002
   16.25166702  120.91500092    4.90999985    2.48000002
   16.25472260  118.37200165    4.90999985    2.48000002
   16.25805473  125.69599915    4.90999985    2.50000000
   16.26138878  129.29800415    4.90999985    2.50000000
   16.26749992  129.29800415    4.90999985    2.48000002
   16.27138901  143.94200134    4.90999985    2.48000002
   16.27472115  134.38900757    4.90999985    2.48000002
   16.27805519  135.55499268    4.90999985    2.51999998
   16.28111076  130.99899292    4.90999985    2.51999998
   16.28444481  120.15799713    4.90999985    2.53999996
   16.28777695  112.92299652    4.90999985    2.55999994
   16.29083252  130.57400513    4.90999985    2.51999998
   16.29416656  117.80599976    4.90999985    2.51999998
   16.29722214  126.33200073    4.90999985    2.48000002
   16.29972076  131.34199524    4.90999985    2.51999998
   16.30111122  126.67199707    4.90999985    2.53999996
   16.30416679  124.83000183    4.90999985    2.51999998
   16.31027794  124.83000183    4.90999985    2.39000010
   16.31444359  138.19299316    4.90999985    2.32999992
   16.31750107  189.27799988    4.90999985    2.39000010
   16.32083511  265.92800903    4.90999985    2.15000010
   16.32416725  121.93000031    4.90999985    2.36999989
   16.32722282  143.05999756    4.90999985    2.51999998
   16.33055687  124.82700348    4.90999985    2.42000008
   16.33305550  141.33500671    4.90999985    2.48000002
   16.33416748  131.45100403    4.90999985    2.40000010
   16.33722305  142.72399902    4.90999985    2.42000008
   16.34055710  151.18299866    4.90999985    2.44000006
   16.34361267  128.63600159    4.90999985    2.32999992
   16.34694481  142.69400024    4.90999985    2.48000002
   16.35305595  142.69400024    4.90999985    2.53999996
   16.35722351  168.42399597    4.90999985    2.39000010
   16.36055565  167.93600464    4.90999985    2.34999990
   16.36361122  157.01499939    4.90999985    2.40000010
   16.36638832  180.41799927    4.90999985    2.51999998
   16.36750031  157.71000671    4.90999985    2.39000010
   16.37055588  135.19599915    4.90999985    2.42000008
   16.37388992  139.90899658    4.90999985    2.44000006
   16.37694550  165.63699341    4.90999985    2.46000004
   16.38027763  188.03100586    4.90999985    2.42000008
   16.38361168  213.06100464    4.90999985    2.19000006
   16.38666725  127.22599792    4.90999985    2.21000004
   16.38999939  168.12800598    4.90999985    2.32999992
   16.39583397  168.12800598    4.90999985    2.44000006
   16.39999962  122.07199860    4.90999985    2.46000004
   16.40333366  170.63600159    4.90999985    2.51999998
   16.40638924  166.44000244    4.90999985    2.55999994
   16.40972137  152.75599670    4.90999985    2.53999996
   16.41305542  160.17900085    4.90999985    2.55999994
   16.41611099  127.43000031    4.90999985    2.57999992
   16.41944313  144.64700317    4.90999985    2.57999992
   16.42277718  150.45100403    4.90999985    2.57999992
   16.42583275  139.22399902    4.90999985    2.59999990
   16.42916679  140.63800049    4.90999985    2.59999990
   16.43222237  135.93699646    4.90999985    2.57999992
   16.43305397  148.36300659    4.90999985    2.57999992
   16.43888855  148.36300659    4.90999985    2.55999994
   16.44277763  141.18499756    4.90999985    2.55999994
   16.44610977  135.49299622    4.90999985    2.53999996
   16.44944382  124.06099701    4.90999985    2.53999996
   16.45250130  145.90400696    4.90999985    2.55999994
   16.45583344  152.88299561    4.90999985    2.55999994
   16.45916748  143.49600220    4.90999985    2.57999992
   16.46222305  140.28100586    4.90999985    2.59999990
   16.46555710  152.69099426    4.90999985    2.61999989
   16.46638870  152.34399414    4.90999985    2.61999989
   16.46916771  139.73199463    4.90999985    2.61999989
   16.47222328  153.99099731    4.78000021    2.64000010
   16.47555542  128.47599792    4.32999992    2.64000010
   16.48166656  128.47599792    3.21000004    2.66000009
   16.48583412  140.55200195    2.55999994    2.66000009
   16.48888969  118.34799957    2.03999996    2.66000009
   16.49222183  127.19599915    1.80999994    2.66000009
   16.49555588  135.60800171    1.55999994    2.66000009
   16.49861145  134.26499939    1.50000000    2.66000009
   16.49972153  127.48899841    1.51999998    2.66000009
   16.50222206  131.87699890    1.55999994    2.64000010
   16.50527763  136.60499573    1.60000002    2.64000010
   16.50861168  130.37300110    1.73000002    2.64000010
   16.51194382  131.54800415    1.89999998    2.61999989
   16.51499939  135.55499268    1.91999996    2.61999989
   16.51833344  140.23699951    2.03999996    2.61999989
   16.52444458  140.23699951    2.96000004    2.61999989
   16.52861023  146.48300171    4.17999983    2.59999990
   16.53194427  151.61999512    4.55999994    2.57999992
   16.53305435  144.84700012    4.55999994    2.59999990
   16.53555489  136.37800598    4.40999985    2.59999990
   16.53861046  147.34700012    4.36999989    2.61999989
   16.54194450  147.77200317    4.44999981    2.59999990
   16.54527664  145.69400024    4.46999979    2.61999989
   16.54833221  142.32200623    4.46999979    2.61999989
   16.55166626  133.33399963    4.51000023    2.59999990
   16.55499840  136.76899719    4.09999990    2.59999990
   16.55805397  144.52499390    3.80999994    2.61999989
   16.56138802  130.81199646    3.75000000    2.61999989
   16.56722260  130.81199646    3.75000000    2.64000010
   16.57139015  147.45100403    3.73000002    2.64000010
   16.57472229  142.19000244    3.75000000    2.64000010
   16.57777786  146.98399353    3.93000007    2.57999992
   16.58111191  154.44400024    4.17999983    2.61999989
   16.58444595  149.02200317    4.23999977    2.61999989
   16.58750153  135.77299500    4.32999992    2.61999989
   16.59083366  141.45399475    4.55999994    2.61999989
   16.59416771  158.09199524    4.76000023    2.61999989
   16.59722328  154.06700134    4.90999985    2.61999989
   16.59972191  161.38600159    4.90999985    2.59999990
   16.60083389  167.51800537    4.90999985    2.59999990
   16.60388947  177.67300415    4.90999985    2.57999992
   16.61027908  177.67300415    4.90999985    2.55999994
   16.61416626  166.35499573    4.90999985    2.57999992
   16.61750031  176.67599487    4.90999985    2.57999992
   16.62083435  161.60099792    4.90999985    2.55999994
   16.62388992  172.88499451    4.90999985    2.57999992
   16.62722206  152.89900208    4.90999985    2.57999992
   16.63055611  159.56900024    4.90999985    2.57999992
   16.63305473  178.91900635    4.90999985    2.57999992
   16.63416672  165.85400391    4.90999985    2.55999994
   16.63722229  167.94799805    4.90999985    2.55999994
   16.64055634  183.22599792    4.90999985    2.55999994
   16.64388847  166.31199646    4.90999985    2.55999994
   16.64694405  155.84700012    4.90999985    2.55999994
   16.65305519  155.84700012    4.90999985    2.57999992
   16.65722275  175.26300049    4.90999985    2.57999992
   16.66027832  158.89999390    4.90999985    2.59999990
   16.66361046  163.91700745    4.90999985    2.59999990
   16.66638756  158.54499817    4.90999985    2.59999990
   16.66722107  154.47599792    4.90999985    2.59999990
   16.67027664  142.27499390    4.90999985    2.61999989
   16.67361069  155.17500305    4.90999985    2.57999992
   16.67694473  151.10800171    4.90999985    2.55999994
   16.68000031  167.52200317    4.90999985    2.51999998
   16.68333244  203.08599854    4.90999985    2.44000006
   16.68666649  184.03599548    4.90999985    2.44000006
   16.68972206  171.36399841    4.90999985    2.42000008
   16.69583321  171.36399841    4.90999985    2.23000002
   16.70000076  204.32099915    4.90999985    2.19000006
   16.70333481  232.91799927    4.90999985    2.23000002
   16.70639038  161.68099976    4.90999985    2.21000004
   16.70972252  208.60200500    4.90999985    2.36999989
   16.71277809  198.19900513    4.90999985    2.26999998
   16.71611214  218.78900146    4.90999985    2.21000004
   16.71944427  177.81700134    4.90999985    2.32999992
   16.72249985  183.95899963    4.90999985    2.39000010
   16.72583389  166.68099976    4.90999985    2.40000010
   16.72916794  166.18600464    4.90999985    2.50000000
   16.73222351  170.67900085    4.90999985    2.50000000
   16.73305511  181.24800110    4.90999985    2.51999998
   16.75361061  181.24800110    4.90999985    2.50000000
   16.75777817  158.80599976    4.90999985    2.39000010
   16.76111031  178.24000549    4.90999985    2.30999994
   16.76444435  170.13999939    4.90999985    2.39000010
   16.76638794  181.00999451    4.90999985    2.30999994
   16.76805496  203.53599548    4.90999985    2.26999998
   16.77111053  205.09100342    4.90999985    2.28999996
   16.77444458  193.08099365    4.90999985    2.23000002
   16.77777672  159.88200378    4.90999985    2.40000010
   16.78083229  188.17999268    4.90999985    2.39000010
   16.78416634  208.08099365    4.90999985    2.17000008
   16.78750038  214.74499512    4.90999985    2.23000002
   16.79055595  196.76100159    4.90999985    2.25000000
   16.79638863  196.76100159    4.90999985    2.32999992
   16.80055428  155.96299744    4.90999985    2.40000010
   16.80388832  172.10400391    4.90999985    2.39000010
   16.80722237  152.72999573    4.90999985    2.39000010
   16.81027794  156.57099915    4.90999985    2.32999992
   16.81361008  150.99699402    4.90999985    2.36999989
   16.81666756  158.18899536    4.90999985    2.36999989
   16.82000160  178.21899414    4.90999985    2.26999998
   16.82333374  180.96400452    4.90999985    2.13000011
   16.82638931  203.72599792    4.90999985    2.23000002
   16.82972336  259.12100220    4.90999985    2.21000004
   16.83305550  221.69700623    4.90999985    2.03999996
   16.83333397  209.00799561    4.90999985    2.03999996
   16.83944511  209.00799561    4.90999985    2.13000011
   16.84333420  288.77700806    4.90999985    2.09999990
   16.84666824  403.07199097    4.90999985    1.94000006
   16.84861183  259.88400269    4.90999985    1.89999998
   16.85000038  302.06900024    4.90999985    1.98000002
   16.85138893  239.35400391    4.90999985    1.98000002
   16.85277748  305.37799072    4.90999985    1.98000002
   16.85416794  326.82998657    4.90999985    1.98000002
   16.85555649  328.04800415    4.90999985    1.94000006
   16.85694504  314.30300903    4.90999985    1.98000002
   16.85833359  292.22500610    4.90999985    1.98000002
   16.85972214  318.39199829    4.90999985    2.01999998
   16.86111069  283.33300781    4.90999985    2.09999990
   16.86250114  326.72000122    4.90999985    2.07999992
   16.86388969  292.98999023    4.90999985    2.03999996
   16.86527824  242.97500610    4.90999985    1.94000006
   16.86666679  224.52299500    4.90999985    2.03999996
   16.86666679  221.69700623    4.90999985    2.03999996
   16.86666679  288.77700806    4.90999985    2.09999990
   16.86666679  403.07199097    4.90999985    1.94000006
   16.86694527  150.99699402    4.90999985    2.36999989
   16.86694527  158.18899536    4.90999985    2.36999989
   16.86694527  178.21899414    4.90999985    2.26999998
   16.86694527  180.96400452    4.90999985    2.13000011
   16.86722183  203.72599792    4.90999985    2.23000002
   16.86722183  259.12100220    4.90999985    2.21000004
   16.86777878  250.24099731    4.90999985    2.07999992
   16.87111092  311.14099121    4.90999985    2.11999989
   16.87305641  296.82101440    4.90999985    2.00000000
   16.87416649  281.26699829    4.90999985    2.01999998
   16.87555504  314.35800171    4.90999985    2.09999990
   16.87694550  372.36199951    4.90999985    2.05999994
   16.87833405  316.39401245    4.90999985    2.01999998
   16.87972260  400.86599731    4.90999985    2.03999996
   16.88111115  338.64401245    4.90999985    2.05999994
   16.88249969  312.44799805    4.90999985    1.98000002
   16.88388824  326.40200806    4.90999985    1.94000006
   16.88527679  321.12899780    4.90999985    1.86000001
   16.88666725  263.33300781    4.90999985    1.91999996
   16.88805580  247.51800537    4.90999985    2.13000011
   16.88944435  212.05700684    4.90999985    2.11999989
   16.88972282  250.24099731    4.90999985    2.07999992
   16.88972282  311.14099121    4.90999985    2.11999989
   16.89027786  255.23399353    4.90999985    2.13000011
   16.89333344  251.72599792    4.90999985    2.07999992
   16.89666748  215.55299377    4.90999985    2.19000006
   16.89999962  227.85699463    4.90999985    2.19000006
   16.90305519  338.94900513    4.90999985    2.17000008
   16.90499878  371.75100708    4.90999985    1.98000002
   16.90638924  218.85400391    4.90999985    2.01999998
   16.90638924  255.23399353    4.90999985    2.13000011
   16.90666580  251.72599792    4.90999985    2.07999992
   16.90666580  215.55299377    4.90999985    2.19000006
   16.90666580  227.85699463    4.90999985    2.19000006
   16.90666580  338.94900513    4.90999985    2.17000008
   16.91083336  338.94900513    4.90999985    2.11999989
   16.91499901  186.19799805    4.90999985    2.15000010
   16.91833305  197.59300232    4.90999985    2.25000000
   16.92138863  170.70500183    4.90999985    2.36999989
   16.92472076  178.55099487    4.90999985    2.30999994
   16.92805481  190.39799500    4.90999985    2.34999990
   16.93111038  241.00399780    4.90999985    2.25000000
   16.93444443  201.93400574    4.90999985    2.30999994
   16.93777657  218.37199402    4.90999985    2.34999990
   16.94027710  214.72200012    4.90999985    2.25000000
   16.94138718  204.19500732    4.90999985    2.32999992
   16.94444275  219.90699768    4.90999985    2.28999996
   16.94777679  230.56599426    4.90999985    2.30999994
   16.95361137  230.56599426    4.90999985    2.25000000
   16.95777893  215.42700195    4.90999985    2.25000000
   16.96111107  323.55398560    4.90999985    2.00000000
   16.96305656  287.55801392    4.90999985    2.13000011
   16.96416664  275.33700562    4.90999985    2.11999989
   16.96555710  251.45100403    4.90999985    2.17000008
   16.96694565  307.69198608    4.90999985    2.17000008
   16.96833420  324.24099731    4.90999985    2.13000011
   16.97000122  392.02099609    4.90999985    2.11999989
   16.97111130  290.59298706    4.90999985    2.07999992
   16.97249985  436.96200562    4.90999985    2.01999998
   16.97389030  284.87100220    4.90999985    1.88000000
   16.97527885  493.75201416    4.90999985    1.85000002
   16.97666740  483.12701416    4.90999985    1.89999998
   16.97805595  342.83700562    4.90999985    2.00000000
   16.97944450  469.24398804    4.90999985    2.07999992
   16.98083305  249.82899475    4.90999985    2.11999989
   16.98222351  398.92098999    4.90999985    1.78999996
   16.98361206  467.12799072    4.90999985    1.80999994
   16.98500061  472.27801514    4.90999985    2.07999992
   16.98638916  322.29098511    4.90999985    2.11999989
   16.98777771  427.17401123    4.90999985    2.13000011
   16.98916626  332.13400269    4.90999985    2.09999990
   16.99055672  345.71200562    4.90999985    2.03999996
   16.99194527  386.48999023    4.90999985    2.11999989
   16.99333382  396.70700073    4.90999985    1.98000002
   16.99472237  288.81399536    4.90999985    2.03999996
   16.99611092  293.05700684    4.90999985    2.07999992
   16.99749947  284.29598999    4.90999985    2.13000011
   16.99888992  347.08999634    4.90999985    2.19000006
   17.00055504  170.81799316    4.90999985    2.09999990
   17.00055504  219.90699768    4.90999985    2.28999996
   17.00055504  230.56599426    4.90999985    2.30999994
   17.00055504  215.42700195    4.90999985    2.25000000
   17.00055504  323.55398560    4.90999985    2.00000000
   17.00083351  190.39799500    4.90999985    2.34999990
   17.00083351  241.00399780    4.90999985    2.25000000
   17.00083351  201.93400574    4.90999985    2.30999994
   17.00083351  218.37199402    4.90999985    2.34999990
   17.00111198  204.19500732    4.90999985    2.32999992
   17.00166702  258.07598877    4.90999985    1.89999998
   17.00472260  453.85501099    4.90999985    1.86000001
   17.00666618  360.97900391    4.90999985    2.00000000
   17.00805473  304.99899292    4.90999985    2.01999998
   17.00944519  483.88800049    4.90999985    2.09999990
   17.01083374  378.90798950    4.90999985    2.05999994
   17.01222229  470.98498535    4.90999985    1.91999996
   17.01361084  326.30999756    4.90999985    1.94000006
   17.01499939  372.50299072    4.90999985    2.09999990
   17.01638794  342.44400024    4.90999985    2.09999990
   17.01777840  287.20498657    4.90999985    2.05999994
   17.01916695  282.02499390    4.90999985    2.21000004
   17.02055550  262.97198486    4.90999985    2.19000006
   17.02194405  216.70599365    4.90999985    2.23000002
   17.02194405  258.07598877    4.90999985    1.89999998
   17.02222252  453.85501099    4.90999985    1.86000001
   17.02277756  248.77799988    4.90999985    2.23000002
   17.02583313  224.17300415    4.90999985    2.30999994
   17.02916718  377.65200806    4.90999985    2.26999998
   17.03111076  340.29501343    4.90999985    2.05999994
   17.03249931  353.96798706    4.90999985    2.01999998
   17.03388786  300.58200073    4.90999985    2.01999998
   17.03527641  273.74301147    4.90999985    2.09999990
   17.03666687  233.00500488    4.90999985    2.23000002
   17.03805542  277.62500000    4.90999985    2.25000000
   17.03944397  225.65100098    4.90999985    2.23000002
   17.04083252  245.70199585    4.90999985    2.26999998
   17.04222107  285.50000000    4.90999985    2.23000002
   17.04361153  283.99899292    4.90999985    2.15000010
   17.04500008  271.10998535    4.90999985    2.19000006
   17.04638863  196.33099365    4.90999985    2.23000002
   17.04638863  248.77799988    4.90999985    2.23000002
   17.04638863  224.17300415    4.90999985    2.30999994
   17.04638863  377.65200806    4.90999985    2.26999998
   17.04694366  213.50999451    4.90999985    2.21000004
   17.05027771  375.35699463    4.90999985    2.23000002
   17.05222130  265.70001221    4.90999985    2.07999992
   17.05360985  277.77499390    4.90999985    2.09999990
   17.05499840  321.44400024    4.90999985    2.11999989
   17.05638885  290.39801025    4.90999985    2.11999989
   17.05777740  269.78399658    4.90999985    2.17000008
   17.05916595  282.71798706    4.90999985    2.21000004
   17.06055450  293.73400879    4.90999985    2.17000008
   17.06194305  264.41198730    4.90999985    2.17000008
   17.06333351  226.24899292    4.90999985    2.19000006
   17.06472206  211.63000488    4.90999985    2.26999998
   17.06472206  213.50999451    4.90999985    2.21000004
   17.06472206  375.35699463    4.90999985    2.23000002
   17.06527710  206.90899658    4.90999985    2.32999992
   17.06861115  231.17300415    4.90999985    2.32999992
   17.07166672  243.52200317    4.90999985    2.25000000
   17.07500076  215.78300476    4.90999985    2.28999996
   17.07833481  245.69400024    4.90999985    2.26999998
   17.08139038  233.73199463    4.90999985    2.19000006
   17.08555603  233.73199463    4.90999985    2.17000008
   17.08972359  506.26998901    4.90999985    2.03999996
   17.09166718  401.11199951    4.90999985    2.00000000
   17.09305573  299.51098633    4.90999985    1.96000004
   17.09444427  223.51800537    4.90999985    1.89999998
   17.09444427  206.90899658    4.90999985    2.32999992
   17.09444427  231.17300415    4.90999985    2.32999992
   17.09444427  243.52200317    4.90999985    2.25000000
   17.09472275  215.78300476    4.90999985    2.28999996
   17.09472275  245.69400024    4.90999985    2.26999998
   17.09472275  233.73199463    4.90999985    2.19000006
   17.09472275  506.26998901    4.90999985    2.03999996
   17.09527779  480.07299805    4.90999985    1.85000002
   17.09749985  419.24301147    4.90999985    1.86000001
   17.09861183  454.80700684    4.90999985    1.96000004
   17.10000038  135.76100159    4.90999985    2.01999998
   17.10000038  480.07299805    4.90999985    1.85000002
   17.10055542   -1.00000000    4.90999985    2.01999998
   17.10388947   -1.00000000    4.90999985    1.46000004
   17.10722351  201.42799377    4.90999985    1.58000004
   17.11027908  295.01699829    4.90999985    1.91999996
   17.11361122   -1.00000000    4.90999985    1.83000004
   17.11694527   -1.00000000    4.90999985    1.48000002
   17.12083435   -1.00000000    4.90999985    1.50000000
   17.12500000   -1.00000000    4.90999985    1.76999998
   17.12833405   -1.00000000    4.90999985    1.41999996
   17.13166618   72.96829987    4.90999985    1.60000002
   17.13388824   -1.00000000   -1.00000000   -1.00000000
   17.13527679   50.59949875    4.90999985    1.66999996
   17.13833237   80.21160126    4.90999985    1.64999998
   17.14166641  101.55899811    4.90999985    1.78999996
   17.14500046   72.78669739    4.90999985    1.63000000
   17.14805603  145.09500122    4.90999985    1.55999994
   17.15138817  118.92299652    4.90999985    1.78999996
   17.15444374  175.33900452    4.90999985    1.85000002
   17.15777779  226.16499329    4.90999985    1.86000001
   17.16388893  226.16499329    4.90999985    1.76999998
   17.16805458   -1.00000000    4.90999985    1.83000004
   17.17111015   -1.00000000    4.90999985    1.50000000
   17.17444420  106.84999847    4.90999985    1.46000004
   17.17749977   -1.00000000    4.90999985    1.76999998
   17.18083191   -1.00000000    4.90999985    1.53999996
   17.18416595  254.91400146    4.90999985    1.69000006
   17.18722153   -1.00000000    4.90999985    1.88000000
   17.19055557  241.19799805    4.90999985    1.51999998
   17.19388771  348.24099731    4.90999985    1.89999998
   17.19583321  366.25500488    4.90999985    1.94000006
   17.19694328   67.97789764    4.90999985    1.98000002
   17.19722176   -1.00000000    4.90999985    1.50000000
   17.19722176  106.84999847    4.90999985    1.46000004
   17.19722176   -1.00000000    4.90999985    1.76999998
   17.19722176   -1.00000000    4.90999985    1.53999996
   17.19722176  254.91400146    4.90999985    1.69000006
   17.19749832   -1.00000000    4.90999985    1.88000000
   17.19749832  241.19799805    4.90999985    1.51999998
   17.19749832  348.24099731    4.90999985    1.89999998
   17.19749832   -1.00000000    4.90999985    1.83000004
   17.19861031  238.15299988    4.90999985    1.91999996
   17.20194435   -1.00000000    4.90999985    1.86000001
   17.20527840   -1.00000000    4.90999985    1.48000002
   17.20833397   -1.00000000    4.90999985    1.46000004
   17.21166801   -1.00000000    4.90999985    1.46000004
   17.21777916   -1.00000000    4.90999985    1.28999996
   17.22194481   -1.00000000   -1.00000000   -1.00000000
   17.22527885   -1.00000000    4.90999985    1.55999994
   17.22833443   82.24919891    4.90999985    1.53999996
   17.23194504   73.89980316    4.90999985    1.76999998
   17.23500061   -1.00000000    4.90999985    1.69000006
   17.23833275   -1.00000000    4.90999985    1.48000002
   17.24166679  103.43000031    4.90999985    1.71000004
   17.24472237   -1.00000000    4.90999985    1.83000004
   17.24805641   -1.00000000    4.90999985    1.58000004
   17.25111198   -1.00000000    4.90999985    1.48000002
   17.25444412  330.56100464    4.90999985    1.61000001
   17.25638962  140.11500549    4.90999985    2.03999996
   17.25638962   -1.00000000    4.90999985    1.69000006
   17.25666618   -1.00000000    4.90999985    1.48000002
   17.25666618  103.43000031    4.90999985    1.71000004
   17.25666618   -1.00000000    4.90999985    1.83000004
   17.25666618   -1.00000000    4.90999985    1.58000004
   17.25666618   -1.00000000    4.90999985    1.48000002
   17.25694466  330.56100464    4.90999985    1.61000001
   17.25694466   82.24919891    4.90999985    1.53999996
   17.25694466   73.89980316    4.90999985    1.76999998
   17.25888824   -1.00000000    4.90999985    1.80999994
   17.26222229   -1.00000000    4.90999985    1.58000004
   17.26555634   44.17580032    4.90999985    1.61000001
   17.26861000   67.00319672    4.90999985    1.78999996
   17.27194405   23.57019997    4.90999985    1.58000004
   17.27722168   23.57019997    4.90999985    1.94000006
   17.28138924   -1.00000000    4.90999985    1.36000001
   17.28444481   -1.00000000    4.90999985    1.38000000
   17.28777695  193.84500122    4.90999985    1.46000004
   17.29111099   -1.00000000    4.90999985    1.63000000
   17.29444313   -1.00000000    4.90999985    1.41999996
   17.29777718   43.18939972    4.90999985    1.66999996
   17.30083275   -1.00000000    4.90999985    1.66999996
   17.30416679   -1.00000000    4.90999985    1.60000002
   17.30749893   51.68980026    4.90999985    1.60000002
   17.31055450  136.04400635    4.90999985    1.76999998
   17.31388855   -1.00000000    4.90999985    1.69000006
   17.32000160   -1.00000000    4.90999985    1.69000006
   17.32416725  138.93299866    4.90999985    1.53999996
   17.32750130   77.03510284    4.90999985    1.88000000
   17.33055687  194.67799377    4.90999985    1.73000002
   17.33388901  235.47700500    4.90999985    1.88000000
   17.33722305  280.48400879    4.90999985    1.91999996
   17.34027863  195.11999512    4.90999985    1.88000000
   17.34361267  257.63101196    4.90999985    1.83000004
   17.34694481  299.05999756    4.90999985    2.03999996
   17.35000038  140.54200745    4.90999985    1.98000002
   17.35333443  230.89100647    4.90999985    1.80999994
   17.35666656  170.61900330    4.90999985    1.86000001
   17.35694504  203.80799866    4.90999985    1.86000001
   17.36277771  203.80799866    4.90999985    1.88000000
   17.36694527  256.61300659    4.90999985    2.00000000
   17.37027740  290.95001221    4.90999985    1.88000000
   17.37361145  231.62600708    4.90999985    2.00000000
   17.37666702  326.04998779    4.90999985    1.88000000
   17.37861061  298.29998779    4.90999985    1.98000002
   17.38000107  236.73500061    4.90999985    2.01999998
   17.38138962  289.57199097    4.90999985    1.85000002
   17.38277817  326.50698853    4.90999985    1.91999996
   17.38416672  269.36599731    4.90999985    1.91999996
   17.38555527  218.91700745    4.90999985    2.11999989
   17.38555527  256.61300659    4.90999985    2.00000000
   17.38555527  290.95001221    4.90999985    1.88000000
   17.38583374  231.62600708    4.90999985    2.00000000
   17.38583374  326.04998779    4.90999985    1.88000000
   17.38583374  257.63101196    4.90999985    1.83000004
   17.38583374  299.05999756    4.90999985    2.03999996
   17.38583374  140.54200745    4.90999985    1.98000002
   17.38583374  230.89100647    4.90999985    1.80999994
   17.38611031  170.61900330    4.90999985    1.86000001
   17.38666725  249.92500305    4.90999985    2.15000010
   17.38972282  166.45500183    4.90999985    1.91999996
   17.39305496  242.54699707    4.90999985    1.86000001
   17.39638901  260.25100708    4.90999985    1.94000006
   17.39944458  328.06900024    4.90999985    2.05999994
   17.40138817  287.79598999    4.90999985    2.07999992
   17.40277672  359.74099731    4.90999985    2.03999996
   17.40416718  200.02999878    4.90999985    2.01999998
   17.40416718  249.92500305    4.90999985    2.15000010
   17.40416718  166.45500183    4.90999985    1.91999996
   17.40444374  242.54699707    4.90999985    1.86000001
   17.40444374  260.25100708    4.90999985    1.94000006
   17.40444374  328.06900024    4.90999985    2.05999994
   17.40499878  209.47599792    4.90999985    1.96000004
   17.40833282  138.00700378    4.90999985    1.85000002
   17.41138840  284.06100464    4.90999985    1.76999998
   17.41472244  240.73500061    4.90999985    1.94000006
   17.41805458  244.87600708    4.90999985    1.96000004
   17.42111015  183.59700012    4.90999985    1.89999998
   17.42527771  183.59700012    4.90999985    1.71000004
   17.42944336   -1.00000000    4.90999985    1.76999998
   17.43277740  136.51300049    4.90999985    1.73000002
   17.43583298   -1.00000000    4.90999985    1.71000004
   17.43944359   -1.00000000    4.90999985    1.51999998
   17.44277763   -1.00000000    4.90999985    1.38000000
   17.44583321   -1.00000000    4.90999985    1.48000002
   17.44916534   -1.00000000    4.90999985    1.46000004
   17.45250130   -1.00000000    4.90999985    1.33000004
   17.45555687   -1.00000000    4.90999985    1.55999994
   17.45888901   -1.00000000    4.90999985    1.25000000
   17.46194458   -1.00000000    4.90999985    1.36000001
   17.46805573   -1.00000000    4.90999985    1.63000000
   17.47222328   -1.00000000    4.90999985    1.51999998
   17.47555542   -1.00000000    4.90999985    1.63000000
   17.47861099   -1.00000000    4.90999985    1.55999994
   17.48194504   32.39699936    4.90999985    1.51999998
   17.48527718   -1.00000000    4.90999985    1.63000000
   17.48833275   -1.00000000    4.90999985    1.61000001
   17.49166679  174.26199341    4.90999985    1.55999994
   17.49500084   99.48680115    4.90999985    1.80999994
   17.49805641   -1.00000000    4.90999985    1.85000002
   17.50138855   -1.00000000    4.90999985    1.50000000
   17.50444412  214.08500671    4.90999985    1.50000000
   17.50499916   69.92070007    4.90999985    1.71000004
   17.51111031   69.92070007    4.90999985    1.76999998
   17.51499939   -1.00000000    4.90999985    1.44000006
   17.51833344  121.26599884    4.90999985    1.78999996
   17.52166557  375.90399170    4.90999985    1.86000001
   17.52361107  290.63000488    4.90999985    1.96000004
   17.52472115  296.98599243    4.90999985    1.94000006
   17.52611160  373.41598511    4.90999985    1.89999998
   17.52750015  439.94799805    4.90999985    1.94000006
   17.52888870  340.04501343    4.90999985    2.03999996
   17.53027725  282.10501099    4.90999985    2.07999992
   17.53166580  258.32101440    4.90999985    2.00000000
   17.53305435  328.39898682    4.90999985    1.94000006
   17.53444481  368.24798584    4.90999985    1.91999996
   17.53583336  406.28201294    4.90999985    2.03999996
   17.53722191  292.82199097    4.90999985    1.96000004
   17.53861046  309.99600220    4.90999985    2.00000000
   17.53999901   -1.00000000   -1.00000000   -1.00000000
   17.54027748  214.08500671    4.90999985    1.50000000
   17.54027748   -1.00000000    4.90999985    1.44000006
   17.54027748  121.26599884    4.90999985    1.78999996
   17.54027748  375.90399170    4.90999985    1.86000001
   17.54055595   -1.00000000    4.90999985    1.61000001
   17.54055595  174.26199341    4.90999985    1.55999994
   17.54055595   99.48680115    4.90999985    1.80999994
   17.54055595   -1.00000000    4.90999985    1.85000002
   17.54083252   -1.00000000    4.90999985    1.50000000
   17.54138756   -1.00000000    4.90999985    1.91999996
   17.54444313   -1.00000000    4.90999985    1.44000006
   17.54777718   -1.00000000    4.90999985    1.39999998
   17.55083275   -1.00000000    4.90999985    1.23000002
   17.55416679   -1.00000000    4.90999985    1.21000004
   17.56083298   -1.00000000    4.90999985    1.85000002
   17.56499863  327.13699341    4.90999985    1.85000002
   17.56694603  288.90200806    4.90999985    1.98000002
   17.56833458  370.11700439    4.90999985    1.98000002
   17.56972313  359.85501099    4.90999985    1.94000006
   17.57111168  218.20199585    4.90999985    1.98000002
   17.57111168   -1.00000000    4.90999985    1.91999996
   17.57111168   -1.00000000    4.90999985    1.44000006
   17.57139015   -1.00000000    4.90999985    1.39999998
   17.57139015   -1.00000000    4.90999985    1.23000002
   17.57139015   -1.00000000    4.90999985    1.21000004
   17.57139015  327.13699341    4.90999985    1.85000002
   17.57194519  162.00300598    4.90999985    2.00000000
   17.57527924  126.37999725    4.90999985    1.66999996
   17.57861137  191.98699951    4.90999985    1.75000000
   17.58166695  312.88000488    4.90999985    1.73000002
   17.58361244  301.84698486    4.90999985    1.94000006
   17.58500099  163.57299805    4.90999985    1.89999998
   17.58500099  162.00300598    4.90999985    2.00000000
   17.58527756  126.37999725    4.90999985    1.66999996
   17.58527756  191.98699951    4.90999985    1.75000000
   17.58527756  312.88000488    4.90999985    1.73000002
   17.58638954   47.86259842    4.90999985    1.85000002
   17.58972359  260.01000977    4.90999985    1.73000002
   17.59277916  355.39999390    4.90999985    1.86000001
   17.59472275  298.57101440    4.90999985    1.96000004
   17.59611130  248.42100525    4.90999985    1.96000004
   17.59749985  274.89099121    4.90999985    2.07999992
   17.59889030  326.36898804    4.90999985    1.96000004
   17.60027885  205.39999390    4.90999985    2.07999992
   17.60027885   47.86259842    4.90999985    1.85000002
   17.60027885  260.01000977    4.90999985    1.73000002
   17.60055542  355.39999390    4.90999985    1.86000001
   17.60111237  225.94400024    4.90999985    2.09999990
   17.60416794  329.85198975    4.90999985    2.17000008
   17.60611153  320.21600342    4.90999985    2.05999994
   17.60750008  206.25300598    4.90999985    2.00000000
   17.60750008  225.94400024    4.90999985    2.09999990
   17.60777855  329.85198975    4.90999985    2.17000008
   17.60888863  216.77600098    4.90999985    2.13000011
   17.61194420  202.38999939    4.90999985    2.21000004
   17.61527824  181.47399902    4.90999985    2.23000002
   17.61833382  198.62899780    4.90999985    2.36999989
   17.62166595  234.13000488    4.90999985    2.34999990
   17.62833405  234.13000488    4.90999985    2.34999990
   17.63249969  238.43499756    4.90999985    2.30999994
   17.63583374  297.47299194    4.90999985    2.32999992
   17.63888931  430.17300415    4.90999985    2.17000008
   17.64083290  585.42602539    4.90999985    2.07999992
   17.64222145  477.15399170    4.90999985    2.01999998
   17.64361191  460.52700806    4.90999985    1.96000004
   17.64500046  430.56201172    4.90999985    2.01999998
   17.64638901  564.95501709    4.90999985    2.05999994
   17.64777756  543.07897949    4.90999985    2.03999996
   17.64916611  374.26199341    4.90999985    2.05999994
   17.65055466  410.09100342    4.90999985    1.89999998
   17.65194321  398.41400146    4.90999985    1.89999998
   17.65333366  524.34100342    4.90999985    1.96000004
   17.65472221  469.56500244    4.90999985    1.94000006
   17.65611076  444.49899292    4.90999985    2.01999998
   17.65749931  231.51499939    4.90999985    1.98000002
   17.65888786   91.85230255    4.90999985    1.85000002
   17.65888786  216.77600098    4.90999985    2.13000011
   17.65888786  202.38999939    4.90999985    2.21000004
   17.65916634  181.47399902    4.90999985    2.23000002
   17.65916634  198.62899780    4.90999985    2.36999989
   17.65916634  234.13000488    4.90999985    2.34999990
   17.65916634  238.43499756    4.90999985    2.30999994
   17.65916634  297.47299194    4.90999985    2.32999992
   17.65916634  430.17300415    4.90999985    2.17000008
   17.65972137   69.82879639    4.90999985    1.83000004
   17.66305542   -1.00000000    4.90999985    1.51999998
   17.66638756   -1.00000000   -1.00000000   -1.00000000
   17.66944313   55.96490097    4.90999985    1.63000000
   17.67277718   65.17510223    4.90999985    1.60000002
   17.67972183   65.17510223    4.90999985    1.58000004
   17.68388748   -1.00000000    4.90999985    1.55999994
   17.68694305   -1.00000000    4.90999985    1.39999998
   17.69027710   23.57019997    4.90999985    1.55999994
   17.69277763   60.82080078    4.90999985    1.60000002
   17.69361115   95.97239685    4.90999985    1.63000000
   17.69694328  379.28399658    4.90999985    1.94000006
   17.69888878  411.75698853    4.90999985    1.94000006
   17.70027924  542.84399414    4.90999985    1.89999998
   17.70166779  467.58099365    4.90999985    1.96000004
   17.70305634  451.87600708    4.90999985    1.98000002
   17.70444489  438.92800903    4.90999985    1.96000004
   17.70583344  393.86599731    4.90999985    1.96000004
   17.70722389  222.64500427    4.90999985    2.03999996
   17.70722389  379.28399658    4.90999985    1.94000006
   17.70722389   -1.00000000    4.90999985    1.51999998
   17.70722389   -1.00000000   -1.00000000   -1.00000000
   17.70750046   55.96490097    4.90999985    1.63000000
   17.70750046   65.17510223    4.90999985    1.60000002
   17.70750046   -1.00000000    4.90999985    1.55999994
   17.70750046   -1.00000000    4.90999985    1.39999998
   17.70777893   23.57019997    4.90999985    1.55999994
   17.70777893   95.97239685    4.90999985    1.63000000
   17.70833397  272.65701294    4.90999985    2.11999989
   17.71138954  260.12100220    4.90999985    2.03999996
   17.71472359  159.50500488    4.90999985    1.83000004
   17.71805573  208.07099915    4.90999985    1.86000001
   17.72111130  314.08099365    4.90999985    1.85000002
   17.72305679  364.05801392    4.90999985    1.89999998
   17.72444534  395.50799561    4.90999985    2.05999994
   17.72583389  353.22900391    4.90999985    2.13000011
   17.72722244  137.36500549    4.90999985    2.03999996
   17.72722244  272.65701294    4.90999985    2.11999989
   17.72750092  260.12100220    4.90999985    2.03999996
   17.72750092  159.50500488    4.90999985    1.83000004
   17.72750092  208.07099915    4.90999985    1.86000001
   17.72750092  314.08099365    4.90999985    1.85000002
   17.72805595  244.26600647    4.90999985    1.94000006
   17.73139000  202.62800598    4.90999985    1.88000000
   17.73444557  395.82000732    4.90999985    1.89999998
   17.73666763  262.72100830    4.90999985    1.96000004
   17.73777771  277.43099976    4.90999985    1.91999996
   17.73916626  326.42401123    4.90999985    1.88000000
   17.74055672  292.81201172    4.90999985    1.89999998
   17.74194527  389.10800171    4.90999985    2.00000000
   17.74333382  152.72300720    4.90999985    1.96000004
   17.74361229  244.26600647    4.90999985    1.94000006
   17.74361229  202.62800598    4.90999985    1.88000000
   17.74361229  395.82000732    4.90999985    1.89999998
   17.74416733  246.80700684    4.90999985    1.91999996
   17.74749947  341.66299438    4.90999985    2.00000000
   17.74944496  413.41799927    4.90999985    2.01999998
   17.75055504  228.43099976    4.90999985    2.05999994
   17.75194359  258.79598999    4.90999985    1.94000006
   17.75333405  270.92401123    4.90999985    1.89999998
   17.75472260  330.36300659    4.90999985    1.86000001
   17.75611115  390.64801025    4.90999985    1.94000006
   17.75749969  270.77999878    4.90999985    1.98000002
   17.75888824  238.94200134    4.90999985    2.00000000
   17.76027870  274.41198730    4.90999985    2.03999996
   17.76166725  222.35299683    4.90999985    2.13000011
   17.76194382  246.80700684    4.90999985    1.91999996
   17.76194382  341.66299438    4.90999985    2.00000000
   17.76250076  269.24200439    4.90999985    2.09999990
   17.76555634  431.44198608    4.90999985    2.03999996
   17.76777840  352.06900024    4.90999985    1.98000002
   17.76888847  313.41699219    4.90999985    1.91999996
   17.77027702  301.65100098    4.90999985    2.01999998
   17.77166557  347.74798584    4.90999985    2.01999998
   17.77305603  362.87100220    4.90999985    2.00000000
   17.77444458  385.36700439    4.90999985    1.98000002
   17.77583313  371.99099731    4.90999985    1.94000006
   17.77722168  436.19000244    4.90999985    1.91999996
   17.77861023  419.78601074    4.90999985    2.00000000
   17.78000069  204.19099426    4.90999985    1.98000002
   17.78027725  269.24200439    4.90999985    2.09999990
   17.78027725  431.44198608    4.90999985    2.03999996
   17.78083229  218.32699585    4.90999985    1.89999998
   17.78388786  299.95401001    4.90999985    1.89999998
   17.78722191  389.16900635    4.90999985    1.89999998
   17.78916550  223.21099854    4.90999985    1.96000004
   17.78916550  218.32699585    4.90999985    1.89999998
   17.78944397  299.95401001    4.90999985    1.89999998
   17.78944397  389.16900635    4.90999985    1.89999998
   17.79138756  195.63400269    4.90999985    1.83000004
   17.79444313  348.16101074    4.90999985    1.76999998
   17.79666710  266.19100952    4.90999985    1.91999996
   17.79777718  377.56100464    4.90999985    1.98000002
   17.79916573  288.95599365    4.90999985    1.94000006
   17.80055428  336.65701294    4.90999985    1.94000006
   17.80194283  354.32598877    4.90999985    2.03999996
   17.80333328  379.75201416    4.90999985    1.98000002
   17.80472183  419.79501343    4.90999985    2.03999996
   17.80611038  403.38198853    4.90999985    2.03999996
   17.80749893  313.07199097    4.90999985    1.96000004
   17.80888748  452.91900635    4.90999985    1.98000002
   17.81027794  467.29699707    4.90999985    1.91999996
   17.81166649  323.89401245    4.90999985    1.98000002
   17.81305504  445.94400024    4.90999985    1.96000004
   17.81444359  281.41900635    4.90999985    1.94000006
   17.81583214  180.51499939    4.90999985    1.83000004
   17.81611061  195.63400269    4.90999985    1.83000004
   17.81611061  348.16101074    4.90999985    1.76999998
   17.81666756   60.89550018    4.90999985    1.83000004
   17.81972313  209.38400269    4.90999985    1.69000006
   17.82305717  328.10998535    4.90999985    1.96000004
   17.82500076  323.14599609    4.90999985    2.09999990
   17.82638931  343.35198975    4.90999985    2.15000010
   17.82777786  179.56399536    4.90999985    1.91999996
   17.82777786   60.89550018    4.90999985    1.83000004
   17.82777786  209.38400269    4.90999985    1.69000006
   17.82805634  328.10998535    4.90999985    1.96000004
   17.82861137  160.43699646    4.90999985    1.91999996
   17.83166695  160.74099731    4.90999985    1.69000006
   17.83500099  264.36599731    4.90999985    1.73000002
   17.83805656  341.07800293    4.90999985    1.96000004
   17.84027863  318.20001221    4.90999985    2.07999992
   17.84138870  297.06399536    4.90999985    2.07999992
   17.84277916  217.52699280    4.90999985    2.07999992
   17.84305573  160.43699646    4.90999985    1.91999996
   17.84305573  160.74099731    4.90999985    1.69000006
   17.84305573  264.36599731    4.90999985    1.73000002
   17.84305573  341.07800293    4.90999985    1.96000004
   17.84361267  240.21800232    4.90999985    2.07999992
   17.84694481  222.60099792    4.90999985    2.21000004
   17.85000038  239.36999512    4.90999985    2.21000004
   17.85333443  208.20199585    4.90999985    2.32999992
   17.85666656  210.97099304    4.90999985    2.26999998
   17.85972214  239.31900024    4.90999985    2.28999996
   17.86388969  239.31900024    4.90999985    2.32999992
   17.86805534  263.85101318    4.90999985    2.30999994
   17.87138939  264.07101440    4.90999985    2.23000002
   17.87444496  482.89199829    4.90999985    2.25000000
   17.87638855  240.21800232    4.90999985    2.07999992
   17.87666702  222.60099792    4.90999985    2.21000004
   17.87666702  239.36999512    4.90999985    2.21000004
   17.87666702  208.20199585    4.90999985    2.32999992
   17.87666702  210.97099304    4.90999985    2.26999998
   17.87666702  239.31900024    4.90999985    2.28999996
   17.87694550  263.85101318    4.90999985    2.30999994
   17.87694550  264.07101440    4.90999985    2.23000002
   17.87694550  482.89199829    4.90999985    2.25000000
   17.87888908  147.93400574    4.90999985    1.66999996
   17.88222313  177.07600403    4.90999985    1.80999994
   17.88527679   52.87039948    4.90999985    1.71000004
   17.88861084  157.99000549    4.90999985    1.76999998
   17.89194489  295.38800049    4.90999985    1.83000004
   17.89722252  295.38800049    4.90999985    1.69000006
   17.90138817   -1.00000000    4.90999985    1.71000004
   17.90444374   -1.00000000    4.90999985    1.61000001
   17.90777779   -1.00000000    4.90999985    1.48000002
   17.91110992   -1.00000000    4.90999985    1.48000002
   17.91444397   -1.00000000    4.90999985    1.34000003
   17.91777802   -1.00000000    4.90999985    1.25000000
   17.94027710   -1.00000000    4.90999985    1.76999998
   17.94444275  218.84599304    4.90999985    1.96000004
   17.94777679  229.89599609    4.90999985    2.09999990
   17.95083427  185.83099365    4.90999985    2.11999989
   17.95416832  203.01300049    4.90999985    2.21000004
   17.95750046  197.25799561    4.90999985    2.25000000
   17.96055603  191.23500061    4.90999985    2.30999994
   17.96389008  189.08099365    4.90999985    2.26999998
   17.96694565  189.02000427    4.90999985    2.26999998
   17.97027779  238.92199707    4.90999985    2.19000006
   17.97361183  172.05999756    4.90999985    2.03999996
   17.97694588  227.93800354    4.90999985    1.75000000
   17.97722244  234.80499268    4.90999985    1.73000002
   17.98305511  234.80499268    4.90999985    2.00000000
   17.98722267  119.84899902    4.90999985    1.86000001
   17.99055672   57.38669968    4.90999985    1.71000004
   17.99361229   -1.00000000    4.90999985    1.71000004
   17.99694443   -1.00000000    4.90999985    1.64999998
   18.00000000   -1.00000000    4.90999985    1.61000001
   18.00333405   -1.00000000    4.90999985    1.39999998
   18.00666618   -1.00000000    4.90999985    1.44000006
   18.00972176   -1.00000000    4.90999985    1.55999994
   18.01333427   -1.00000000    4.90999985    1.53999996
   18.01638794   -1.00000000    4.90999985    1.51999998
   18.01972198   -1.00000000    4.90999985    1.55999994
   18.02583313   -1.00000000    4.90999985    1.61000001
   18.03000069   -1.00000000   -1.00000000   -1.00000000
   18.03333282   -1.00000000    4.90999985    1.64999998
   18.03638840   -1.00000000    4.90999985    1.61000001
   18.03972244   81.11889648    4.90999985    1.61000001
   18.04305458  113.13800049    4.90999985    1.71000004
   18.04388809  227.39999390    4.90999985    1.66999996
   18.04666710  267.25000000    4.90999985    1.88000000
   18.04999924  219.83900452    4.90999985    1.94000006
   18.05333328  229.83399963    4.90999985    2.00000000
   18.05638885  214.05599976    4.90999985    2.03999996
   18.05972099  154.93499756    4.90999985    1.85000002
   18.06305504  173.63999939    4.90999985    1.76999998
   18.06888962  173.63999939    4.90999985    1.86000001
   18.07277870  166.30700684    4.90999985    2.11999989
   18.07611275  156.28599548    4.90999985    2.21000004
   18.07722282  220.45300293    4.90999985    2.17000008
   18.07972336  168.52299500    4.90999985    2.11999989
   18.08305550  243.03700256    4.90999985    2.03999996
   18.08611107  223.64700317    4.90999985    1.98000002
   18.08944511  221.54299927    4.90999985    2.07999992
   18.09277916  172.80099487    4.90999985    2.13000011
   18.09583473  209.20199585    4.90999985    2.09999990
   18.09916687  248.89199829    4.90999985    2.03999996
   18.10222244  213.27900696    4.90999985    2.07999992
   18.10555649  231.67199707    4.90999985    2.01999998
   18.11166763  231.67199707    4.90999985    2.01999998
   18.11583328  283.59698486    4.90999985    2.07999992
   18.11888885  276.71499634    4.90999985    2.01999998
   18.12222290  188.21099854    4.90999985    1.98000002
   18.12555504  169.22700500    4.90999985    2.15000010
   18.12861061  153.90699768    4.90999985    2.05999994
   18.13194466  184.91099548    4.90999985    1.80999994
   18.13500023  330.07699585    4.90999985    1.86000001
   18.13722229  130.26800537    4.90999985    1.91999996
   18.13722229  231.67199707    4.90999985    2.01999998
   18.13722229  283.59698486    4.90999985    2.07999992
   18.13722229  276.71499634    4.90999985    2.01999998
   18.13722229  188.21099854    4.90999985    1.98000002
   18.13750076  169.22700500    4.90999985    2.15000010
   18.13750076  153.90699768    4.90999985    2.05999994
   18.13750076  184.91099548    4.90999985    1.80999994
   18.13750076  330.07699585    4.90999985    1.86000001
   18.13777733  213.27900696    4.90999985    2.07999992
   18.13972282   -1.00000000    4.90999985    1.78999996
   18.14277840   87.52100372    4.90999985    1.66999996
   18.14611053  295.40701294    4.90999985    1.78999996
   18.14916611  160.39199829    4.90999985    2.03999996
   18.15250015  161.11799622    4.90999985    2.17000008
   18.15777779  161.11799622    4.90999985    2.23000002
   18.16194344  235.60600281    4.90999985    1.98000002
   18.16527748  243.22399902    4.90999985    2.09999990
   18.16833305  260.39199829    4.90999985    2.13000011
   18.17083359  258.73498535    4.90999985    2.01999998
   18.17194366  263.45999146    4.90999985    1.98000002
   18.17527771  265.77600098    4.90999985    2.01999998
   18.17833328  278.44699097    4.90999985    2.00000000
   18.18166542  215.57099915    4.90999985    1.85000002
   18.18472099  313.23498535    4.90999985    1.58000004
   18.18694305  196.99499512    4.90999985    1.96000004
   18.18694305  265.77600098    4.90999985    2.01999998
   18.18694305  278.44699097    4.90999985    2.00000000
   18.18694305  215.57099915    4.90999985    1.85000002
   18.18694305  313.23498535    4.90999985    1.58000004
   18.18722153  161.11799622    4.90999985    2.17000008
   18.18722153  235.60600281    4.90999985    1.98000002
   18.18722153  243.22399902    4.90999985    2.09999990
   18.18722153  260.39199829    4.90999985    2.13000011
   18.18750000  263.45999146    4.90999985    1.98000002
   18.18944359  140.10600281    4.90999985    2.26999998
   18.19249916  194.57699585    4.90999985    2.17000008
   18.19583321  145.58599854    4.90999985    2.32999992
   18.19888878  167.21400452    4.90999985    2.48000002
   18.20222282  375.74600220    4.90999985    1.85000002
   18.20416832  159.17300415    4.90999985    1.88000000
   18.20416832  140.10600281    4.90999985    2.26999998
   18.20444489  194.57699585    4.90999985    2.17000008
   18.20444489  145.58599854    4.90999985    2.32999992
   18.20444489  167.21400452    4.90999985    2.48000002
   18.20444489  375.74600220    4.90999985    1.85000002
   18.20639038  209.07600403    4.90999985    2.34999990
   18.20972252  213.68099976    4.90999985    2.17000008
   18.21277809  220.75599670    4.90999985    2.09999990
   18.21611214  179.21699524    4.90999985    1.96000004
   18.21944427  329.50399780    4.90999985    2.28999996
   18.22138977  402.69100952    4.90999985    1.75000000
   18.22277832  262.90100098    4.90999985    1.98000002
   18.22416687  171.22500610    4.90999985    2.19000006
   18.22416687  209.07600403    4.90999985    2.34999990
   18.22416687  213.68099976    4.90999985    2.17000008
   18.22416687  220.75599670    4.90999985    2.09999990
   18.22416687  179.21699524    4.90999985    1.96000004
   18.22444534  329.50399780    4.90999985    2.28999996
   18.22500038  385.76599121    4.90999985    2.32999992
   18.22888947   -1.00000000    4.90999985    1.33000004
   18.23194504  276.62200928    4.90999985    1.51999998
   18.23527718  156.96299744    4.90999985    2.28999996
   18.23861122  174.82699585    4.90999985    1.86000001
   18.24166679   51.64730072    4.90999985    2.36999989
   18.24749947   51.64730072    4.90999985    1.50000000
   18.25166702  180.73800659    4.90999985    2.26999998
   18.25499916   -1.00000000    4.90999985    2.28999996
   18.25833321  167.99200439    4.90999985    1.51999998
   18.26055527  246.61199951    4.90999985    2.26999998
   18.26166725  173.98599243    4.90999985    2.19000006
   18.26499939  196.79100037    4.90999985    2.11999989
   18.26805496  330.54598999    4.90999985    2.13000011
   18.27000046  248.14799500    4.90999985    2.03999996
   18.27138901  393.96499634    4.90999985    2.03999996
   18.27277756  181.15899658    4.90999985    2.01999998
   18.27277756  196.79100037    4.90999985    2.11999989
   18.27305603  330.54598999    4.90999985    2.13000011
   18.27305603  156.96299744    4.90999985    2.28999996
   18.27305603  174.82699585    4.90999985    1.86000001
   18.27305603   51.64730072    4.90999985    2.36999989
   18.27305603  180.73800659    4.90999985    2.26999998
   18.27333260   -1.00000000    4.90999985    2.28999996
   18.27333260  167.99200439    4.90999985    1.51999998
   18.27333260  173.98599243    4.90999985    2.19000006
   18.27388954  201.19999695    4.90999985    2.07999992
   18.27722168  189.77499390    4.90999985    2.25000000
   18.28027725  343.66101074    4.90999985    1.85000002
   18.28222275  212.94299316    4.90999985    2.07999992
   18.28249931  201.19999695    4.90999985    2.07999992
   18.28249931  189.77499390    4.90999985    2.25000000
   18.28249931  343.66101074    4.90999985    1.85000002
   18.28444481  180.10000610    4.90999985    2.17000008
   18.28777695  295.74499512    4.90999985    1.63000000
   18.29111099  292.19500732    4.90999985    2.07999992
   18.29416656  132.44700623    4.90999985    2.30999994
   18.29749870  207.91299438    4.90999985    2.48000002
   18.30305481  207.91299438    4.90999985    2.19000006
   18.30722237  266.97500610    4.90999985    2.05999994
   18.31055450   98.87079620    4.90999985    2.07999992
   18.31361008  172.07099915    4.90999985    1.85000002
   18.31611061  176.88299561    4.90999985    2.00000000
   18.31722260  308.68499756    4.90999985    1.91999996
   18.31916809  446.74499512    4.90999985    2.00000000
   18.32055664  287.92800903    4.90999985    1.89999998
   18.32194519  225.29800415    4.90999985    2.07999992
   18.32333374  276.89898682    4.90999985    2.07999992
   18.32472229  270.85699463    4.90999985    2.13000011
   18.32611275  212.42599487    4.90999985    2.17000008
   18.32611275  180.10000610    4.90999985    2.17000008
   18.32611275  295.74499512    4.90999985    1.63000000
   18.32611275  292.19500732    4.90999985    2.07999992
   18.32638931  132.44700623    4.90999985    2.30999994
   18.32638931  207.91299438    4.90999985    2.48000002
   18.32638931  266.97500610    4.90999985    2.05999994
   18.32638931   98.87079620    4.90999985    2.07999992
   18.32638931  172.07099915    4.90999985    1.85000002
   18.32666779  308.68499756    4.90999985    1.91999996
   18.32722282  279.50799561    4.90999985    2.13000011
   18.33027840  191.05299377    4.90999985    2.07999992
   18.33361244  158.93600464    4.90999985    1.98000002
   18.33694458  158.88800049    4.90999985    2.23000002
   18.34000015  167.93800354    4.90999985    2.17000008
   18.34694481  167.93800354    4.90999985    2.32999992
   18.35083389  212.77600098    4.90999985    2.19000006
   18.35416794  221.75300598    4.90999985    2.13000011
   18.35750008  193.08900452    4.90999985    2.17000008
   18.36000061  179.98899841    4.90999985    2.28999996
   18.36083412  176.98100281    4.90999985    2.28999996
   18.36416626  325.49700928    4.90999985    2.05999994
   18.36611176  234.77200317    4.90999985    1.96000004
   18.36750031  186.80799866    4.90999985    2.13000011
   18.36750031  325.49700928    4.90999985    2.05999994
   18.36750031  191.05299377    4.90999985    2.07999992
   18.36750031  158.93600464    4.90999985    1.98000002
   18.36750031  158.88800049    4.90999985    2.23000002
   18.36777878  167.93800354    4.90999985    2.17000008
   18.36777878  212.77600098    4.90999985    2.19000006
   18.36777878  221.75300598    4.90999985    2.13000011
   18.36777878  193.08900452    4.90999985    2.17000008
   18.36777878  176.98100281    4.90999985    2.28999996
   18.36916733  192.74699402    4.90999985    2.17000008
   18.37222290  219.19700623    4.90999985    2.11999989
   18.37555504  224.63699341    4.90999985    2.17000008
   18.37861061  172.02400208    4.90999985    2.30999994
   18.38194466  282.52600098    4.90999985    1.76999998
   18.38805580  282.52600098    4.90999985    2.00000000
   18.39222145  161.16099548    4.90999985    1.55999994
   18.39555550  227.01100159    4.90999985    1.64999998
   18.39888954   -1.00000000    4.90999985    1.71000004
   18.40222168   73.01969910    4.90999985    1.75000000
   18.40527725  269.83898926    4.90999985    1.83000004
   18.40861130  222.91799927    4.90999985    1.91999996
   18.41194344  110.13800049    4.90999985    2.01999998
   18.41499901   23.57019997    4.90999985    1.83000004
   18.41833305   -1.00000000    4.90999985    1.64999998
   18.42166519  209.12600708    4.90999985    1.50000000
   18.42472076  241.28300476    4.90999985    1.94000006
   18.43111038  241.28300476    4.90999985    1.80999994
   18.43527603   56.90480042    4.90999985    1.80999994
   18.43833160  265.59698486    4.90999985    1.78999996
   18.44166565  180.29299927    4.90999985    1.80999994
   18.44472122  263.04000854    4.90999985    1.69000006
   18.44805527  202.03799438    4.90999985    1.73000002
   18.45138931  144.80900574    4.90999985    1.73000002
   18.45444489  106.88999939    4.90999985    2.01999998
   18.45777893  166.63800049    4.90999985    1.76999998
   18.46111107  228.21800232    4.90999985    1.85000002
   18.46416664   -1.00000000    4.90999985    1.73000002
   18.46750069  416.66000366    4.90999985    1.80999994
   18.46805573  228.14999390    4.90999985    1.80999994
   18.46944427  183.74699402    4.90999985    1.98000002
   18.46944427  180.29299927    4.90999985    1.80999994
   18.46944427  263.04000854    4.90999985    1.69000006
   18.46944427  202.03799438    4.90999985    1.73000002
   18.46944427  144.80900574    4.90999985    1.73000002
   18.46972275  106.88999939    4.90999985    2.01999998
   18.46972275  166.63800049    4.90999985    1.76999998
   18.46972275  228.21800232    4.90999985    1.85000002
   18.46972275   -1.00000000    4.90999985    1.73000002
   18.47000122  416.66000366    4.90999985    1.80999994
   18.47222328  226.45599365    4.90999985    1.80999994
   18.47527885  204.61300659    4.90999985    1.88000000
   18.47861099   -1.00000000    4.90999985    1.86000001
   18.48194504   98.91919708    4.90999985    1.80999994
   18.48500061  106.11399841    4.90999985    1.64999998
   18.48999977  106.11399841    4.90999985    1.75000000
   18.49416733   -1.00000000    4.90999985    1.61000001
   18.49749947  307.09298706    4.90999985    1.75000000
   18.49944496  226.45599365    4.90999985    1.80999994
   18.49944496  204.61300659    4.90999985    1.88000000
   18.49944496   -1.00000000    4.90999985    1.86000001
   18.49972153   98.91919708    4.90999985    1.80999994
   18.49972153  106.11399841    4.90999985    1.64999998
   18.49972153   -1.00000000    4.90999985    1.61000001
   18.49972153  307.09298706    4.90999985    1.75000000
   18.50166702   58.87319946    4.90999985    1.53999996
   18.50499916   84.48509979    4.90999985    1.51999998
   18.50833321   -1.00000000    4.90999985    2.00000000
   18.51138878  250.26800537    4.90999985    1.91999996
   18.51472282  212.70899963    4.90999985    1.98000002
   18.52027702  212.70899963    4.90999985    1.64999998
   18.52444458  242.20700073    4.90999985    1.98000002
   18.52750015   -1.00000000    4.90999985    1.98000002
   18.53083229   -1.00000000    4.90999985    1.80999994
   18.53416634   -1.00000000    4.90999985    1.51999998
   18.53750038   -1.00000000    4.90999985    1.60000002
   18.54055595   -1.00000000    4.90999985    1.34000003
   18.54388809   -1.00000000   -1.00000000   -1.00000000
   18.54722214   -1.00000000    4.90999985    1.76999998
   18.55027771   -1.00000000    4.90999985    1.64999998
   18.55360985   55.30199814    4.90999985    1.64999998
   18.55694389   44.88700104    4.90999985    1.55999994
   18.56305504   44.88700104    4.90999985    1.75000000
   18.56722260   -1.00000000    4.90999985    1.26999998
   18.57027817   -1.00000000    4.90999985    1.33000004
   18.57361221   -1.00000000    4.90999985    1.50000000
   18.57694626  339.67401123    4.90999985    1.86000001
   18.57888985  177.11999512    4.90999985    1.96000004
   18.57888985   -1.00000000    4.90999985    1.50000000
   18.57888985  339.67401123    4.90999985    1.86000001
   18.57888985   -1.00000000   -1.00000000   -1.00000000
   18.57916832   -1.00000000    4.90999985    1.76999998
   18.57916832   -1.00000000    4.90999985    1.64999998
   18.57916832   55.30199814    4.90999985    1.64999998
   18.57916832   44.88700104    4.90999985    1.55999994
   18.57944489   -1.00000000    4.90999985    1.26999998
   18.57944489   -1.00000000    4.90999985    1.33000004
   18.58139038   58.63999939    4.90999985    1.83000004
   18.58444595  119.18199921    4.90999985    1.69000006
   18.58777809   -1.00000000    4.90999985    1.66999996
   18.59111214   -1.00000000    4.90999985    1.51999998
   18.59416771   -1.00000000    4.90999985    1.09000003
   18.60361099   62.20970154    4.90999985    1.36000001
   18.60694504   -1.00000000    4.90999985    1.75000000
   18.61027908  145.15100098    4.90999985    1.55999994
   18.61361122   -1.00000000    4.90999985    1.73000002
   18.61694527   -1.00000000    4.90999985    1.51999998
   18.62000084   -1.00000000    4.90999985    1.64999998
   18.62333298   -1.00000000    4.90999985    1.51999998
   18.62666702   -1.00000000    4.90999985    1.39999998
   18.62972260   -1.00000000    4.90999985    1.53999996
   18.63305473   -1.00000000    4.90999985    1.30999994
   18.63611031   -1.00000000    4.90999985    1.44000006
   18.64666748  239.29100037    4.90999985    1.63000000
   18.64972115  292.33898926    4.90999985    2.03999996
   18.65305519  326.07101440    4.90999985    1.91999996
   18.65499878  170.58200073    4.90999985    1.89999998
   18.65499878   -1.00000000    4.90999985    1.64999998
   18.65499878   -1.00000000    4.90999985    1.51999998
   18.65527725   -1.00000000    4.90999985    1.39999998
   18.65527725   -1.00000000    4.90999985    1.53999996
   18.65527725   -1.00000000    4.90999985    1.30999994
   18.65527725   -1.00000000    4.90999985    1.44000006
   18.65555573  239.29100037    4.90999985    1.63000000
   18.65555573  292.33898926    4.90999985    2.03999996
   18.65749931  131.69599915    4.90999985    2.40000010
   18.66083336  142.78100586    4.90999985    2.55999994
   18.66388893  104.18699646    4.90999985    2.57999992
   18.66722107  253.00300598    4.90999985    2.11999989
   18.67055511  145.12600708    4.90999985    1.78999996
   18.67583275  145.12600708    4.90999985    2.57999992
   18.68000031  144.00300598    4.90999985    2.46000004
   18.68305397  132.53799438    4.90999985    2.40000010
   18.68638802  249.74400330    4.90999985    2.09999990
   18.68888855  226.27499390    4.90999985    1.98000002
   18.68972206   47.58580017    4.90999985    1.96000004
   18.69305420   56.39410019    4.90999985    1.55999994
   18.69638824  192.36000061    4.90999985    1.61000001
   18.69944382  330.17898560    4.90999985    1.78999996
   18.70138931  225.44299316    4.90999985    1.83000004
   18.70277786  114.87599945    4.90999985    1.94000006
   18.70277786   56.39410019    4.90999985    1.55999994
   18.70305634  192.36000061    4.90999985    1.61000001
   18.70305634  330.17898560    4.90999985    1.78999996
   18.70305634  253.00300598    4.90999985    2.11999989
   18.70305634  145.12600708    4.90999985    1.78999996
   18.70305634  144.00300598    4.90999985    2.46000004
   18.70333481  132.53799438    4.90999985    2.40000010
   18.70333481  249.74400330    4.90999985    2.09999990
   18.70333481   47.58580017    4.90999985    1.96000004
   18.70444489  133.77699280    4.90999985    1.83000004
   18.70777893   -1.00000000    4.90999985    1.71000004
   18.71083450  268.24099731    4.90999985    1.61000001
   18.71416664  262.93701172    4.90999985    1.91999996
   18.71750069  285.77600098    4.90999985    1.85000002
   18.72361183  285.77600098    4.90999985    2.07999992
   18.72777748  145.30900574    4.90999985    2.25000000
   18.73083305  135.77000427    4.90999985    2.32999992
   18.73416710  153.90299988    4.90999985    2.32999992
   18.73666763  150.32000732    4.90999985    2.36999989
   18.73777771  153.29499817    4.90999985    2.39000010
   18.74083328  140.22300720    4.90999985    2.39000010
   18.74416733  160.02200317    4.90999985    2.40000010
   18.74722290  138.11900330    4.90999985    2.40000010
   18.75055504  147.47799683    4.90999985    2.42000008
   18.75388908  141.97700500    4.90999985    2.44000006
   18.75694466  136.13800049    4.90999985    2.44000006
   18.76027870  140.39599609    4.90999985    2.46000004
   18.76638794  140.39599609    4.90999985    2.50000000
   18.77055550  142.64300537    4.90999985    2.44000006
   18.77388954  131.53799438    4.90999985    2.42000008
   18.77694511  139.61300659    4.90999985    2.40000010
   18.78027725  129.21899414    4.90999985    2.48000002
   18.78333282  142.25199890    4.90999985    2.53999996
   18.78666687  125.57399750    4.90999985    2.53999996
   18.78999901  131.96200562    4.40999985    2.55999994
   18.79305458  128.81700134    3.91000009    2.55999994
   18.79638863  132.22900391    3.59999990    2.53999996
   18.79972076  128.99299622    3.43000007    2.55999994
   18.80277634  141.91400146    3.32999992    2.55999994
   18.80333328  129.18200684    3.32999992    2.55999994
   18.80916595  129.18200684    3.05999994    2.57999992
   18.81333351  136.88000488    2.84999990    2.55999994
   18.81666756  136.67199707    2.61999989    2.57999992
   18.82000160  150.97799683    2.42000008    2.55999994
   18.82305717  135.01499939    2.40000010    2.55999994
   18.82638931  139.12300110    2.53999996    2.55999994
   18.82944489  138.10600281    2.80999994    2.55999994
   18.83277893  139.32800293    3.23000002    2.55999994
   18.83611107  142.01300049    3.82999992    2.53999996
   18.83666801  139.76699829    4.00000000    2.51999998
   18.83972359  139.57600403    4.80999994    2.51999998
   18.84277916  125.89399719    4.90999985    2.53999996
   18.84611130  140.38099670    4.90999985    2.40000010
   18.85222244  140.38099670    4.90999985    2.48000002
   18.85611153  127.22100067    4.90999985    2.51999998
   18.85944557  131.58200073    4.90999985    2.46000004
   18.86277771  130.42500305    4.90999985    2.48000002
   18.86583328  155.32400513    4.90999985    2.46000004
   18.86916733  151.91900635    4.90999985    2.40000010
   18.87000084  127.85600281    4.90999985    2.34999990
   18.87277794  134.86799622    4.90999985    2.34999990
   18.87583351  126.10900116    4.90999985    2.30999994
   18.87916756  115.80200195    4.90999985    2.48000002
   18.88222313  149.64500427    4.90999985    2.40000010
   18.88555527  162.95899963    4.90999985    2.28999996
   18.88888931  139.21800232    4.90999985    2.21000004
   18.89500046  139.21800232    4.90999985    2.23000002
   18.89916611  138.21499634    4.90999985    2.25000000
   18.90222168  203.76100159    4.90999985    2.25000000
   18.90333366  145.38299561    4.90999985    2.25000000
   18.90611076  168.94900513    4.90999985    2.25000000
   18.90916634  152.89799500    4.90999985    2.40000010
   18.91250038  143.28399658    4.90999985    2.42000008
   18.91555595  204.13499451    4.90999985    2.15000010
   18.91888809  330.64999390    4.90999985    1.88000000
   18.92083359  215.49499512    4.90999985    1.96000004
   18.92083359  204.13499451    4.90999985    2.15000010
   18.92111015  330.64999390    4.90999985    1.88000000
   18.92111015  162.95899963    4.90999985    2.28999996
   18.92111015  139.21800232    4.90999985    2.21000004
   18.92111015  138.21499634    4.90999985    2.25000000
   18.92111015  203.76100159    4.90999985    2.25000000
   18.92138863  168.94900513    4.90999985    2.25000000
   18.92138863  152.89799500    4.90999985    2.40000010
   18.92138863  143.28399658    4.90999985    2.42000008
   18.92333221  178.39100647    4.90999985    2.13000011
   18.92666626  140.38800049    4.90999985    2.32999992
   18.92972183  127.71700287    4.90999985    2.23000002
   18.93305397  187.59199524    4.90999985    2.23000002
   18.95499992  187.59199524    4.90999985    2.15000010
   18.95916748  207.11599731    4.90999985    2.03999996
   18.96250153  194.85099792    4.90999985    2.19000006
   18.96583366  136.99600220    4.90999985    2.44000006
   18.96888924  154.61999512    4.90999985    2.51999998
   18.97222328  123.07199860    4.90999985    2.46000004
   18.97527885  169.45599365    4.90999985    2.44000006
   18.97861099  142.10899353    4.90999985    2.39000010
   18.98194504  117.50700378    4.90999985    2.46000004
   18.98500061  148.07600403    4.90999985    2.44000006
   18.98805618  175.93299866    4.90999985    2.28999996
   18.98888969  143.65499878    4.90999985    2.28999996
   18.99194527  124.93000031    4.90999985    2.25000000
   18.99777794  124.93000031    4.90999985    2.28999996
   19.00194359  157.64700317    4.90999985    2.25000000
   19.00527763  167.41000366    4.90999985    2.28999996
   19.00833321  147.91900635    4.90999985    2.40000010
   19.01166725  153.85000610    4.90999985    2.42000008
   19.01499939  154.57000732    4.90999985    2.46000004
   19.01805496  123.60099792    4.90999985    2.53999996
   19.02138901  126.76000214    4.90999985    2.51999998
   19.02194405  121.23400116    4.90999985    2.50000000
   19.02499962  180.93499756    4.90999985    2.25000000
   19.02833366  126.81800079    4.90999985    2.28999996
   19.03166580  139.24899292    4.90999985    2.48000002
   19.03472137  133.72799683    4.90999985    2.39000010
   19.04083252  133.72799683    4.90999985    2.50000000
   19.04472160  158.33299255    4.90999985    2.34999990
   19.04805565  174.61300659    4.90999985    2.28999996
   19.05138779  162.07600403    4.90999985    2.25000000
   19.05444336  174.47300720    4.90999985    2.30999994
   19.05499840  179.81599426    4.90999985    2.30999994
   19.05833244  207.75199890    4.90999985    2.19000006
   19.06138802  220.74800110    4.90999985    2.00000000
   19.06472206  231.30000305    4.90999985    1.98000002
   19.06805611  302.70001221    4.90999985    2.03999996
   19.07000160  218.47799683    4.90999985    1.98000002
   19.07000160  174.61300659    4.90999985    2.28999996
   19.07000160  162.07600403    4.90999985    2.25000000
   19.07000160  174.47300720    4.90999985    2.30999994
   19.07027817  207.75199890    4.90999985    2.19000006
   19.07027817  220.74800110    4.90999985    2.00000000
   19.07027817  231.30000305    4.90999985    1.98000002
   19.07027817  302.70001221    4.90999985    2.03999996
   19.07027817  133.72799683    4.90999985    2.39000010
   19.07055664  158.33299255    4.90999985    2.34999990
   19.07250023  207.26100159    4.90999985    1.96000004
   19.07555580  177.67999268    4.90999985    1.89999998
   19.07888985  152.20799255    4.90999985    1.86000001
   19.08222389  160.00100708    4.90999985    1.76999998
   19.08527756   23.57019997    4.90999985    1.78999996
   19.09083366   23.57019997    4.90999985    1.76999998
   19.09472275  216.67999268    4.90999985    1.86000001
   19.09805679  243.23100281    4.90999985    1.86000001
   19.10138893  133.50799561    4.90999985    1.89999998
   19.10388947  174.02799988    4.90999985    1.85000002
   19.10472298  169.02900696    4.90999985    1.86000001
   19.10805511  279.13500977    4.90999985    1.83000004
   19.11111069  250.64300537    4.90999985    1.88000000
   19.11444473  287.44000244    4.90999985    1.89999998
   19.11777878  193.16700745    4.90999985    1.88000000
   19.12083435  212.70100403    4.90999985    1.89999998
   19.12416649  258.22000122    4.90999985    1.86000001
   19.12750053  197.30200195    4.90999985    1.83000004
   19.13361168  197.30200195    4.90999985    1.80999994
   19.13777733  241.91200256    4.90999985    1.76999998
   19.14083290  321.81799316    4.90999985    1.94000006
   19.14277840  264.82299805    4.90999985    1.94000006
   19.14416695  407.91400146    4.90999985    1.91999996
   19.14555550  357.44400024    4.90999985    1.91999996
   19.14694405  354.51699829    4.90999985    2.00000000
   19.14833260  236.25999451    4.90999985    2.00000000
   19.14972115  321.74798584    4.90999985    2.05999994
   19.15111160  294.11099243    4.90999985    2.05999994
   19.15250015  256.78100586    4.90999985    2.01999998
   19.15388870  304.04000854    4.90999985    2.01999998
   19.15527725  332.47399902    4.90999985    2.01999998
   19.15666580  401.84799194    4.90999985    1.96000004
   19.15805435  327.44400024    4.90999985    1.94000006
   19.15944481  369.54199219    4.90999985    1.96000004
   19.16083336  316.07901001    4.90999985    1.98000002
   19.16222191  233.04400635    4.90999985    1.98000002
   19.16361046  226.41799927    4.90999985    1.94000006
   19.16499901  310.24700928    4.90999985    2.01999998
   19.16638756  200.35200500    4.90999985    2.01999998
   19.16638756  279.13500977    4.90999985    1.83000004
   19.16638756  250.64300537    4.90999985    1.88000000
   19.16666603  287.44000244    4.90999985    1.89999998
   19.16666603  193.16700745    4.90999985    1.88000000
   19.16666603  212.70100403    4.90999985    1.89999998
   19.16666603  258.22000122    4.90999985    1.86000001
   19.16666603  197.30200195    4.90999985    1.83000004
   19.16694450  241.91200256    4.90999985    1.76999998
   19.16694450  321.81799316    4.90999985    1.94000006
   19.16749954  294.70700073    4.90999985    2.07999992
   19.17083359  323.22601318    4.90999985    2.01999998
   19.17277718  227.15800476    4.90999985    2.03999996
   19.17388916  215.49000549    4.90999985    2.09999990
   19.17416573  294.70700073    4.90999985    2.07999992
   19.17416573  323.22601318    4.90999985    2.01999998
   19.17527771  318.82400513    4.90999985    2.07999992
   19.17722130  204.34500122    4.90999985    1.98000002
   19.17916679  279.39498901    4.90999985    2.03999996
   19.18249893  237.24600220    4.90999985    1.98000002
   19.18555450  337.35800171    4.90999985    1.96000004
   19.18777657  306.00900269    4.90999985    2.00000000
   19.18888855  210.42199707    4.90999985    1.98000002
   19.18916512  279.39498901    4.90999985    2.03999996
   19.18916512  237.24600220    4.90999985    1.98000002
   19.18916512  337.35800171    4.90999985    1.96000004
   19.19027710  324.13800049    4.90999985    1.98000002
   19.19222069  207.64100647    4.90999985    1.98000002
   19.19416618  371.39801025    4.90999985    2.05999994
   19.19610977  272.57199097    4.90999985    2.01999998
   19.19749832  233.97500610    4.90999985    1.98000002
   19.19888878  275.41101074    4.90999985    1.91999996
   19.20027924  254.51100159    4.90999985    1.91999996
   19.20166779  258.68099976    4.90999985    1.94000006
   19.20305634  191.60299683    4.90999985    1.94000006
   19.20305634  371.39801025    4.90999985    2.05999994
   19.20361137  196.83200073    4.90999985    1.89999998
   19.20694542  326.76400757    4.90999985    1.85000002
   19.20888901  246.68600464    4.90999985    1.88000000
   19.21027946  289.80499268    4.90999985    1.88000000
   19.21166801  234.03700256    4.90999985    1.91999996
   19.21305656  382.21398926    4.90999985    2.00000000
   19.21444511  280.69799805    4.90999985    2.00000000
   19.21444511  196.83200073    4.90999985    1.89999998
   19.21444511  326.76400757    4.90999985    1.85000002
   19.21638870  258.33801270    4.90999985    2.07999992
   19.21944427  171.88099670    4.90999985    2.09999990
   19.22277832  346.17498779    4.90999985    2.05999994
   19.22472191  312.35101318    4.90999985    1.96000004
   19.22611237  279.35501099    4.90999985    2.00000000
   19.22750092  276.14498901    4.90999985    2.01999998
   19.22888947  311.56799316    4.90999985    2.03999996
   19.23027802  370.68600464    4.90999985    2.00000000
   19.23166656  235.52200317    4.90999985    2.01999998
   19.23305511  204.88099670    4.90999985    2.01999998
   19.23305511  171.88099670    4.90999985    2.09999990
   19.23305511  346.17498779    4.90999985    2.05999994
   19.23361206  260.56799316    4.90999985    2.03999996
   19.23694420  240.13999939    4.90999985    2.07999992
   19.24027824  294.34201050    4.90999985    2.15000010
   19.24333382  235.50000000    4.90999985    1.96000004
   19.24666786  238.28399658    4.90999985    2.11999989
   19.24972153  206.80700684    4.90999985    1.96000004
   19.25388908  206.80700684    4.90999985    1.86000001
   19.25805473  241.41900635    4.90999985    2.05999994
   19.26138878  272.89099121    4.90999985    2.01999998
   19.26444435  243.37199402    4.90999985    2.03999996
   19.26694489  213.53500366    4.90999985    1.88000000
   19.26805496  250.71200562    4.90999985    1.80999994
   19.27138901  181.46200562    4.90999985    1.80999994
   19.27472115  187.34399414    4.90999985    1.89999998
   19.27777672  237.58999634    4.90999985    1.86000001
   19.28111076   -1.00000000   -1.00000000   -1.00000000
   19.28416634   -1.00000000    4.90999985    1.64999998
   19.28750038   -1.00000000    4.90999985    1.61000001
   19.29083252   -1.00000000    4.90999985    1.58000004
   19.29666710   -1.00000000    4.90999985    1.46000004
   19.30083275   -1.00000000    4.90999985    1.69000006
   19.30416679   -1.00000000    4.90999985    1.63000000
   19.30749893   -1.00000000    4.90999985    1.50000000
   19.31055450   -1.00000000    4.90999985    1.44000006
   19.31388855   -1.00000000    4.90999985    1.25000000
   19.31722260   -1.00000000    4.90999985    1.38000000
   19.32027817   -1.00000000    4.90999985    1.46000004
   19.32361221   -1.00000000    4.90999985    1.50000000
   19.32694626   -1.00000000    4.90999985    1.46000004
   19.33000183   -1.00000000    4.90999985    1.36000001
   19.33333397   -1.00000000    4.90999985    1.41999996
   19.33972359   -1.00000000    4.90999985    1.46000004
   19.34388924   -1.00000000    4.90999985    1.50000000
   19.34694481   -1.00000000    4.90999985    1.36000001
   19.35027885   -1.00000000    4.90999985    1.44000006
   19.35333443   -1.00000000    4.90999985    1.41999996
   19.35666656   -1.00000000    4.90999985    1.36000001
   19.36000061   -1.00000000    4.90999985    1.44000006
   19.36305618   -1.00000000    4.90999985    1.53999996
   19.36638832   -1.00000000    4.90999985    1.53999996
   19.36722183   38.43899918    4.90999985    1.53999996
   19.37000084   -1.00000000   -1.00000000   -1.00000000
   19.37333298   56.80889893    4.90999985    1.61000001
   19.37666702   61.72240067    4.90999985    1.66999996
   19.38249969   61.72240067    4.90999985    1.58000004
   19.38666725   -1.00000000    4.90999985    1.23000002
   19.38972282   -1.00000000    4.90999985    1.46000004
   19.39305496   -1.00000000    4.90999985    1.48000002
   19.39638901   -1.00000000    4.90999985    1.26999998
   19.39944458   -1.00000000    4.90999985    1.13000000
   19.40305519   -1.00000000    4.90999985    1.00000000
   19.40638924   -1.00000000    4.90999985    1.09000003
   19.40944481   -1.00000000    4.90999985    1.07000005
   19.41277695   -1.00000000    4.90999985    1.09000003
   19.41611099   -1.00000000    4.90999985    1.11000001
   19.41916656   -1.00000000    4.90999985    1.16999996
   19.42944336   -1.00000000    4.90999985    1.28999996
   19.43277740   -1.00000000    4.90999985    1.36000001
   19.43610954   -1.00000000    4.90999985    1.36000001
   19.43944359   -1.00000000    4.90999985    1.60000002
   19.44249916   -1.00000000    4.90999985    1.51999998
   19.44583321   -1.00000000    4.90999985    1.48000002
   19.44916534   -1.00000000    4.90999985    1.50000000
   19.45222282   -1.00000000    4.90999985    1.55999994
   19.45555687   -1.00000000    4.90999985    1.53999996
   19.45861244   -1.00000000    4.90999985    1.55999994
   19.46194458   -1.00000000    4.90999985    1.58000004
   19.47222328   -1.00000000    4.90999985    1.33000004
   19.47555542   -1.00000000    4.90999985    1.51999998
   19.47861099  168.36700439    4.90999985    1.58000004
   19.48194504   28.07019997    4.90999985    1.64999998
   19.48527718  181.75799561    4.90999985    1.66999996
   19.48833275   -1.00000000    4.90999985    1.71000004
   19.49166679   -1.00000000    4.90999985    1.33000004
   19.49500084   -1.00000000    4.90999985    1.14999998
   19.49805641   -1.00000000    4.90999985    1.05999994
   19.50166702   -1.00000000    4.90999985    0.86000001
   19.50499916   -1.00000000    4.90999985    0.81999999
   19.51499939   -1.00000000    4.90999985    0.76999998
   19.51833344   -1.00000000    4.90999985    0.64999998
   19.52166557   -1.00000000    4.90999985    0.70999998
   19.52472115   -1.00000000    4.90999985    0.86000001
   19.52805519   -1.00000000    4.90999985    1.11000001
   19.53138924   -1.00000000    4.90999985    1.23000002
   19.53472137   -1.00000000    4.90999985    1.30999994
   19.53805542   -1.00000000    4.90999985    1.25000000
   19.54111099   -1.00000000    4.90999985    1.26999998
   19.54444313   -1.00000000    4.90999985    1.16999996
   19.54777718   -1.00000000    4.90999985    1.13000000
   19.55805397   -1.00000000    4.90999985    1.13000000
   19.56110954   -1.00000000    4.90999985    1.03999996
   19.56444359   -1.00000000    4.90999985    1.01999998
   19.56805611   -1.00000000    4.90999985    1.11000001
   19.57139015   -1.00000000    4.90999985    1.30999994
   19.57444572   -1.00000000    4.90999985    1.46000004
   19.57777786   -1.00000000    4.90999985    1.63000000
   19.58111191   -1.00000000    4.90999985    1.36000001
   19.58416748   -1.00000000    4.90999985    1.50000000
   19.58750153   -1.00000000    4.90999985    1.50000000
   19.59055710   -1.00000000    4.90999985    1.48000002
   19.59666824   -1.00000000    4.90999985    1.96000004
   19.60083389  232.12699890    4.90999985    2.13000011
   19.60416794  267.01199341    4.90999985    2.11999989
   19.60722351  203.20399475    4.90999985    2.11999989
   19.61055565  141.39500427    4.90999985    2.07999992
   19.61388969  177.07800293    4.90999985    2.09999990
   19.61694527   86.69619751    4.90999985    1.89999998
   19.62027740  366.41000366    4.90999985    1.75000000
   19.62222290  422.01998901    4.90999985    1.85000002
   19.62361145  300.64401245    4.90999985    1.88000000
   19.62500000  227.40400696    4.90999985    1.98000002
   19.62638855  226.03300476    4.90999985    2.09999990
   19.62777710  177.87399292    4.90999985    2.15000010
   19.62777710   86.69619751    4.90999985    1.89999998
   19.62777710  366.41000366    4.90999985    1.75000000
   19.62777710   -1.00000000    4.90999985    1.50000000
   19.62777710   -1.00000000    4.90999985    1.48000002
   19.62805557  232.12699890    4.90999985    2.13000011
   19.62805557  267.01199341    4.90999985    2.11999989
   19.62805557  203.20399475    4.90999985    2.11999989
   19.62805557  141.39500427    4.90999985    2.07999992
   19.62805557  177.07800293    4.90999985    2.09999990
   19.62861061  288.52499390    4.90999985    2.15000010
   19.63194466  313.47500610    4.90999985    1.91999996
   19.63388824  285.39898682    4.90999985    1.83000004
   19.63527679  243.13299561    4.90999985    1.78999996
   19.63666725  456.00100708    4.90999985    1.80999994
   19.63805580  420.44000244    4.90999985    1.83000004
   19.63944435  273.16198730    4.90999985    1.88000000
   19.64083290  219.69400024    4.90999985    2.11999989
   19.64083290  288.52499390    4.90999985    2.15000010
   19.64083290  313.47500610    4.90999985    1.91999996
   19.64138794  207.08399963    4.90999985    2.11999989
   19.64472198  283.40798950    4.90999985    2.23000002
   19.64777756  339.39999390    4.90999985    1.94000006
   19.64999962  244.67399597    4.90999985    1.94000006
   19.65111160  331.82501221    4.90999985    1.94000006
   19.65250015  278.57199097    4.90999985    1.98000002
   19.65388870  230.05099487    4.90999985    2.01999998
   19.65527725  449.58401489    4.90999985    1.91999996
   19.65666580  412.78201294    4.90999985    1.88000000
   19.65805435  432.96398926    4.90999985    1.88000000
   19.65944481  350.10900879    4.90999985    1.85000002
   19.66083336  316.16299438    4.90999985    1.88000000
   19.66222191  324.98999023    4.90999985    2.01999998
   19.66361046  263.60101318    4.90999985    2.05999994
   19.66499901  282.05801392    4.90999985    2.07999992
   19.66638756  243.71000671    4.90999985    2.11999989
   19.66777802  215.47700500    4.90999985    2.17000008
   19.66777802  207.08399963    4.90999985    2.11999989
   19.66805458  283.40798950    4.90999985    2.23000002
   19.66805458  339.39999390    4.90999985    1.94000006
   19.66860962  190.43800354    4.90999985    2.23000002
   19.67166519  237.00900269    4.90999985    2.28999996
   19.67499924  202.59899902    4.90999985    2.28999996
   19.67833328  157.57299805    4.90999985    2.26999998
   19.68138885  299.48098755    4.90999985    2.15000010
   19.68472099  320.41900635    4.90999985    1.98000002
   19.68666649  201.94000244    4.90999985    1.91999996
   19.68666649  190.43800354    4.90999985    2.23000002
   19.68694305  237.00900269    4.90999985    2.28999996
   19.68694305  202.59899902    4.90999985    2.28999996
   19.68694305  157.57299805    4.90999985    2.26999998
   19.68694305  299.48098755    4.90999985    2.15000010
   19.68694305  320.41900635    4.90999985    1.98000002
   19.68888855   -1.00000000    4.90999985    1.69000006
   19.69222069   62.85860062    4.90999985    1.41999996
   19.69555473  153.81300354    4.90999985    1.58000004
   19.69861031  181.24800110    4.90999985    1.73000002
   19.70194435  352.58898926    4.90999985    1.76999998
   19.70388985  327.99398804    4.90999985    1.83000004
   19.70527840  414.10299683    4.90999985    1.86000001
   19.70666695  255.72500610    4.90999985    1.86000001
   19.70805550  238.93200684    4.90999985    1.83000004
   19.70944595  277.93798828    4.90999985    1.75000000
   19.71083450  432.17001343    4.90999985    1.73000002
   19.71222305  491.21398926    4.90999985    1.76999998
   19.71361160  316.23699951    4.90999985    1.86000001
   19.71500015  338.97900391    4.90999985    1.89999998
   19.71638870  314.52899170    4.90999985    1.91999996
   19.71777916  243.79699707    4.90999985    1.85000002
   19.71916771  204.47999573    4.90999985    1.73000002
   19.71916771   -1.00000000    4.90999985    1.69000006
   19.71916771   62.85860062    4.90999985    1.41999996
   19.71916771  153.81300354    4.90999985    1.58000004
   19.71944427  181.24800110    4.90999985    1.73000002
   19.71944427  352.58898926    4.90999985    1.76999998
   19.72000122  199.94299316    4.90999985    1.66999996
   19.72333336  401.69299316    4.90999985    1.78999996
   19.72527885  393.97299194    4.90999985    1.83000004
   19.72638893  291.49398804    4.90999985    1.80999994
   19.72777748  167.87399292    4.90999985    1.76999998
   19.72805595  199.94299316    4.90999985    1.66999996
   19.72805595  401.69299316    4.90999985    1.78999996
   19.72861099  121.66300201    4.90999985    1.76999998
   19.73166656  397.97799683    4.90999985    1.64999998
   19.73388863  427.97900391    4.90999985    1.76999998
   19.73500061  449.21398926    4.90999985    1.88000000
   19.73638916  311.68499756    4.90999985    1.88000000
   19.73777771  169.58399963    4.90999985    1.86000001
   19.73805618  121.66300201    4.90999985    1.76999998
   19.73805618  397.97799683    4.90999985    1.64999998
   19.73861122  135.75999451    4.90999985    1.80999994
   19.74166679   60.69269943    4.90999985    1.63000000
   19.74500084   -1.00000000    4.90999985    1.58000004
   19.74833298   -1.00000000    4.90999985    1.50000000
   19.75138855   -1.00000000    4.90999985    1.39999998
   19.75472260   -1.00000000    4.90999985    1.53999996
   19.75888824   -1.00000000    4.90999985    1.58000004
   19.76277733  335.31201172    4.90999985    1.76999998
   19.76499939  360.15100098    4.90999985    1.85000002
   19.76611137  338.66900635    4.90999985    1.83000004
   19.76749992  234.85499573    4.90999985    1.85000002
   19.76888847  327.60800171    4.90999985    1.88000000
   19.77027702  471.19198608    4.90999985    1.89999998
   19.77166557  248.55900574    4.90999985    1.88000000
   19.77305603  264.29598999    4.90999985    2.00000000
   19.77444458  229.50799561    4.90999985    2.03999996
   19.77583313  167.36399841    4.90999985    2.07999992
   19.77583313  135.75999451    4.90999985    1.80999994
   19.77611160   60.69269943    4.90999985    1.63000000
   19.77611160   -1.00000000    4.90999985    1.58000004
   19.77611160   -1.00000000    4.90999985    1.50000000
   19.77611160   -1.00000000    4.90999985    1.39999998
   19.77638817   -1.00000000    4.90999985    1.53999996
   19.77638817  335.31201172    4.90999985    1.76999998
   19.77694511  303.15399170    4.90999985    2.09999990
   19.77888870  255.59199524    4.90999985    2.01999998
   19.78027725  183.93099976    4.90999985    2.01999998
   19.78027725  303.15399170    4.90999985    2.09999990
   19.78138924  154.96600342    4.90999985    2.00000000
   19.78472137   82.12539673    4.90999985    1.58000004
   19.78777695  457.73599243    4.90999985    1.71000004
   19.78972244  244.09700012    4.90999985    1.98000002
   19.79111099  154.96600342    4.90999985    2.00000000
   19.79111099   82.12539673    4.90999985    1.58000004
   19.79138756  457.73599243    4.90999985    1.71000004
   19.79249954   -1.00000000    4.90999985    1.60000002
   19.79555511   -1.00000000    4.90999985    1.41999996
   19.79888916   -1.00000000    4.90999985    1.21000004
   19.80194283   -1.00000000    4.90999985    1.13000000
   19.80527687   -1.00000000    4.90999985    1.26999998
   19.81583214   -1.00000000    4.90999985    1.03999996
   19.81916809   -1.00000000    4.90999985    1.60000002
   19.82250023   -1.00000000    4.90999985    1.60000002
   19.82583427   -1.00000000    4.90999985    1.69000006
   19.82916832   -1.00000000    4.90999985    1.88000000
   19.83222389   -1.00000000    4.90999985    2.11999989
   19.83555603   -1.00000000    4.90999985    2.09999990
   19.83889008   -1.00000000    4.90999985    2.17000008
   19.84194565   -1.00000000    4.90999985    2.09999990
   19.84527779   -1.00000000    4.90999985    2.07999992
   19.84833336   -1.00000000    4.90999985    2.17000008
   19.85916710   -1.00000000    4.90999985    2.15000010
   19.86222267   -1.00000000    4.90999985    2.17000008
   19.86555672   -1.00000000    4.90999985    2.01999998
   19.86888885   -1.00000000    4.90999985    1.80999994
   19.87194443   -1.00000000    4.90999985    1.73000002
   19.87527847   -1.00000000    4.90999985    1.91999996
   19.87833405   -1.00000000    4.90999985    2.03999996
   19.88166618   -1.00000000    4.90999985    1.88000000
   19.88500023   -1.00000000    4.90999985    2.00000000
   19.88805580   -1.00000000    4.90999985    2.15000010
   19.89138794   -1.00000000    4.90999985    2.13000011
   19.90166664   -1.00000000    4.90999985    1.76999998
   19.90472221   -1.00000000    4.90999985    1.64999998
   19.90805435   -1.00000000    4.90999985    1.53999996
   19.91138840   -1.00000000    4.90999985    1.75000000
   19.91444397   -1.00000000    4.90999985    1.85000002
   19.91777802   -1.00000000    4.90999985    2.21000004
   19.92111015   -1.00000000    4.90999985    2.13000011
   19.92416573   -1.00000000    4.90999985    1.89999998
   19.92777634   -1.00000000    4.90999985    1.69000006
   19.93111038   -1.00000000    4.90999985    1.64999998
   19.93416595   -1.00000000    4.90999985    1.91999996
   19.94444275   -1.00000000    4.90999985    1.88000000
   19.94777679   -1.00000000    4.90999985    1.94000006
   19.95083427   -1.00000000    4.90999985    1.98000002
   19.95416832   -1.00000000    4.90999985    1.96000004
   19.95750046   -1.00000000    4.90999985    2.15000010
   19.96083450   -1.00000000    4.90999985    2.25000000
   19.96416664   -1.00000000    4.90999985    2.15000010
   19.96722221   -1.00000000    4.90999985    1.91999996
   19.97055626   -1.00000000    4.90999985    2.15000010
   19.97389030   -1.00000000    4.90999985    2.50000000
   19.97694588   -1.00000000    4.90999985    2.48000002
   19.98722267   -1.00000000    4.90999985    2.26999998
