    HOUR (UT)   FLARE FACTOR    SKY TESTER    SUN TESTER
   11.21000004   -1.00000000   -1.00000000   -1.00000000
   11.22972202  188.14599609    1.26999998    2.05999994
   11.23527813  176.67100525    1.26999998    2.05999994
   11.23888874  174.98899841    1.26999998    2.05999994
   11.24194431  194.29499817    1.26999998    2.05999994
   11.24527836  163.41700745    1.25000000    2.07999992
   11.24833393  170.53300476    1.25000000    2.07999992
   11.25166702  168.57099915    1.25000000    2.07999992
   11.25500011  177.51699829    1.23000002    2.07999992
   11.25805569  166.75399780    1.23000002    2.09999990
   11.26138878  177.03300476    1.23000002    2.09999990
   11.26305580  176.43499756    1.23000002    2.09999990
   11.26500034  181.24299622    1.25000000    2.09999990
   11.26833344  182.12600708    1.25000000    2.09999990
   11.27138901  172.22200012    1.23000002    2.09999990
   11.27472210  176.45700073    1.25000000    2.09999990
   11.27805519  181.54499817    1.25000000    2.09999990
   11.28111076  190.09100342    1.25000000    2.09999990
   11.28444481  179.21200562    1.23000002    2.09999990
   11.28777790  179.49600220    1.23000002    2.11999989
   11.29083347  178.29600525    1.23000002    2.11999989
   11.29416752  185.48500061    1.25000000    2.11999989
   11.29638958  184.02799988    1.25000000    2.11999989
   11.29777813  180.80799866    1.25000000    2.11999989
   11.30111122  174.00700378    1.25000000    2.11999989
   11.30416679  182.54299927    1.23000002    2.11999989
   11.30749989  171.99299622    1.21000004    2.13000011
   11.31083393  183.34100342    1.23000002    2.13000011
   11.31388950  167.88299561    1.21000004    2.13000011
   11.31722260  173.20300293    1.21000004    2.13000011
   11.32055569  174.15299988    1.21000004    2.13000011
   11.32361126  167.18699646    1.21000004    2.15000010
   11.32694435  163.64900208    1.21000004    2.15000010
   11.32972240  175.06199646    1.19000006    2.13000011
   11.33055592  171.59500122    1.19000006    2.13000011
   11.33388901  169.91499329    1.19000006    2.15000010
   11.33694458  177.64599609    1.19000006    2.13000011
   11.34027767  165.90499878    1.19000006    2.13000011
   11.34361076  166.34899902    1.19000006    2.13000011
   11.34666634  175.30200195    1.19000006    2.15000010
   11.35000038  180.11599731    1.19000006    2.17000008
   11.35333347  172.59199524    1.19000006    2.17000008
   11.35638905  181.48399353    1.19000006    2.17000008
   11.35972214  161.33500671    1.19000006    2.15000010
   11.36305618  164.48199463    1.19000006    2.17000008
   11.36333370  167.91700745    1.16999996    2.17000008
   11.36666679  174.32000732    1.16999996    2.17000008
   11.36972237  168.71600342    1.16999996    2.17000008
   11.37333393  175.31900024    1.16999996    2.19000006
   11.37638855  170.55400085    1.16999996    2.17000008
   11.37972260  162.90699768    1.16999996    2.17000008
   11.38277817  172.48500061    1.16999996    2.19000006
   11.38611126  172.26400757    1.16999996    2.19000006
   11.38944435  156.31199646    1.16999996    2.19000006
   11.39249992  168.59300232    1.16999996    2.19000006
   11.39583302  171.38800049    1.16999996    2.19000006
   11.39638901  163.89799500    1.16999996    2.19000006
   11.39916611  166.22099304    1.16999996    2.19000006
   11.40249920  151.96400452    1.16999996    2.19000006
   11.40583324  156.86700439    1.16999996    2.19000006
   11.40888882  163.99600220    1.16999996    2.21000004
   11.41222191  174.96800232    1.16999996    2.21000004
   11.41527748  158.11500549    1.16999996    2.21000004
   11.41861153  158.61700439    1.16999996    2.21000004
   11.42194462  162.07099915    1.16999996    2.21000004
   11.42500019  154.34599304    1.16999996    2.21000004
   11.42833328  148.28799438    1.16999996    2.21000004
   11.42972279  152.09700012    1.16999996    2.21000004
   11.43194485  154.27499390    1.16999996    2.21000004
   11.43527794  153.55400085    1.16999996    2.21000004
   11.43861103  152.92900085    1.16999996    2.21000004
   11.44166660  151.59700012    1.14999998    2.23000002
   11.44499969  145.95399475    1.14999998    2.21000004
   11.44833374  147.47700500    1.14999998    2.23000002
   11.45138836  149.64199829    1.14999998    2.23000002
   11.45472240  156.97300720    1.14999998    2.23000002
   11.45805550  154.19999695    1.14999998    2.23000002
   11.46111107  160.19200134    1.13000000    2.25000000
   11.46305561  160.11999512    1.13000000    2.25000000
   11.46472168  152.44500732    1.13000000    2.25000000
   11.46805477  146.49200439    1.13000000    2.25000000
   11.47138882  147.20700073    1.13000000    2.25000000
   11.47444439  153.44400024    1.11000001    2.25000000
   11.47777748  150.36599731    1.11000001    2.25000000
   11.48111057  156.78999329    1.09000003    2.25000000
   11.48416710  161.28700256    1.09000003    2.25000000
   11.48750019  160.35699463    1.07000005    2.25000000
   11.49083328  163.70899963    1.07000005    2.25000000
   11.49388885  139.92900085    1.07000005    2.25000000
   11.49638939  147.94299316    1.05999994    2.25000000
   11.49750042  158.49899292    1.05999994    2.25000000
   11.50083351  150.73500061    1.05999994    2.25000000
   11.50416660  129.88900757    1.05999994    2.25000000
   11.50722218  135.58299255    1.05999994    2.25000000
   11.51055527  142.22000122    1.05999994    2.26999998
   11.51388931  133.35499573    1.05999994    2.26999998
   11.51694393  127.16400146    1.05999994    2.26999998
   11.52027798  143.46400452    1.05999994    2.26999998
   11.52333355  142.47799683    1.05999994    2.28999996
   11.52666664  122.98300171    1.05999994    2.26999998
   11.52972221  122.22000122    1.05999994    2.28999996
   11.53027725  130.10600281    1.05999994    2.28999996
   11.53361130  130.64700317    1.05999994    2.28999996
   11.53694534  144.75999451    1.05999994    2.28999996
   11.54000092  131.25900269    1.05999994    2.28999996
   11.54333401  135.05099487    1.05999994    2.28999996
   11.54666710  148.09300232    1.05999994    2.28999996
   11.54972267  153.82000732    1.05999994    2.28999996
   11.55305576  148.95399475    1.05999994    2.28999996
   11.55611134  136.42599487    1.05999994    2.28999996
   11.55944443  140.82899475    1.05999994    2.28999996
   11.56277752  137.65899658    1.05999994    2.30999994
   11.56333351  141.90400696    1.05999994    2.30999994
   11.56666660  137.32499695    1.07000005    2.28999996
   11.56972218  151.53399658    1.07000005    2.28999996
   11.57305527  160.05799866    1.05999994    2.30999994
   11.57638836  149.89500427    1.05999994    2.30999994
   11.57944393  143.59899902    1.05999994    2.30999994
   11.58277798  143.80000305    1.05999994    2.30999994
   11.58611107  135.05799866    1.05999994    2.30999994
   11.58916664  139.69400024    1.05999994    2.30999994
   11.59249973  145.95100403    1.03999996    2.32999992
   11.59555531  111.29199982    1.03999996    2.32999992
   11.59666634  121.43299866    1.03999996    2.32999992
   11.59944439  128.50399780    1.03999996    2.32999992
   11.60249996  131.84700012    1.03999996    2.32999992
   11.60583401  122.30500031    1.01999998    2.32999992
   11.60916710  109.90699768    1.01999998    2.32999992
   11.61222267  141.59300232    1.03999996    2.32999992
   11.61555576  135.28500366    1.03999996    2.32999992
   11.61888885  144.69299316    1.03999996    2.32999992
   11.62194443  119.06800079    1.05999994    2.32999992
   11.62527752  140.15400696    1.07000005    2.34999990
   11.62833309  122.28500366    1.07000005    2.34999990
   11.63000011  118.21900177    1.09000003    2.32999992
   11.63222218  130.13600159    1.09000003    2.32999992
   11.63527775  137.00500488    1.07000005    2.32999992
   11.63861084  127.92700195    1.05999994    2.34999990
   11.64194393  129.94299316    1.05999994    2.34999990
   11.64499950  144.46600342    1.05999994    2.34999990
   11.64833355  130.87800598    1.05999994    2.34999990
   11.65166664  135.86999512    1.07000005    2.34999990
   11.65472221  133.52699280    1.09000003    2.34999990
   11.65805531  126.98400116    1.14999998    2.34999990
   11.66138840  142.16099548    1.14999998    2.34999990
   11.66333294  144.04800415    1.33000004    2.34999990
   11.66499996  136.97900391    1.33000004    2.34999990
   11.66805553  142.40400696    1.30999994    2.34999990
   11.67138958  139.43099976    1.23000002    2.36999989
   11.67472267  135.91700745    1.19000006    2.36999989
   11.67777824  156.80799866    1.19000006    2.36999989
   11.68111134  144.74600220    1.25000000    2.36999989
   11.68416691  131.71000671    1.33000004    2.36999989
   11.68750000  143.10499573    1.34000003    2.36999989
   11.69083309  146.00900269    1.30999994    2.36999989
   11.69388866  146.23699951    1.25000000    2.36999989
   11.69666672  151.97099304    1.25000000    2.36999989
   11.69777775  143.52499390    1.21000004    2.36999989
   11.70111084  149.19400024    1.09000003    2.36999989
   11.70416641  145.92900085    1.09000003    2.36999989
   11.70749950  153.85200500    1.09000003    2.36999989
   11.71083355  147.81199646    1.07000005    2.39000010
   11.71388912  151.25900269    1.05999994    2.36999989
   11.71722221  159.99699402    0.98000002    2.39000010
   11.72055531  149.66200256    1.00000000    2.39000010
   11.72361088  149.45899963    1.00000000    2.39000010
   11.72694397  146.90800476    1.01999998    2.39000010
   11.72999954  151.83900452    1.00000000    2.39000010
   11.73055553  145.04299927    1.00000000    2.39000010
   11.73361111  152.89399719    1.01999998    2.39000010
   11.73694515  141.85099792    1.01999998    2.39000010
   11.74027824  155.73100281    1.03999996    2.39000010
   11.74333382  152.58299255    1.05999994    2.39000010
   11.74666691  153.53599548    1.03999996    2.40000010
   11.74972248  155.22099304    1.01999998    2.40000010
   11.75305557  144.87800598    1.01999998    2.40000010
   11.75638866  155.62600708    1.01999998    2.40000010
   11.75944424  155.09800720    1.00000000    2.40000010
   11.76277733  152.02000427    0.98000002    2.40000010
   11.76333332  145.73199463    0.98000002    2.40000010
   11.76638889  144.21600342    0.98000002    2.40000010
   11.76972198  147.06500244    1.00000000    2.40000010
   11.77277756  152.08700562    0.98000002    2.40000010
   11.77611065  149.68299866    0.95999998    2.40000010
   11.77916622  153.18699646    0.94000000    2.40000010
   11.78249931  147.14399719    0.94000000    2.40000010
   11.78583336  148.18499756    0.94000000    2.40000010
   11.78888893  148.24200439    0.94000000    2.40000010
   11.79222298  159.68400574    0.92000002    2.40000010
   11.79555607  144.06199646    0.94000000    2.42000008
   11.79666710  151.40499878    0.94000000    2.42000008
   11.79916668  147.28500366    0.94000000    2.40000010
   11.80222225  152.63600159    0.92000002    2.40000010
   11.80555534  150.11199951    0.92000002    2.42000008
   11.80888939  147.56799316    0.92000002    2.42000008
   11.81194496  131.88200378    0.92000002    2.42000008
   11.81527805  139.00999451    0.92000002    2.42000008
   11.81861115  151.61000061    0.89999998    2.42000008
   11.82166672  139.63900757    0.88000000    2.42000008
   11.82499981  152.84800720    0.88000000    2.42000008
   11.82805538  144.74600220    0.86000001    2.44000006
   11.82999992  137.39100647    0.86000001    2.44000006
   11.83194447  149.82800293    0.86000001    2.44000006
   11.83500004  143.48699951    0.86000001    2.44000006
   11.83833313  149.83700562    0.88000000    2.44000006
   11.84166622  145.22300720    0.89999998    2.44000006
   11.84472179  155.73100281    0.92000002    2.44000006
   11.84805489  152.61599731    0.94000000    2.44000006
   11.85138893  141.80900574    0.94000000    2.44000006
   11.85444450  152.93400574    0.92000002    2.44000006
   11.85777855  140.83399963    0.92000002    2.44000006
   11.86083412  143.87100220    0.92000002    2.44000006
   11.86333370  150.31599426    0.92000002    2.44000006
   11.86472225  146.71499634    0.92000002    2.44000006
   11.86805534  159.90100098    0.94000000    2.44000006
   11.87111092  145.50199890    0.94000000    2.44000006
   11.87444496  143.13999939    0.95999998    2.44000006
   11.87750053  139.99600220    0.95999998    2.44000006
   11.88083363  135.68600464    0.95999998    2.44000006
   11.88416672  145.78399658    0.95999998    2.44000006
   11.88722229  137.04600525    0.95999998    2.46000004
   11.89055538  144.31399536    0.94000000    2.46000004
   11.89388847  150.36799622    0.94000000    2.44000006
   11.89666653  151.37800598    0.92000002    2.44000006
   11.89750004  151.92100525    0.92000002    2.44000006
   11.90083313  143.70300293    0.92000002    2.46000004
   11.90388870  147.24800110    0.92000002    2.46000004
   11.90722179  145.36599731    0.92000002    2.46000004
   11.91027737  151.03599548    0.94000000    2.46000004
   11.91361046  137.72700500    0.95999998    2.46000004
   11.91694450  135.94999695    0.95999998    2.48000002
   11.92000008  145.57600403    0.94000000    2.48000002
   11.92333412  142.18800354    0.94000000    2.46000004
   11.92666721  149.37699890    0.92000002    2.46000004
   11.92972279  143.03100586    0.92000002    2.46000004
   11.93027782  141.04200745    0.89999998    2.46000004
   11.93361092  148.32800293    0.89999998    2.46000004
   11.93666649  145.32800293    0.89999998    2.48000002
   11.94000053  148.01600647    0.88000000    2.48000002
   11.94333363  146.17999268    0.88000000    2.48000002
   11.94638920  130.31100464    0.88000000    2.48000002
   11.94972229  143.88999939    0.89999998    2.48000002
   11.95277786  144.99099731    0.88000000    2.48000002
   11.95611095  145.03700256    0.88000000    2.48000002
   11.95944405  137.00399780    0.88000000    2.48000002
   11.96249962  143.00000000    0.86000001    2.48000002
   11.96361065  139.70599365    0.86000001    2.48000002
   11.96638870  137.61900330    0.86000001    2.48000002
   11.96944427  147.92500305    0.86000001    2.48000002
   11.97277737  150.79200745    0.83999997    2.48000002
   11.97611046  137.54400635    0.83999997    2.48000002
   11.97916603  134.91900635    0.81999999    2.48000002
   11.98249912  139.21400452    0.81999999    2.48000002
   11.98555565  133.92399597    0.79000002    2.48000002
   11.98888874  139.76300049    0.75000000    2.50000000
   11.99222279  132.43600464    0.75000000    2.50000000
   11.99527836  144.85499573    0.75000000    2.50000000
   11.99694443  131.72399902    0.75000000    2.50000000
   11.99916649  147.53599548    0.73000002    2.50000000
   12.00222206  143.85400391    0.73000002    2.48000002
   12.00555515  140.66600037    0.70999998    2.50000000
   12.00888920  141.57400513    0.70999998    2.50000000
   12.01194477  130.35299683    0.70999998    2.50000000
   12.01527786  137.54499817    0.73000002    2.50000000
   12.01833344  144.57400513    0.75000000    2.50000000
   12.02166653  145.61900330    0.73000002    2.50000000
   12.02499962  146.06399536    0.73000002    2.50000000
   12.02805519  149.08099365    0.75000000    2.51999998
   12.03027725  146.03199768    0.75000000    2.51999998
   12.03194427  150.11300659    0.76999998    2.51999998
   12.03500080  148.18499756    0.79000002    2.51999998
   12.03833389  142.23599243    0.80000001    2.51999998
   12.04166698  141.23399353    0.80000001    2.51999998
   12.04472256  140.89399719    0.83999997    2.51999998
   12.04805565  153.56799316    0.83999997    2.51999998
   12.05111122  149.70700073    0.83999997    2.51999998
   12.05444431  142.54499817    0.81999999    2.51999998
   12.05777836  149.80700684    0.83999997    2.51999998
   12.06083393  153.45799255    0.83999997    2.51999998
   12.06361103  149.88200378    0.83999997    2.51999998
   12.06472206  146.36500549    0.83999997    2.51999998
   12.06777763  148.18800354    0.86000001    2.51999998
   12.07111073  139.88900757    0.88000000    2.51999998
   12.07444477  137.74499512    0.86000001    2.51999998
   12.07750034  139.01300049    0.88000000    2.51999998
   12.08083344  150.02400208    0.88000000    2.51999998
   12.08388901  148.85299683    0.88000000    2.51999998
   12.08722210  143.12300110    0.86000001    2.51999998
   12.09055519  149.26499939    0.88000000    2.51999998
   12.09361076  139.88800049    0.88000000    2.51999998
   12.09694386  150.15499878    0.88000000    2.51999998
   12.09749985  148.94500732    0.88000000    2.51999998
   12.10055637  145.54600525    0.88000000    2.53999996
   12.10388947  149.20300293    0.88000000    2.53999996
   12.10722256  142.78799438    0.89999998    2.51999998
   12.11027813  151.86099243    0.89999998    2.51999998
   12.11361122  150.40899658    0.89999998    2.51999998
   12.11666679  143.79299927    0.88000000    2.51999998
   12.11999989  145.20799255    0.88000000    2.53999996
   12.12333393  143.09700012    0.88000000    2.51999998
   12.12638855  147.54600525    0.83999997    2.53999996
   12.12972260  151.61999512    0.83999997    2.53999996
   12.13055611  151.31799316    0.83999997    2.53999996
   12.13333321  154.03599548    0.83999997    2.53999996
   12.13666630  148.93200684    0.86000001    2.53999996
   12.14000034  146.80400085    0.86000001    2.53999996
   12.14305496  148.53199768    0.86000001    2.53999996
   12.14638901  154.43200684    0.86000001    2.53999996
   12.14944458  144.93099976    0.88000000    2.53999996
   12.15277767  145.39999390    0.89999998    2.55999994
   12.15611076  145.71699524    0.98000002    2.55999994
   12.15916634  143.13400269    0.88000000    2.55999994
   12.16249943  143.52999878    0.88000000    2.55999994
   12.16361046  139.04899597    0.89999998    2.55999994
   12.16611099  143.32200623    0.89999998    2.55999994
   12.16916656  138.11000061    0.94000000    2.55999994
   12.17250061  151.74600220    0.89999998    2.55999994
   12.17583370  144.72300720    0.95999998    2.55999994
   12.17888927  139.51899719    0.95999998    2.55999994
   12.18222237  142.65499878    0.94000000    2.55999994
   12.18555546  143.89999390    0.94000000    2.55999994
   12.18861103  144.44799805    0.94000000    2.55999994
   12.19194412  141.54100037    0.94000000    2.55999994
   12.19499969  146.43600464    0.95999998    2.55999994
   12.19694424  149.30099487    0.95999998    2.55999994
   12.19888878  141.94400024    0.95999998    2.55999994
   12.20222187  146.96000671    0.94000000    2.55999994
   12.20527744  142.96499634    0.95999998    2.55999994
   12.20861053  142.28100586    0.92000002    2.55999994
   12.21166611  144.56199646    0.81999999    2.55999994
   12.21500015  154.03100586    0.80000001    2.55999994
   12.21833324  144.50300598    0.80000001    2.55999994
   12.22138882  144.18200684    0.81999999    2.55999994
   12.22472191  140.52400208    0.80000001    2.55999994
   12.22805500  146.45899963    0.80000001    2.55999994
   12.24638939  151.16200256    0.86000001    2.55999994
   12.24777794  147.11300659    0.86000001    2.55999994
   12.25111103  146.25599670    0.92000002    2.57999992
   12.25444412  143.63800049    0.92000002    2.55999994
   12.25749969  155.67999268    0.92000002    2.55999994
   12.26083374  155.21000671    0.92000002    2.55999994
   12.26416683  146.43200684    0.88000000    2.57999992
   12.26722240  142.71099854    0.92000002    2.57999992
   12.27055550  135.60299683    0.92000002    2.57999992
   12.27361107  145.06100464    0.80000001    2.57999992
   12.27694416  142.87800598    0.81999999    2.57999992
   12.27944374  153.44299316    0.81999999    2.57999992
   12.28055573  146.70899963    0.81999999    2.57999992
   12.28388977  145.25300598    0.79000002    2.57999992
   12.28694534  153.20199585    0.79000002    2.57999992
   12.29027843  141.39100647    0.88000000    2.57999992
   12.29361153  144.00399780    0.88000000    2.57999992
   12.29666710  148.83599854    0.86000001    2.57999992
   12.30000019  143.99800110    0.83999997    2.59999990
   12.30305576  149.83700562    0.81999999    2.59999990
   12.30638885  148.71400452    0.83999997    2.59999990
   12.30972195  148.29699707    0.88000000    2.59999990
   12.31277752  148.87899780    0.95999998    2.57999992
   12.31361103  147.79100037    0.95999998    2.57999992
   12.31694412  143.86199951    0.95999998    2.59999990
   12.31999969  142.84300232    0.98000002    2.57999992
   12.32333374  141.55200195    0.98000002    2.57999992
   12.32638836  150.14300537    0.94000000    2.59999990
   12.32972240  145.65100098    0.86000001    2.59999990
   12.33305550  144.95100403    0.89999998    2.59999990
   12.33611107  154.55299377    0.94000000    2.59999990
   12.33944416  147.88699341    0.92000002    2.59999990
   12.34277725  141.69299316    1.01999998    2.59999990
   12.34583282  150.70100403    1.01999998    2.59999990
   12.34638882  141.14999390    0.94000000    2.59999990
   12.34944439  154.57800293    0.94000000    2.59999990
   12.35249996  147.99499512    0.95999998    2.59999990
   12.35583401  146.50700378    1.00000000    2.59999990
   12.35888958  147.74600220    1.09000003    2.59999990
   12.36222267  150.75300598    1.00000000    2.59999990
   12.36555576  151.18800354    0.95999998    2.59999990
   12.36861134  146.18800354    0.98000002    2.59999990
   12.37194443  151.94500732    0.98000002    2.59999990
   12.37527752  147.30799866    1.00000000    2.59999990
   12.37833309  139.36199951    1.03999996    2.59999990
   12.37972260  150.87500000    1.03999996    2.59999990
   12.38222218  143.15699768    1.01999998    2.59999990
   12.38527775  144.09599304    1.01999998    2.59999990
   12.38861084  149.59500122    1.07000005    2.59999990
   12.39166641  140.58599854    1.09000003    2.59999990
   12.39499950  147.33099365    1.01999998    2.59999990
   12.39833355  144.48699951    1.00000000    2.59999990
   12.40138817  152.46200562    1.00000000    2.59999990
   12.40472221  136.13099670    1.01999998    2.59999990
   12.40805531  142.40100098    1.01999998    2.59999990
   12.41111088  125.95200348    1.03999996    2.61999989
   12.41305542  102.24500275    1.01999998    2.61999989
   12.41499996  141.21000671    1.01999998    2.61999989
   12.41805553  144.22099304    0.94000000    2.61999989
   12.42138958  139.17599487    0.88000000    2.61999989
   12.42472267  146.04899597    0.83999997    2.61999989
   12.42777824  139.66299438    0.86000001    2.61999989
   12.43111134  138.80999756    0.86000001    2.61999989
   12.43444443  142.17599487    0.89999998    2.61999989
   12.43750000  141.28500366    0.89999998    2.61999989
   12.44083309  144.75100708    0.95999998    2.61999989
   12.44416714  131.05999756    0.95999998    2.61999989
   12.44638920  136.30700684    0.95999998    2.61999989
   12.44777775  123.89800262    0.98000002    2.61999989
   12.45083332  134.36199951    1.01999998    2.61999989
   12.45416641  138.26800537    1.07000005    2.61999989
   12.45722198  135.02299500    1.09000003    2.61999989
   12.46055508  142.95599365    1.11000001    2.61999989
   12.46388912  144.91299438    1.09000003    2.61999989
   12.46694374  137.46299744    1.07000005    2.61999989
   12.47027779  139.77799988    1.05999994    2.61999989
   12.47361088  133.54699707    1.05999994    2.61999989
   12.47666645  139.88999939    0.98000002    2.64000010
   12.47972202  133.42599487    0.98000002    2.64000010
   12.48027706  131.44200134    0.95999998    2.64000010
   12.48333359  139.30700684    0.83999997    2.64000010
   12.48666668  135.56100464    0.83999997    2.64000010
   12.49000072  139.31799316    0.83999997    2.64000010
   12.49305534  134.45599365    0.83999997    2.64000010
   12.49638939  136.45700073    0.83999997    2.64000010
   12.49944496  137.24200439    0.81999999    2.64000010
   12.50277805  138.68800354    0.83999997    2.64000010
   12.50611115  138.00100708    0.83999997    2.64000010
   12.50916672  139.13800049    0.83999997    2.64000010
   12.51249981  132.94999695    0.81999999    2.64000010
   12.51305580  135.52699280    0.81999999    2.64000010
   12.51611137  136.47799683    0.81999999    2.64000010
   12.51916599  133.13900757    0.80000001    2.64000010
   12.52250004  133.39500427    0.81999999    2.64000010
   12.52583313  134.07000732    0.83999997    2.64000010
   12.52888870  135.06900024    0.83999997    2.64000010
   12.53222179  137.46899414    0.83999997    2.64000010
   12.53527832  134.66499329    0.83999997    2.64000010
   12.53861141  132.47700500    0.83999997    2.64000010
   12.54194450  133.37100220    0.83999997    2.64000010
   12.54500008  138.31799316    0.76999998    2.66000009
   12.54638958  138.25599670    0.79000002    2.64000010
   12.54888916  138.96899414    0.79000002    2.64000010
   12.55194473  136.25700378    0.76999998    2.64000010
   12.55527782  138.86599731    0.76999998    2.64000010
   12.55861092  138.46499634    0.80000001    2.66000009
   12.56166649  141.84100342    0.83999997    2.64000010
   12.56500053  139.34500122    0.89999998    2.64000010
   12.56805515  137.13000488    0.89999998    2.64000010
   12.57138920  134.03500366    0.94000000    2.66000009
   12.57472229  139.18899536    0.94000000    2.64000010
   12.57777786  138.35400391    0.92000002    2.66000009
   12.57972240  132.39700317    0.92000002    2.66000009
   12.58166695  135.16099548    0.88000000    2.64000010
   12.58472157  139.23399353    0.88000000    2.66000009
   12.58805561  133.75599670    0.94000000    2.64000010
   12.59138870  141.89900208    0.94000000    2.64000010
   12.59444427  137.20199585    0.94000000    2.64000010
   12.59777737  134.00000000    0.95999998    2.66000009
   12.70083332   -1.00000000   -1.00000000   -1.00000000
   12.79944515   -1.00000000   -1.00000000   -1.00000000
   12.89888859   -1.00000000   -1.00000000   -1.00000000
   12.93861103   83.20580292    1.28999996    2.71000004
   12.94194412  139.57699585    1.39999998    2.71000004
   12.94527817  142.12800598    1.71000004    2.71000004
   12.94833374  137.24099731    1.63000000    2.71000004
   12.95166683  139.68099976    1.46000004    2.71000004
   12.95499992  137.77400208    1.39999998    2.71000004
   12.95888901  137.77400208    1.30999994    2.71000004
   12.96305561  135.02799988    1.19000006    2.71000004
   12.96638870  134.83599854    1.19000006    2.71000004
   12.96972179  132.32099915    1.16999996    2.71000004
   12.97194386  129.86300659    1.11000001    2.71000004
   12.97333336  132.69999695    1.11000001    2.71000004
   12.97638798  142.45899963    0.98000002    2.71000004
   12.97972202  132.69099426    1.01999998    2.71000004
   12.98277760  134.54100037    1.07000005    2.71000004
   12.98611164  132.91999817    1.03999996    2.71000004
   12.98944473  128.63999939    1.16999996    2.71000004
   12.99250031  135.51100159    1.16999996    2.71000004
   12.99583340  139.42900085    1.25000000    2.71000004
   13.00194454  139.42900085    1.01999998    2.71000004
   13.00611115  130.02699280    1.00000000    2.71000004
   13.00916672  132.23899841    1.00000000    2.71000004
   13.01249981  131.01899719    1.11000001    2.71000004
   13.01555538  128.27299500    1.11000001    2.71000004
   13.01888847  135.94700623    1.14999998    2.71000004
   13.02222157  134.89100647    1.13000000    2.71000004
   13.02527714  134.99899292    1.14999998    2.71000004
   13.02861118  137.34500122    1.16999996    2.71000004
   13.03194427  136.04299927    1.16999996    2.71000004
   13.03527832  133.00599670    1.33000004    2.71000004
   13.03833389  138.36700439    1.48000002    2.71000004
   13.03888893  126.94200134    1.48000002    2.71000004
   13.04472256  126.94200134    1.44000006    2.71000004
   13.04888916  131.76100159    1.36000001    2.71000004
   13.05194473  125.30300140    1.30999994    2.71000004
   13.05527782  131.39900208    1.34000003    2.71000004
   13.05861092  134.71200562    1.30999994    2.71000004
   13.06166649  130.19900513    1.33000004    2.71000004
   13.06500053  128.80400085    1.36000001    2.71000004
   13.06833363  131.53799438    1.39999998    2.73000002
   13.07138920  138.17300415    1.41999996    2.71000004
   13.07222176  135.76600647    1.41999996    2.71000004
   13.07499981  138.18600464    1.41999996    2.71000004
   13.07805538  135.36399841    1.38000000    2.71000004
   13.08138847  136.44500732    1.36000001    2.71000004
   13.08749962  136.44500732    1.48000002    2.73000002
   13.09166622  139.29299927    1.55999994    2.71000004
   13.09499931  133.90699768    1.61000001    2.73000002
   13.09805489  137.13600159    1.51999998    2.73000002
   13.10138893  135.75500488    1.50000000    2.71000004
   13.10472298  132.36999512    1.50000000    2.71000004
   13.10555553  133.62100220    1.39999998    2.73000002
   13.10833359  135.76100159    1.39999998    2.73000002
   13.11166668  135.82200623    1.28999996    2.71000004
   13.11500072  135.49000549    1.25000000    2.73000002
   13.11805534  136.81799316    1.16999996    2.73000002
   13.12138939  133.50999451    1.03999996    2.73000002
   13.12444496  130.72399902    1.09000003    2.73000002
   13.13055611  130.72399902    1.09000003    2.73000002
   13.13444424  136.06399536    1.16999996    2.73000002
   13.13777733  132.22799683    1.23000002    2.73000002
   13.13888836  136.04499817    1.25000000    2.73000002
   13.14138889  134.03700256    1.25000000    2.73000002
   13.14472198  129.34899902    1.23000002    2.73000002
   13.14777756  133.14300537    1.19000006    2.73000002
   13.15111065  137.08700562    1.23000002    2.71000004
   13.15444374  138.91299438    1.11000001    2.73000002
   13.15749931  137.40499878    1.11000001    2.73000002
   13.16083336  138.35000610    1.21000004    2.73000002
   13.16388893  137.30700684    1.28999996    2.73000002
   13.16722298  138.96600342    1.46000004    2.73000002
   13.17333412  138.96600342    1.58000004    2.73000002
   13.17750072  140.68699646    1.21000004    2.75000000
   13.18055630  137.63400269    1.21000004    2.75000000
   13.18388939  133.04899597    1.26999998    2.73000002
   13.18722248  135.86799622    1.33000004    2.73000002
   13.19027805  137.79499817    1.39999998    2.73000002
   13.19361115  134.10499573    1.58000004    2.73000002
   13.19666672  132.98100281    1.91999996    2.73000002
   13.19999981  136.88099670    1.91999996    2.73000002
   13.20333290  132.25100708    1.85000002    2.73000002
   13.20555496  129.30999756    1.53999996    2.73000002
   13.20694447  129.58099365    1.53999996    2.73000002
   13.21027756  133.68600464    1.50000000    2.73000002
   13.21611118  133.68600464    1.48000002    2.75000000
   13.22027779  132.90899658    1.48000002    2.73000002
   13.22333336  121.96399689    1.55999994    2.73000002
   13.22666645  129.90400696    1.61000001    2.73000002
   13.22999954  131.23899841    1.73000002    2.73000002
   13.23305511  135.50700378    1.71000004    2.75000000
   13.23638916  129.00999451    1.71000004    2.75000000
   13.23888874  133.99600220    1.71000004    2.75000000
   13.24000072  128.68699646    1.66999996    2.75000000
   13.24333382  130.89799500    1.66999996    2.73000002
   13.24638939  131.49600220    1.66999996    2.73000002
   13.24972248  133.76100159    1.98000002    2.73000002
   13.25277805  132.36300659    2.40000010    2.73000002
   13.25888920  132.36300659    2.82999992    2.73000002
   13.26305580  117.56500244    2.82999992    2.73000002
   13.26638889  131.48399353    2.73000002    2.73000002
   13.26944447  128.78500366    2.64000010    2.75000000
   13.27222157  130.50100708    2.53999996    2.73000002
   13.27305508  125.34799957    2.53999996    2.73000002
   13.27611065  126.82099915    2.50000000    2.75000000
   13.27944374  136.91600037    2.17000008    2.73000002
   13.28277779  131.07200623    1.85000002    2.75000000
   13.28583336  131.62199402    1.83000004    2.75000000
   13.28916740  129.13099670    1.80999994    2.75000000
   13.29222298  129.79200745    1.85000002    2.75000000
   13.29555607  135.00300598    1.73000002    2.73000002
   13.30166721  135.00300598    1.91999996    2.75000000
   13.30583382  132.14599609    2.00000000    2.75000000
   13.30916691  130.07699585    2.09999990    2.75000000
   13.31222248  129.98800659    2.00000000    2.73000002
   13.31555557  131.02900696    2.01999998    2.75000000
   13.31888866  135.22900391    1.96000004    2.75000000
   13.32194424  134.24499512    1.94000006    2.75000000
   13.32527733  133.52099609    1.91999996    2.75000000
   13.32861137  135.73899841    1.71000004    2.75000000
   13.33166695  135.50000000    1.63000000    2.75000000
   13.33500004  129.98100281    1.75000000    2.75000000
   13.33833313  133.36999512    1.61000001    2.75000000
   13.33888817  147.88200378    1.61000001    2.75000000
   13.34472179  147.88200378    2.00000000    2.75000000
   13.34861088  140.11300659    2.00000000    2.75000000
   13.35194492  136.13000488    2.05999994    2.75000000
   13.35527802  136.91099548    2.05999994    2.75000000
   13.35833359  132.00599670    2.01999998    2.75000000
   13.36166668  132.94599915    1.96000004    2.75000000
   13.36500072  136.19299316    1.80999994    2.75000000
   13.36805534  129.85899353    1.61000001    2.75000000
   13.37138939  131.73599243    1.50000000    2.75000000
   13.37222195  131.54800415    1.50000000    2.75000000
   13.37527752  135.55999756    1.58000004    2.75000000
   13.37833309  136.96400452    1.58000004    2.75000000
   13.38166714  130.08299255    1.34000003    2.76999998
   13.38749981  130.08299255    1.39999998    2.75000000
   13.39166641  134.45899963    1.44000006    2.75000000
   13.39472198  135.39100647    1.55999994    2.75000000
   13.39805508  142.08299255    1.55999994    2.75000000
   13.40138817  133.38099670    1.71000004    2.76999998
   13.40444374  130.20799255    1.76999998    2.75000000
   13.40555477  128.65699768    1.76999998    2.75000000
   13.40805531  134.72200012    1.85000002    2.75000000
   13.41138840  126.06800079    2.01999998    2.75000000
   13.41444397  127.26399994    2.07999992    2.75000000
   13.41777802  132.35899353    2.15000010    2.75000000
   13.42083359  131.47099304    2.15000010    2.76999998
   13.42416668  141.07000732    2.13000011    2.75000000
   13.43027782  141.07000732    2.09999990    2.75000000
   13.43444443  134.27799988    2.05999994    2.75000000
   13.43777752  132.49200439    2.09999990    2.75000000
   13.43888855  131.62100220    2.09999990    2.76999998
   13.44138908  129.46200562    2.17000008    2.75000000
   13.44472218  129.16200256    2.07999992    2.76999998
   13.44777775  131.48800659    1.91999996    2.76999998
   13.45111084  126.41799927    1.76999998    2.76999998
   13.45416641  126.29599762    1.76999998    2.76999998
   13.45749950  129.14999390    1.64999998    2.75000000
   13.46083355  127.08399963    1.71000004    2.75000000
   13.46388912  130.72500610    1.71000004    2.75000000
   13.46722221  130.95100403    1.69000006    2.75000000
   13.47305489  130.95100403    1.64999998    2.76999998
   13.47722149  131.51699829    1.58000004    2.76999998
   13.48055553  129.38600159    1.58000004    2.76999998
   13.48361111  136.30099487    1.58000004    2.76999998
   13.48694515  137.61799622    1.58000004    2.76999998
   13.49027824  132.25100708    1.26999998    2.76999998
   13.49333382  136.44500732    1.07000005    2.76999998
   13.49666691  135.49400330    0.79000002    2.76999998
   13.50000000  135.41099548    0.88000000    2.76999998
   13.50305557  138.65899658    0.92000002    2.76999998
   13.50555515  130.20300293    1.01999998    2.76999998
   13.50666714  134.80799866    1.01999998    2.76999998
   13.51000023  134.04200745    1.00000000    2.76999998
   13.51611137  134.04200745    1.13000000    2.76999998
   13.52027798  133.60499573    1.14999998    2.76999998
   13.52333355  140.17799377    1.05999994    2.76999998
   13.52666664  128.72700500    1.89999998    2.76999998
   13.52999973  137.48800659    1.98000002    2.76999998
   13.53305531  128.36300659    2.13000011    2.75000000
   13.53638935  137.52600098    2.03999996    2.76999998
   13.53888893  144.57600403    1.63000000    2.76999998
   13.54000092  133.63299561    1.46000004    2.76999998
   13.54333401  141.52099609    1.51999998    2.76999998
   13.54638958  136.41700745    1.58000004    2.76999998
   13.54972267  138.66400146    1.60000002    2.76999998
   13.55305576  146.54499817    1.60000002    2.76999998
   13.55888939  146.54499817    1.05999994    2.76999998
   13.56305599  147.25599670    1.05999994    2.76999998
   13.56611156  139.70899963    1.01999998    2.78999996
   13.56944466  147.77999878    1.03999996    2.76999998
   13.57250023  133.35400391    1.14999998    2.78999996
   13.57305527  136.68499756    1.14999998    2.78999996
   13.57638836  139.91099548    1.39999998    2.76999998
   13.57944393  131.57299805    1.53999996    2.76999998
   13.58277798  148.13299561    1.80999994    2.76999998
   13.58611107  137.01800537    2.05999994    2.76999998
   13.58916664  132.32699585    2.25000000    2.76999998
   13.59249973  130.10699463    2.39000010    2.76999998
   13.59555531  145.36199951    2.67000008    2.76999998
   13.60166740  145.36199951    2.01999998    2.76999998
   13.60583401  150.72300720    1.98000002    2.76999998
   13.60916710  144.82299805    2.21000004    2.76999998
   13.61222267  145.73199463    2.53999996    2.76999998
   13.61555576  148.95500183    2.94000006    2.75000000
   13.61888885  152.14599609    3.00000000    2.76999998
   13.62194443  158.32499695    2.50000000    2.76999998
   13.62527752  149.67500305    2.40000010    2.76999998
   13.62833309  154.02200317    1.83000004    2.76999998
   13.63166714  147.65699768    1.55999994    2.78999996
   13.63500023  152.09599304    1.55999994    2.78999996
   13.63805580  161.58799744    1.41999996    2.78999996
   13.63888836  161.53399658    1.41999996    2.78999996
   13.64444447  161.53399658    1.69000006    2.76999998
   13.64861107  147.54699707    1.60000002    2.78999996
   13.65194416  156.32899475    1.09000003    2.78999996
   13.65527725  134.35800171    1.30999994    2.78999996
   13.65833282  142.33500671    1.30999994    2.78999996
   13.66166592  168.82800293    0.86000001    2.78999996
   13.66472149  170.59800720    1.11000001    2.78999996
   13.66805553  159.64399719    1.50000000    2.78999996
   13.67138958  167.80999756    1.25000000    2.78999996
   13.67222214  156.80900574    1.25000000    2.78999996
   13.67500019  152.86099243    1.21000004    2.78999996
   13.67833328  152.08700562    0.86000001    2.78999996
   13.68138885  151.23300171    0.92000002    2.78999996
   13.68750000  151.23300171    1.05999994    2.78999996
   13.69138908  144.31199646    1.09000003    2.78999996
   13.69472218  152.57800293    1.09000003    2.78999996
   13.69805527  157.63299561    1.26999998    2.78999996
   13.70138836  151.35800171    1.41999996    2.78999996
   13.70444393  134.63200378    1.41999996    2.78999996
   13.70555496  136.82899475    1.50000000    2.78999996
   13.70805550  151.72799683    1.64999998    2.78999996
   13.71138859  153.71499634    1.01999998    2.78999996
   13.71444416  165.45500183    1.01999998    2.78999996
   13.71777725  156.62399292    1.01999998    2.78999996
   13.72111034  161.92100525    1.03999996    2.78999996
   13.72416592  171.31399536    1.05999994    2.78999996
   13.73027706  171.31399536    4.90999985    2.82999992
   13.73444462  156.56799316    0.11000000    0.50000000
   13.73750019  156.80499268    0.09000000    0.25000000
   13.73888874  162.39399719    0.09000000    0.13000000
   13.74111176  163.31900024    0.09000000    0.01000000
   13.74444485  155.42199707    0.09000000    0.01000000
   13.74750042  158.10899353    0.09000000    0.01000000
   13.75083351  169.77400208    0.09000000    0.01000000
   13.75416660  153.94500732    0.09000000    0.01000000
   13.75722218  171.49600220    0.09000000    0.01000000
   13.76055527  147.29100037    0.09000000    0.01000000
   13.76361084  142.87899780    0.09000000    0.01000000
   13.76694393  150.32299805    0.09000000    0.01000000
   13.77305508  150.32299805    0.09000000    0.01000000
   13.77722168  149.92599487    0.09000000    0.01000000
   13.78055573  148.83299255    0.09000000    0.01000000
   13.78361130  148.41400146    0.09000000    0.01000000
   13.78694534  126.41899872    0.09000000    0.01000000
   13.79027843  154.28700256    0.09000000    0.01000000
   13.79333401  151.32899475    0.09000000    0.01000000
   13.79666710  152.15800476    0.09000000    0.01000000
   13.79972267  135.24899292    0.09000000    0.01000000
   13.80305576  155.46000671    0.09000000    0.01000000
   13.80555534  154.61799622    0.09000000    0.01000000
   13.80666733  155.18899536    0.09000000    0.01000000
   13.81000042  147.39399719    0.09000000    0.01000000
   13.81583309  147.39399719    0.09000000    0.01000000
   13.81999969  154.40899658    0.09000000    0.01000000
   13.82333374  151.12800598    0.09000000    0.01000000
   13.82666683  155.10600281    0.09000000    0.01000000
   13.82972240  152.78900146    0.09000000    0.01000000
   13.83305550  156.47999573    0.09000000    0.01000000
   13.83611107  158.74800110    0.09000000    0.01000000
   13.83888817  162.88299561    0.09000000    0.01000000
   13.83972168  160.64799500    0.09000000    0.01000000
   13.84305477  142.77900696    0.09000000    0.01000000
   13.84611034  152.29600525    0.09000000    0.01000000
   13.84944439  160.28900146    0.09000000    0.01000000
   13.85277843  159.54100037    0.09000000    0.01000000
   13.85888958  159.54100037    0.09000000    0.01000000
   13.86277771  160.51600647    0.09000000    0.01000000
   13.86611176  155.43099976    0.09000000    0.01000000
   13.86944485  154.91900635    0.09000000    0.01000000
   13.87222195  147.57299805    0.09000000    0.01000000
   13.87305546  151.47900391    0.09000000    0.01000000
   13.87638855  152.39399719    0.09000000    0.01000000
   13.87944412  142.46200562    0.09000000    0.01000000
   13.88277817  151.31700134    0.09000000    0.01000000
   13.88611126  156.18200684    0.09000000    0.01000000
   13.88916683  152.03799438    0.09000000    0.01000000
   13.89249992  133.10099792    0.09000000    0.01000000
   13.89555550  142.58500671    0.09000000    0.01000000
   13.90166664  142.58500671    0.09000000    0.01000000
   13.90583324  132.94700623    0.09000000    0.01000000
   13.90888882  145.19900513    0.09000000    0.01000000
   13.91222191  139.38600159    0.09000000    0.01000000
   13.91527748  146.15899658    0.09000000    0.01000000
   13.91861153  142.96099854    0.09000000    0.01000000
   13.92194462  139.32899475    0.09000000    0.01000000
   13.92500019  144.80599976    0.09000000    0.01000000
   13.92833328  142.21000671    0.09000000    0.01000000
   13.93166733  133.84399414    0.09000000    0.01000000
   13.93472195  138.74000549    0.09000000    0.01000000
   13.93805599  140.69400024    0.09000000    0.01000000
   13.93888855  133.52600098    0.09000000    0.01000000
   13.95972157  133.52600098    0.09000000    0.01000000
   13.96388912  134.83000183    0.09000000    0.01000000
   13.96694374  132.19599915    0.09000000    0.01000000
   13.97027779  137.89599609    0.09000000    0.01000000
   13.97222137  129.99800110    0.09000000    0.01000000
   13.97388840  124.03800201    0.09000000    0.01000000
   13.97722149  131.75599670    0.09000000    0.01000000
   13.98027706  130.84800720    0.09000000    0.01000000
   13.98361111  128.37699890    0.09000000    0.01000000
   13.98694515  129.38999939    0.09000000    0.01000000
   13.99000072  134.19299316    0.09000000    0.01000000
   13.99333382  132.16900635    0.09000000    0.01000000
   13.99666691  133.01100159    0.09000000    0.01000000
   14.00249958  133.01100159    0.09000000    0.01000000
   14.00666714  132.32699585    0.09000000    0.01000000
   14.01000023  140.18499756    0.09000000    0.01000000
