    HOUR (UT)   FLARE FACTOR    SKY TESTER    SUN TESTER
   11.92083359   -1.00000000   -1.00000000   -1.00000000
   13.69583321  125.72000122    0.34000000    2.64000010
   13.69916630  122.65799713    0.34000000    2.64000010
   13.70249939  109.75499725    0.34000000    2.64000010
   13.70555496  127.10800171    0.34000000    2.64000010
   13.70888901  131.12800598    0.34000000    2.64000010
   13.71194458  119.44300079    0.34000000    2.64000010
   13.71611118  119.44300079    0.34000000    2.64000010
   13.72027779  123.90000153    0.34000000    2.64000010
   13.72361088  119.59300232    0.34000000    2.64000010
   13.72666645  129.17300415    0.34000000    2.64000010
   13.72916603  117.02899933    0.34000000    2.64000010
   13.73055553  121.91600037    0.34000000    2.64000010
   13.73361111  120.71399689    0.34000000    2.64000010
   13.74388885  116.15899658    0.00000000    0.00000000
   13.74777794  120.57800293    0.00000000    0.00000000
   13.75166702  120.99600220    0.00000000    0.00000000
   13.75555515  109.18299866    0.00000000    0.00000000
   13.75972176  109.18299866    0.34000000    2.64000010
   13.76694393  128.08500671    0.34000000    2.64000010
   13.77194405  130.70700073    0.34000000    2.64000010
   13.77527714  120.76899719    0.34000000    2.64000010
   13.78083324  116.12999725    0.34000000    2.64000010
   13.78388977  112.58799744    0.34000000    2.64000010
   13.78722286  127.00000000    0.34000000    2.64000010
   13.79027843  129.38900757    0.34000000    2.64000010
   13.79361153  126.05100250    0.34000000    2.64000010
   13.79638958  123.01499939    0.34000000    2.64000010
   13.79722309  115.75000000    0.34000000    2.64000010
   13.80249977  115.75000000    0.34000000    2.66000009
   13.80666733  121.93099976    0.41999999    2.69000006
   13.80972195  114.30000305    0.41999999    2.69000006
   13.81305599  114.69300079    0.41999999    2.69000006
   13.81638908  113.83699799    0.41999999    2.69000006
   13.81944466  115.33599854    0.40000001    2.69000006
   13.82277775  114.43499756    0.40000001    2.69000006
   13.82583332  131.36900330    0.40000001    2.69000006
   13.82916641  117.24099731    0.38000000    2.69000006
   13.82972240  128.60299683    0.38000000    2.69000006
   13.83249950  115.93299866    0.38000000    2.71000004
   13.83583260  117.71700287    0.40000001    2.71000004
   13.83916664  122.78600311    0.38000000    2.69000006
   13.84527779  122.78600311    0.38000000    2.71000004
   13.84944439  121.08200073    0.38000000    2.69000006
   13.85249996  126.57299805    0.38000000    2.69000006
   13.85583401  119.22299957    0.40000001    2.69000006
   13.85916710  117.16100311    0.44000000    2.71000004
   13.86222267  114.98899841    0.44000000    2.71000004
   13.86305618  126.86199951    0.44000000    2.71000004
   13.86611176  123.76899719    0.46000001    2.69000006
   13.86916637  129.77299500    0.47999999    2.69000006
   13.87250042  112.38500214    0.46000001    2.69000006
   13.87555599  117.79799652    0.44000000    2.71000004
   13.87888908  116.60099792    0.44000000    2.69000006
   13.88222218  112.08999634    0.46000001    2.71000004
   13.88805580  112.08999634    0.47999999    2.69000006
   13.89222240  120.26000214    0.46000001    2.69000006
   13.89555550  116.43499756    0.46000001    2.69000006
   13.89638901  129.61199951    0.46000001    2.69000006
   13.89916611  119.63800049    0.44000000    2.71000004
   13.90222168  119.73200226    0.44000000    2.71000004
   13.90555477  119.65100098    0.44000000    2.69000006
   13.90861034  124.09100342    0.44000000    2.69000006
   13.91194439  127.97899628    0.44000000    2.69000006
   13.91527748  120.74299622    0.41999999    2.71000004
   13.91833401  119.75399780    0.41999999    2.69000006
   13.92166710  118.48600006    0.41999999    2.71000004
   13.92500019  133.81199646    0.40000001    2.71000004
   13.93083382  133.81199646    0.40000001    2.71000004
   13.93500042  130.36399841    0.40000001    2.71000004
   13.93833351  116.48999786    0.40000001    2.69000006
   13.94166660  132.26899719    0.40000001    2.69000006
   13.94472218  117.37200165    0.40000001    2.71000004
   13.94805527  129.00100708    0.38000000    2.71000004
   13.95138836  133.85200500    0.38000000    2.69000006
   13.95444393  118.31600189    0.36000001    2.73000002
   13.95777798  123.48400116    0.36000001    2.69000006
   13.96111107  118.48500061    0.34000000    2.71000004
   13.96305561  118.37200165    0.34000000    2.69000006
   13.96472168  129.82800293    0.34000000    2.71000004
   13.96777725  117.97399902    0.36000001    2.69000006
   13.97388840  117.97399902    0.34000000    2.71000004
   13.97777748  123.76300049    0.34000000    2.71000004
   13.98111057  130.68699646    0.31999999    2.71000004
   13.98444462  130.04499817    0.31999999    2.71000004
   13.98750019  136.87800598    0.31999999    2.71000004
   13.99083328  126.48799896    0.31999999    2.71000004
   13.99416733  139.51499939    0.34000000    2.69000006
   13.99638939  122.81999969    0.34000000    2.71000004
   13.99777794  126.29299927    0.34000000    2.71000004
   14.00083351  131.75799561    0.34000000    2.69000006
   14.00416660  126.82199860    0.34000000    2.71000004
   14.00722218  129.43499756    0.38000000    2.71000004
   14.01055527  130.20199585    0.38000000    2.69000006
   14.01666641  130.20199585    0.40000001    2.71000004
   14.02083302  119.41400146    0.38000000    2.71000004
   14.02388859  114.68199921    0.38000000    2.71000004
   14.02722168  122.25199890    0.41999999    2.71000004
   14.02972221  125.61799622    0.40000001    2.71000004
   14.03083324  122.75299835    0.40000001    2.73000002
   14.03388977  127.82099915    0.40000001    2.71000004
   14.03722286  132.25799561    0.41999999    2.69000006
   14.04027843  125.75599670    0.44000000    2.71000004
   14.04361153  121.70899963    0.41999999    2.71000004
   14.04694462  118.10199738    0.41999999    2.71000004
   14.05000019  121.75800323    0.41999999    2.71000004
   14.05333328  124.35800171    0.44000000    2.71000004
   14.05944443  124.35800171    0.47999999    2.71000004
   14.06361103  120.64600372    0.46000001    2.71000004
   14.06694412  116.50700378    0.44000000    2.71000004
   14.06999969  121.49900055    0.44000000    2.71000004
   14.07333374  119.46299744    0.41999999    2.71000004
   14.07638836  119.53500366    0.44000000    2.71000004
   14.07972240  122.73899841    0.44000000    2.71000004
   14.08305550  123.74299622    0.44000000    2.71000004
   14.08777714  122.20200348    0.46000001    2.71000004
   14.09111118  118.60500336    0.47999999    2.71000004
   14.09416676  116.93199921    0.47999999    2.71000004
   14.09638882  115.83599854    0.47999999    2.71000004
   14.09805489  115.41100311    0.47999999    2.71000004
   14.10222244  115.41100311    0.50000000    2.69000006
   14.10638905  115.32499695    0.50000000    2.71000004
   14.10972214  114.66300201    0.50000000    2.71000004
   14.11305618  123.08899689    0.50000000    2.71000004
   14.11611176  115.54199982    0.50000000    2.73000002
   14.11944485  119.00700378    0.50000000    2.71000004
   14.12277794  105.68000031    0.47999999    2.71000004
   14.12583351  111.70700073    0.47999999    2.71000004
   14.12916660  118.57499695    0.47999999    2.71000004
   14.12972260  114.23699951    0.47999999    2.71000004
   14.13277817  124.05799866    0.47999999    2.71000004
   14.13583279  119.36299896    0.47999999    2.71000004
   14.13916683  125.58899689    0.47999999    2.71000004
   14.14527798  125.58899689    0.46000001    2.71000004
   14.14944458  129.58599854    0.46000001    2.71000004
   14.15249920  127.62999725    0.44000000    2.71000004
   14.15583324  122.27100372    0.44000000    2.71000004
   14.15916634  120.60900116    0.52999997    2.71000004
   14.16222191  129.81700134    0.51999998    2.71000004
   14.16305542  135.06300354    0.51999998    2.71000004
   14.16583252  124.03500366    0.47999999    2.71000004
   14.16888905  122.93000031    0.44000000    2.71000004
   14.17222214  126.10900116    0.41999999    2.71000004
   14.17555618  122.38999939    0.40000001    2.73000002
   14.17861176  126.20600128    0.40000001    2.73000002
   14.18194485  126.78099823    0.41999999    2.73000002
   14.18805599  126.78099823    0.41999999    2.71000004
   14.19222260  113.38700104    0.40000001    2.71000004
   14.19555569  118.77799988    0.41999999    2.71000004
   14.19638920  109.87999725    0.41999999    2.73000002
   14.19916630  113.76999664    0.44000000    2.71000004
   14.20249939  113.80999756    0.41999999    2.71000004
   14.20555496  121.47899628    0.41999999    2.71000004
   14.20888901  127.64700317    0.44000000    2.73000002
   14.21222210  116.78600311    0.44000000    2.71000004
   14.21527767  119.52899933    0.44000000    2.71000004
   14.21861076  123.26699829    0.46000001    2.73000002
   14.22194386  116.92400360    0.47999999    2.71000004
   14.22499943  117.40100098    0.47999999    2.71000004
   14.23083305  117.40100098    0.47999999    2.71000004
   14.23500061  121.04199982    0.46000001    2.71000004
   14.23833370  129.86500549    0.44000000    2.71000004
   14.24166679  121.13600159    0.46000001    2.71000004
   14.24472237  130.15299988    0.44000000    2.71000004
   14.24805546  120.45899963    0.41999999    2.71000004
   14.25111103  120.78099823    0.44000000    2.71000004
   14.25444412  131.58299255    0.44000000    2.71000004
   14.25777817  120.66899872    0.44000000    2.71000004
   14.26083374  115.11000061    0.41999999    2.71000004
   14.26305580  123.73400116    0.41999999    2.75000000
   14.26444435  128.34800720    0.41999999    2.73000002
   14.26777744  122.23600006    0.44000000    2.73000002
   14.27388859  122.23600006    0.41999999    2.73000002
   14.27805519  129.24800110    0.41999999    2.73000002
   14.28111076  112.50900269    0.41999999    2.71000004
   14.28444481  117.59899902    0.38000000    2.71000004
   14.28750038  117.63099670    0.40000001    2.71000004
   14.29083347  119.05899811    0.40000001    2.73000002
   14.29416752  116.02799988    0.40000001    2.73000002
   14.29638958  120.59400177    0.40000001    2.71000004
   14.29777813  119.11299896    0.41999999    2.71000004
   14.30111122  115.46199799    0.40000001    2.73000002
   14.30416679  115.16999817    0.41999999    2.71000004
   14.30749989  113.37300110    0.44000000    2.73000002
   14.31055546  116.49800110    0.44000000    2.71000004
   14.31666660  116.49800110    0.46000001    2.73000002
   14.32083321  121.41100311    0.44000000    2.73000002
   14.32388878  124.77799988    0.44000000    2.73000002
   14.32722187  106.48999786    0.41999999    2.71000004
   14.32972240  111.54499817    0.41999999    2.73000002
   14.33083344  122.43299866    0.44000000    2.71000004
   14.33416653  130.59199524    0.41999999    2.73000002
   14.33722210  121.82499695    0.44000000    2.71000004
   14.34055519  119.83899689    0.44000000    2.71000004
   14.34361076  123.53600311    0.44000000    2.73000002
   14.34694386  117.12799835    0.41999999    2.71000004
   14.35027790  128.44000244    0.41999999    2.73000002
   14.35333347  120.22499847    0.40000001    2.73000002
   14.35944462  120.22499847    0.40000001    2.73000002
   14.36361122  122.05500031    0.38000000    2.73000002
   14.36694431  125.29900360    0.40000001    2.73000002
   14.36999989  106.46399689    0.40000001    2.73000002
   14.37333393  134.55799866    0.40000001    2.73000002
   14.37638855  118.64099884    0.40000001    2.73000002
   14.37972260  120.01699829    0.40000001    2.73000002
   14.38305569  122.21700287    0.40000001    2.73000002
   14.38611126  120.83599854    0.40000001    2.75000000
   14.38944435  113.16400146    0.41999999    2.73000002
   14.39249992  119.88899994    0.41999999    2.71000004
   14.39583302  123.32700348    0.44000000    2.73000002
   14.39638901  116.98400116    0.41999999    2.73000002
   14.40222168  116.98400116    0.44000000    2.73000002
   14.40638828  125.10800171    0.47999999    2.73000002
   14.40972137  117.34500122    0.41999999    2.73000002
   14.41277695  118.97299957    0.41999999    2.73000002
   14.41611099  122.21199799    0.41999999    2.73000002
   14.41916656  115.91999817    0.46000001    2.73000002
   14.42250061  128.62600708    0.41999999    2.73000002
   14.42583370  121.36399841    0.41999999    2.73000002
   14.42888927  119.80400085    0.41999999    2.73000002
   14.42972279  115.90299988    0.41999999    2.73000002
   14.43249989  112.93800354    0.41999999    2.73000002
   14.43555546  114.85600281    0.41999999    2.73000002
   14.43888855  118.17500305    0.44000000    2.73000002
   14.44499969  118.17500305    0.44000000    2.73000002
   14.44916630  116.32599640    0.44000000    2.73000002
   14.45249939  119.87599945    0.41999999    2.73000002
   14.45555496  114.62799835    0.40000001    2.73000002
   14.45888901  118.48899841    0.40000001    2.73000002
   14.46222210  116.88300323    0.40000001    2.73000002
   14.46305561  112.32199860    0.40000001    2.73000002
   14.46583271  118.87899780    0.40000001    2.73000002
   14.46888828  114.53099823    0.40000001    2.73000002
   14.47222137  119.38500214    0.40000001    2.73000002
   14.47555542  114.13500214    0.40000001    2.73000002
   14.47861099  114.88400269    0.40000001    2.73000002
   14.48194408  123.39299774    0.38000000    2.73000002
   14.48805618  123.39299774    0.40000001    2.73000002
   14.49222279  122.62699890    0.41999999    2.73000002
   14.49527836  114.05500031    0.40000001    2.75000000
   14.49638939  116.80699921    0.40000001    2.75000000
   14.49888897  124.91400146    0.38000000    2.73000002
   14.50222206  120.15799713    0.41999999    2.73000002
   14.50527763  124.35099792    0.40000001    2.73000002
   14.50861073  127.65000153    0.38000000    2.73000002
   14.51166630  119.49700165    0.36000001    2.73000002
   14.51500034  119.95999908    0.36000001    2.75000000
   14.51833344  123.24700165    0.38000000    2.73000002
   14.52138901  120.66899872    0.38000000    2.73000002
   14.52472210  117.84200287    0.36000001    2.75000000
   14.53083324  117.84200287    0.36000001    2.75000000
   14.53500080  119.79399872    0.36000001    2.75000000
   14.53805637  124.73799896    0.36000001    2.75000000
   14.54138947  117.66100311    0.36000001    2.75000000
   14.54472256  116.66899872    0.36000001    2.75000000
   14.54777813  121.79900360    0.36000001    2.75000000
   14.55111122  122.26799774    0.36000001    2.75000000
   14.55444431  113.54399872    0.36000001    2.75000000
   14.55749989  117.53800201    0.36000001    2.75000000
   14.56083393  110.30799866    0.36000001    2.75000000
   14.56305599  133.59599304    0.36000001    2.75000000
   14.56444454  117.08699799    0.36000001    2.75000000
   14.56777763  128.04400635    0.36000001    2.75000000
   14.57361126  128.04400635    0.36000001    2.75000000
   14.57777786  124.37200165    0.36000001    2.75000000
   14.58111095  116.68199921    0.36000001    2.75000000
   14.58416653  114.68399811    0.36000001    2.75000000
   14.58749962  110.66699982    0.36000001    2.75000000
   14.59083271  111.83699799    0.36000001    2.75000000
   14.59388828  123.58000183    0.36000001    2.75000000
   14.59638882  117.99600220    0.36000001    2.75000000
   14.59749985  112.89199829    0.36000001    2.75000000
   14.60083389  124.56600189    0.36000001    2.75000000
   14.60388947  126.97100067    0.36000001    2.75000000
   14.60722256  115.25800323    0.36000001    2.75000000
   14.61055565  120.76699829    0.36000001    2.75000000
   14.61666679  120.76699829    0.36000001    2.75000000
   14.62055588  115.27300262    0.36000001    2.75000000
   14.62388897  121.24900055    0.36000001    2.75000000
   14.62722206  110.29199982    0.36000001    2.75000000
   14.62972260  115.97299957    0.36000001    2.75000000
   14.63083363  121.35099792    0.36000001    2.75000000
   14.63416672  113.66999817    0.36000001    2.75000000
   14.63722229  116.24500275    0.36000001    2.75000000
   14.64055538  116.41400146    0.36000001    2.75000000
   14.64361095  111.81900024    0.36000001    2.75000000
   14.64694405  118.43000031    0.36000001    2.75000000
   14.65027714  116.25000000    0.36000001    2.75000000
   14.65333271  110.45500183    0.36000001    2.75000000
   14.65944386  110.45500183    0.36000001    2.75000000
   14.66361046  116.36100006    0.36000001    2.75000000
   14.66666698  117.03099823    0.36000001    2.75000000
   14.67000008  112.86900330    0.36000001    2.75000000
   14.67305565  113.83899689    0.36000001    2.75000000
   14.67638874  113.68699646    0.36000001    2.75000000
   14.67972279  120.17400360    0.36000001    2.75000000
   14.68277836  115.93299866    0.36000001    2.75000000
   14.68611145  116.03600311    0.36000001    2.75000000
   14.68944454  114.39499664    0.36000001    2.75000000
   14.69250011  112.79299927    0.36000001    2.75000000
   14.69583321  114.19200134    0.36000001    2.75000000
   14.69638920  109.75499725    0.36000001    2.75000000
   14.71694374  109.75499725    0.36000001    2.75000000
   14.72111034  110.87500000    0.36000001    2.75000000
   14.72444439  114.02600098    0.36000001    2.75000000
   14.72777748  113.15499878    0.36000001    2.75000000
   14.72972202  110.19300079    0.36000001    2.75000000
   14.73138809  105.95200348    0.36000001    2.75000000
   14.73472214  120.80799866    0.36000001    2.75000000
   14.73833370  116.42600250    0.36000001    2.75000000
   14.74138927  108.30599976    0.36000001    2.75000000
   14.74472237  128.39700317    0.36000001    2.75000000
   14.74805546  119.96900177    0.36000001    2.75000000
   14.75111103  114.87300110    0.36000001    2.75000000
   14.75444412  107.09200287    0.36000001    2.75000000
   14.75972176  107.09200287    0.36000001    2.75000000
   14.76388931  123.96800232    0.36000001    2.75000000
   14.76722240  127.50000000    0.36000001    2.75000000
   14.77055550   98.38999939    0.36000001    2.75000000
   14.77361107  122.79299927    0.36000001    2.75000000
   14.77694416  104.07900238    0.36000001    2.75000000
   14.77999973  114.96099854    0.36000001    2.75000000
   14.78333378  106.21600342    0.36000001    2.75000000
   14.78666687  108.41899872    0.36000001    2.75000000
   14.78972244  106.75000000    0.36000001    2.75000000
   14.79305553  113.30799866    0.36000001    2.75000000
   14.79638958  111.02799988    0.36000001    2.75000000
   14.79666710  104.69799805    0.36000001    2.75000000
   14.80277824  104.69799805    0.36000001    2.75000000
   14.80694485  115.30699921    0.36000001    2.75000000
   14.81000042  112.10700226    0.36000001    2.75000000
   14.81333351  104.18499756    0.36000001    2.75000000
   14.81638908  105.58599854    0.36000001    2.75000000
   14.81972218  113.41000366    0.36000001    2.75000000
   14.82305527  114.50299835    0.36000001    2.75000000
   14.82611084  114.40000153    0.36000001    2.75000000
   14.82944393  119.07700348    0.36000001    2.75000000
   14.82999992  107.75499725    0.36000001    2.75000000
   14.83305550  108.05200195    0.36000001    2.75000000
   14.83638859  116.02999878    0.36000001    2.75000000
   14.83944416  121.52700043    0.36000001    2.75000000
   14.84555531  121.52700043    0.36000001    2.75000000
   14.84972191  112.81800079    0.36000001    2.75000000
   14.85277843  105.85800171    0.36000001    2.75000000
   14.85611153  115.48999786    0.36000001    2.75000000
   14.85944462  115.52200317    0.36000001    2.75000000
   14.86250019  111.12200165    0.36000001    2.75000000
   14.86333370  109.11699677    0.36000001    2.75000000
   14.86611176  114.61000061    0.36000001    2.75000000
   14.86944485  106.97399902    0.36000001    2.75000000
   14.87250042  114.75499725    0.36000001    2.75000000
   14.87583351  121.77100372    0.36000001    2.75000000
   14.87916660  114.97499847    0.36000001    2.75000000
   14.88222218  109.24700165    0.36000001    2.75000000
   14.88833332  109.24700165    0.36000001    2.75000000
   14.89249992  120.22399902    0.36000001    2.75000000
   14.89583302  123.38999939    0.36000001    2.75000000
   14.89666653  110.88099670    0.36000001    2.75000000
   14.89944458  109.77100372    0.36000001    2.75000000
   14.90277767  115.75499725    0.36000001    2.75000000
   14.90583324  111.95500183    0.36000001    2.75000000
   14.90916634  109.96900177    0.36000001    2.75000000
   14.91249943  112.89199829    0.36000001    2.75000000
   14.91555500  122.41799927    0.36000001    2.75000000
   14.91888905  121.15100098    0.36000001    2.75000000
   14.92194462  106.63500214    0.36000001    2.75000000
   14.92527771  112.22299957    0.36000001    2.75000000
   14.93111134  112.22299957    0.36000001    2.75000000
   14.93527794  121.25299835    0.36000001    2.75000000
   14.93861103  112.93699646    0.36000001    2.75000000
   14.94194412  108.25099945    0.36000001    2.75000000
   14.94499969  106.70700073    0.36000001    2.75000000
   14.94833374  113.40100098    0.36000001    2.75000000
   14.95138836  113.77100372    0.36000001    2.75000000
   14.95472240  110.80999756    0.36000001    2.75000000
   14.95805550  105.61399841    0.36000001    2.75000000
   14.96111107  118.44899750    0.36000001    2.75000000
   14.96333313  114.95899963    0.36000001    2.75000000
   14.96472168  111.68000031    0.36000001    2.75000000
   14.96805477  108.61499786    0.36000001    2.75000000
   14.97416592  108.61499786    0.36000001    2.75000000
   14.97833252  112.52899933    0.36000001    2.75000000
   14.98138809  111.73200226    0.36000001    2.75000000
   14.98472214  109.72599792    0.36000001    2.75000000
   14.98777771  109.96800232    0.36000001    2.75000000
   14.99111176  113.51200104    0.36000001    2.75000000
   14.99444485  109.39700317    0.36000001    2.75000000
   14.99666691  111.95600128    0.36000001    2.75000000
   14.99805546  110.33799744    0.36000001    2.75000000
   15.00138855  103.18800354    0.36000001    2.75000000
   15.00444412  107.40000153    0.36000001    2.75000000
   15.00777817  113.78500366    0.36000001    2.75000000
   15.01083374  111.76899719    0.36000001    2.75000000
   15.01694393  111.76899719    0.36000001    2.75000000
   15.02111053  110.58000183    0.36000001    2.75000000
   15.02416611  117.63200378    0.36000001    2.75000000
   15.02750015  113.26899719    0.36000001    2.75000000
   15.02999973  113.22799683    0.36000001    2.75000000
   15.03111076  110.29399872    0.36000001    2.75000000
   15.03444481  111.40100098    0.36000001    2.75000000
   15.03750038  112.77400208    0.36000001    2.75000000
   15.04083347  113.46600342    0.36000001    2.75000000
   15.04388905  112.66400146    0.36000001    2.75000000
   15.04722309  109.64299774    0.36000001    2.75000000
   15.05055618  109.58799744    0.36000001    2.75000000
   15.05361176  107.11199951    0.36000001    2.75000000
   15.05972195  107.11199951    0.36000001    2.75000000
   15.06388950  116.21800232    0.36000001    2.75000000
   15.06722260  111.71499634    0.36000001    2.75000000
   15.07027817  111.92500305    0.36000001    2.75000000
   15.07361126  115.76399994    0.36000001    2.75000000
   15.07666683  108.59100342    0.36000001    2.75000000
   15.07999992  109.50800323    0.36000001    2.75000000
   15.08333302  113.10600281    0.36000001    2.75000000
   15.08638859  109.78099823    0.36000001    2.75000000
   15.08972168  116.71900177    0.36000001    2.75000000
   15.09305477  117.00900269    0.36000001    2.73000002
   15.09611034  115.41899872    0.30000001    2.76999998
   15.09666634  105.81500244    0.30000001    2.75000000
   15.10249996  105.81500244    0.30000001    2.75000000
   15.10666752  114.15299988    0.30000001    2.75000000
   15.11000061  105.13800049    0.30000001    2.75000000
   15.11305618  108.04499817    0.30000001    2.75000000
   15.11638927  102.26599884    0.31999999    2.75000000
   15.11972237  108.75700378    0.31999999    2.76999998
   15.12277794  100.34700012    0.31999999    2.76999998
   15.12611103  106.80899811    0.31999999    2.76999998
   15.12944412  116.74099731    0.31999999    2.76999998
   15.13000011  115.91699982    0.31999999    2.76999998
   15.13305569  117.87899780    0.31999999    2.76999998
   15.13638878  108.51399994    0.31999999    2.76999998
   15.13944435  106.41000366    0.36000001    2.75000000
   15.14555550  106.41000366    0.34000000    2.75000000
   15.14972210  103.75099945    0.34000000    2.75000000
   15.15277767  105.91400146    0.31999999    2.75000000
   15.15611076  105.73999786    0.31999999    2.75000000
   15.15916634   96.78369904    0.31999999    2.76999998
   15.16249943  103.53399658    0.31999999    2.76999998
   15.16333294  111.96299744    0.31999999    2.76999998
   15.16611099   94.78479767    0.31999999    2.75000000
   15.16944504  108.74299622    0.31999999    2.75000000
   15.17250061  112.19699860    0.31999999    2.75000000
   15.17583370  107.87899780    0.31999999    2.75000000
   15.17916679  111.37100220    0.31999999    2.76999998
   15.18222237  108.96399689    0.34000000    2.76999998
   15.18833351  108.96399689    0.34000000    2.76999998
   15.19250011  112.12999725    0.34000000    2.76999998
   15.19583321  115.91899872    0.34000000    2.76999998
   15.19694424  111.04100037    0.34000000    2.76999998
   15.19916630  108.82800293    0.34000000    2.76999998
   15.20249939  112.85299683    0.34000000    2.76999998
   15.20583344  113.89900208    0.34000000    2.75000000
   15.20888901  115.74700165    0.34000000    2.75000000
   15.21222210  114.73500061    0.34000000    2.76999998
   15.21527767  108.05200195    0.34000000    2.75000000
   15.21861076  112.79199982    0.34000000    2.75000000
   15.22194386  108.27999878    0.36000001    2.75000000
   15.22499943  102.25900269    0.36000001    2.75000000
   15.23111057  102.25900269    0.36000001    2.76999998
   15.23527813  111.46900177    0.41999999    2.76999998
   15.23861122  101.72499847    0.40000001    2.76999998
   15.24166679  103.06300354    0.40000001    2.76999998
   15.24527836  110.38500214    0.38000000    2.75000000
   15.24833393  109.55599976    0.38000000    2.75000000
   15.25166702  103.24700165    0.38000000    2.76999998
   15.25500011  109.24400330    0.38000000    2.76999998
   15.25805569  111.49500275    0.38000000    2.75000000
   15.26138878  109.76999664    0.36000001    2.76999998
   15.26333332  116.80899811    0.36000001    2.76999998
   15.26500034  102.91600037    0.36000001    2.76999998
   15.26833344  111.66100311    0.38000000    2.76999998
   15.27388859  111.66100311    0.41999999    2.75000000
   15.27805519  111.57099915    0.44000000    2.75000000
   15.28138828  114.85099792    0.40000001    2.76999998
   15.28444481  109.79900360    0.38000000    2.76999998
   15.28777790  116.54399872    0.38000000    2.76999998
   15.29111195  114.65100098    0.40000001    2.76999998
   15.29416752  114.79699707    0.41999999    2.76999998
   15.29666710  114.90000153    0.41999999    2.75000000
   15.29777813  111.89399719    0.44000000    2.76999998
   15.30111122  111.40299988    0.41999999    2.76999998
   15.30416679  108.98600006    0.41999999    2.75000000
   15.30749989  112.83300018    0.40000001    2.76999998
   15.31055546  102.56099701    0.38000000    2.76999998
   15.31694412  102.56099701    0.38000000    2.76999998
   15.32111073  108.26799774    0.40000001    2.76999998
   15.32416630  106.84999847    0.40000001    2.75000000
   15.32750034  106.78700256    0.44000000    2.76999998
   15.33027744  113.69499969    0.47999999    2.78999996
   15.33083344  106.81600189    0.47999999    2.76999998
   15.33416653  106.33000183    0.51999998    2.76999998
   15.33722210  104.60099792    0.56999999    2.76999998
   15.34055519  105.62599945    0.61000001    2.76999998
   15.34388828  110.29499817    0.58999997    2.76999998
   15.34694386  109.46900177    0.56999999    2.76999998
   15.35027790  107.55699921    0.61000001    2.75000000
   15.35361195  112.41000366    0.69000000    2.75000000
   15.35972214  112.41000366    0.64999998    2.75000000
   15.36388969  111.13400269    0.79000002    2.75000000
   15.36694431  106.91000366    0.76999998    2.75000000
   15.37027836  108.75399780    0.70999998    2.76999998
   15.37388897  102.71199799    0.67000002    2.76999998
   15.37694454  113.31400299    0.67000002    2.75000000
   15.38027763  109.91999817    0.61000001    2.75000000
   15.38361073  111.47000122    0.58999997    2.75000000
   15.38666630  107.12300110    0.58999997    2.75000000
   15.48805618   -1.00000000   -1.00000000   -1.00000000
   15.64666653   -1.00000000   -1.00000000   -1.00000000
   15.76472187   -1.00000000   -1.00000000   -1.00000000
   16.01083374   86.15750122    0.31999999    2.78999996
   16.01416588  117.50199890    0.30000001    2.78999996
   16.01722145  120.38300323    0.30000001    2.76999998
   16.02055550  121.13899994    0.30000001    2.76999998
   16.02388954  118.50599670    0.30000001    2.76999998
   16.02694511  113.37799835    0.30000001    2.76999998
   16.03111076  113.37799835    0.30000001    2.78999996
   16.03527641  111.92099762    0.30000001    2.76999998
   16.03861046  109.36799622    0.30000001    2.78999996
   16.04166603  116.33200073    0.30000001    2.78999996
   16.04416656  116.55400085    0.30000001    2.76999998
   16.04527664  117.84200287    0.30000001    2.78999996
   16.04833221  113.47799683    0.30000001    2.76999998
   16.05166626  119.16799927    0.30000001    2.78999996
   16.05499840  112.02200317    0.30000001    2.76999998
   16.05805397  111.67700195    0.30000001    2.78999996
   16.06138802  112.39800262    0.30000001    2.78999996
   16.06444359  115.65599823    0.31999999    2.76999998
   16.06777954  114.89399719    0.31999999    2.76999998
   16.07389069  114.89399719    0.31999999    2.76999998
   16.07805634  115.91000366    0.31999999    2.78999996
   16.08139038  118.71600342    0.34000000    2.75000000
   16.08444595  112.47899628    0.31999999    2.76999998
   16.08777809  112.58699799    0.31999999    2.78999996
   16.09111214  112.44200134    0.31999999    2.76999998
   16.09416771  116.98000336    0.30000001    2.78999996
   16.09749985  113.20300293    0.31999999    2.78999996
   16.10083389  113.32399750    0.31999999    2.78999996
   16.10388947  117.82700348    0.30000001    2.78999996
   16.10722351  114.70300293    0.30000001    2.76999998
   16.11055565  126.15100098    0.30000001    2.76999998
   16.11083412  111.73000336    0.30000001    2.76999998
   16.11694527  111.73000336    0.30000001    2.76999998
   16.12083435  113.82700348    0.31999999    2.76999998
   16.12416649  113.35399628    0.31999999    2.78999996
   16.12750053  116.38099670    0.36000001    2.76999998
   16.13055611  115.65299988    0.40000001    2.76999998
   16.13388824  116.55000305    0.40000001    2.76999998
   16.13722229  113.94899750    0.38000000    2.78999996
   16.14027786  116.05300140    0.38000000    2.76999998
   16.14361191  115.06900024    0.34000000    2.76999998
   16.14416695  120.94699860    0.36000001    2.76999998
   16.14722252  117.62100220    0.36000001    2.76999998
   16.15055466  121.96900177    0.36000001    2.78999996
   16.15361023  115.86900330    0.36000001    2.78999996
   16.15972137  115.86900330    0.36000001    2.78999996
   16.16388893  103.44400024    0.38000000    2.78999996
   16.16694450  104.45700073    0.38000000    2.76999998
   16.17027664  107.41400146    0.38000000    2.76999998
   16.17361069  110.16799927    0.38000000    2.76999998
   16.17666626  106.49199677    0.36000001    2.76999998
   16.17749977  115.78399658    0.36000001    2.76999998
   16.18027687  111.36499786    0.36000001    2.76999998
   16.18361092  114.10800171    0.36000001    2.76999998
   16.18666649  111.92900085    0.34000000    2.76999998
   16.18999863  111.84100342    0.31999999    2.76999998
   16.19305420  114.20700073    0.31999999    2.76999998
   16.19638824  109.26899719    0.31999999    2.76999998
   16.20250130  109.26899719    0.30000001    2.76999998
   16.20666695  114.47299957    0.30000001    2.76999998
   16.21000099  113.81199646    0.30000001    2.76999998
   16.21083450  106.75199890    0.30000001    2.76999998
   16.21333504  109.51499939    0.30000001    2.76999998
   16.21694565  110.57299805    0.31999999    2.78999996
   16.22027779  106.94699860    0.31999999    2.78999996
   16.22333336  102.78399658    0.31999999    2.78999996
   16.22666740  105.66999817    0.31999999    2.78999996
   16.22972298  109.69100189    0.31999999    2.76999998
   16.23305511  114.59899902    0.34000000    2.76999998
   16.23638916  115.01399994    0.36000001    2.78999996
   16.23944473  106.73400116    0.34000000    2.76999998
   16.24527740  106.73400116    0.31999999    2.76999998
   16.24944496   99.10610199    0.30000001    2.76999998
   16.25277710  102.32199860    0.31999999    2.78999996
   16.25611115  105.11100006    0.30000001    2.76999998
   16.25916672  105.42500305    0.31999999    2.78999996
   16.26250076  106.16200256    0.31999999    2.76999998
   16.26555634  104.63700104    0.31999999    2.76999998
   16.26888847  107.78399658    0.31999999    2.78999996
   16.27222252  111.37500000    0.31999999    2.78999996
   16.27527809  106.64900208    0.30000001    2.76999998
   16.27777672  108.63099670    0.31999999    2.76999998
   16.27888870  106.52999878    0.31999999    2.76999998
   16.28222275  111.61900330    0.30000001    2.78999996
   16.28833199  111.61900330    0.30000001    2.78999996
   16.29249954  111.05699921    0.30000001    2.78999996
   16.29555511  111.80200195    0.31999999    2.78999996
   16.29888916  116.04799652    0.31999999    2.76999998
   16.30222130  116.20700073    0.31999999    2.78999996
   16.30527687  110.32700348    0.31999999    2.78999996
   16.30861092  111.63400269    0.31999999    2.78999996
   16.31083298  107.36399841    0.30000001    2.76999998
   16.31222153  112.52400208    0.30000001    2.76999998
   16.31555557  107.00099945    0.31999999    2.76999998
   16.31861115  115.31300354    0.31999999    2.76999998
   16.32194519  110.02300262    0.31999999    2.76999998
   16.32527924  106.98000336    0.31999999    2.78999996
   16.33111191  106.98000336    0.31999999    2.76999998
   16.33527756  111.40299988    0.31999999    2.76999998
   16.33833313  104.19699860    0.31999999    2.76999998
   16.34166718  109.30999756    0.31999999    2.76999998
   16.34416771  107.02999878    0.31999999    2.76999998
   16.34527779  108.73600006    0.31999999    2.78999996
   16.34861183  102.72899628    0.31999999    2.78999996
   16.35166740   92.99069977    0.34000000    2.76999998
   16.35499954  107.84799957    0.34000000    2.78999996
   16.35833359  110.34400177    0.34000000    2.78999996
   16.36138916  106.83899689    0.36000001    2.76999998
   16.36472321  103.10399628    0.40000001    2.78999996
   16.36777878  104.56999969    0.36000001    2.78999996
   16.37388992  104.56999969    0.40000001    2.78999996
   16.37805557  104.76100159    0.40000001    2.78999996
   16.38138962  108.47799683    0.41999999    2.76999998
   16.38444519  106.59899902    0.40000001    2.78999996
   16.38777733  103.80899811    0.38000000    2.78999996
   16.39083290  100.25199890    0.38000000    2.78999996
   16.39416695   96.13619995    0.38000000    2.78999996
   16.39749908  102.39199829    0.38000000    2.76999998
   16.40055466  103.76599884    0.36000001    2.76999998
   16.40388870  105.43399811    0.36000001    2.78999996
   16.40722275  106.04199982    0.36000001    2.78999996
   16.41027832  108.24900055    0.34000000    2.78999996
   16.41110992  106.55599976    0.34000000    2.78999996
   16.41694450  106.55599976    0.34000000    2.76999998
   16.42083359  109.62100220    0.34000000    2.76999998
   16.42416573  107.76000214    0.34000000    2.78999996
   16.42749977  107.80999756    0.31999999    2.78999996
   16.43055534  109.96299744    0.34000000    2.76999998
   16.43388748  109.52999878    0.34000000    2.76999998
   16.43722153  114.24099731    0.31999999    2.76999998
   16.44027710  109.69699860    0.31999999    2.76999998
   16.44361115  106.50700378    0.31999999    2.78999996
   16.44444275  109.59700012    0.31999999    2.78999996
   16.44722176  113.12799835    0.31999999    2.76999998
   16.45055580  111.68800354    0.31999999    2.76999998
   16.45388985  108.83000183    0.31999999    2.76999998
   16.45972252  108.83000183    0.34000000    2.76999998
   16.46389008  108.38200378    0.34000000    2.76999998
   16.46694565  103.83999634    0.34000000    2.78999996
   16.47027779  108.70600128    0.34000000    2.78999996
   16.47333336  106.46299744    0.34000000    2.78999996
   16.47666740  111.20700073    0.36000001    2.76999998
   16.47777748  109.15299988    0.36000001    2.76999998
   16.48027802  114.09799957    0.34000000    2.78999996
   16.48361206  114.81500244    0.34000000    2.78999996
   16.48694420  108.96800232    0.31999999    2.76999998
   16.48999977  112.24900055    0.34000000    2.78999996
   16.49333382  114.84100342    0.36000001    2.78999996
   16.49638939  108.99099731    0.36000001    2.78999996
   16.50250053  108.99099731    0.34000000    2.76999998
   16.50666618  108.57700348    0.31999999    2.78999996
   16.51000023  107.94200134    0.31999999    2.78999996
   16.51111031  108.01699829    0.31999999    2.78999996
   16.51472282  106.85800171    0.34000000    2.76999998
   16.51777840  111.48799896    0.34000000    2.76999998
   16.52111053  101.64499664    0.34000000    2.76999998
   16.52444458  105.41799927    0.31999999    2.76999998
   16.52750015  110.99800110    0.31999999    2.76999998
   16.53083229  109.45400238    0.31999999    2.76999998
   16.53416634  105.73000336    0.31999999    2.76999998
   16.53722191  107.61199951    0.31999999    2.76999998
   16.54055595  106.89600372    0.34000000    2.76999998
   16.54527664  106.89600372    0.34000000    2.76999998
   16.54944420  114.12799835    0.34000000    2.76999998
   16.55277634  106.42900085    0.34000000    2.78999996
   16.55583191  108.76499939    0.31999999    2.78999996
   16.55916595  111.04000092    0.31999999    2.76999998
   16.56250000  109.09500122    0.34000000    2.78999996
   16.56555557  106.35700226    0.31999999    2.78999996
   16.56888962  101.59400177    0.31999999    2.76999998
   16.57194519  104.32800293    0.31999999    2.76999998
   16.57527924  113.33399963    0.31999999    2.78999996
   16.57777786  111.59700012    0.31999999    2.78999996
   16.57888985  104.18099976    0.31999999    2.78999996
   16.58222389  104.89499664    0.31999999    2.78999996
   16.58833313  104.89499664    0.34000000    2.78999996
   16.59222221  109.08499908    0.34000000    2.76999998
   16.59555626  107.83200073    0.36000001    2.78999996
   16.59889030  108.87300110    0.34000000    2.76999998
   16.60194397  108.18499756    0.34000000    2.76999998
   16.60527802  107.24500275    0.36000001    2.78999996
   16.60861206  107.27200317    0.36000001    2.76999998
   16.61111069  102.01100159    0.34000000    2.76999998
   16.61194420  102.10099792    0.34000000    2.76999998
   16.61527824  105.09700012    0.36000001    2.78999996
   16.61861038  106.05000305    0.36000001    2.76999998
   16.62166595  110.82399750    0.36000001    2.78999996
   16.62500000  108.73300171    0.34000000    2.76999998
   16.63111115  108.73300171    0.34000000    2.78999996
   16.63527679  100.14299774    0.36000001    2.76999998
   16.63833237  109.10199738    0.36000001    2.76999998
   16.64166641  107.05599976    0.38000000    2.76999998
   16.64444351  107.37599945    0.38000000    2.76999998
   16.64527702   94.62660217    0.38000000    2.76999998
   16.64861107  106.46299744    0.36000001    2.76999998
   16.65194321  105.02999878    0.34000000    2.78999996
   16.65499878  112.11100006    0.36000001    2.76999998
   16.65833282  109.48999786    0.36000001    2.76999998
   16.66138840  111.19000244    0.36000001    2.76999998
   16.66472244  109.00800323    0.40000001    2.76999998
   16.66805458  105.52999878    0.44000000    2.76999998
   16.67388916  105.52999878    0.41999999    2.76999998
   16.67805481  100.96099854    0.41999999    2.76999998
   16.68138885  103.97000122    0.41999999    2.76999998
   16.68444443  107.25599670    0.44000000    2.76999998
   16.68777657  107.22000122    0.41999999    2.76999998
   16.69083214  105.19999695    0.41999999    2.76999998
   16.69416618  110.60299683    0.38000000    2.76999998
   16.69749832  112.73400116    0.38000000    2.78999996
   16.70083427  106.26399994    0.38000000    2.78999996
   16.70388985  105.00099945    0.34000000    2.78999996
   16.70722389  105.32900238    0.34000000    2.76999998
   16.71027946  111.03900146    0.34000000    2.78999996
   16.71111107  111.32199860    0.34000000    2.78999996
   16.71666718  111.32199860    0.36000001    2.76999998
   16.72083473  107.91300201    0.34000000    2.76999998
   16.72416687  109.38200378    0.34000000    2.78999996
   16.72722244  108.93800354    0.34000000    2.76999998
   16.73055649  110.25599670    0.36000001    2.76999998
   16.73388863  114.05799866    0.36000001    2.76999998
   16.73694420  112.91899872    0.34000000    2.76999998
   16.74027824  111.43299866    0.34000000    2.76999998
   16.74361229  108.04199982    0.31999999    2.76999998
   16.74444389  108.56199646    0.31999999    2.76999998
   16.74694443  110.77400208    0.34000000    2.78999996
   16.75027847  108.27899933    0.34000000    2.78999996
   16.75361061  107.66100311    0.34000000    2.76999998
   16.75944519  107.66100311    0.34000000    2.76999998
   16.76361084  109.85299683    0.36000001    2.76999998
   16.76694489  107.41100311    0.36000001    2.76999998
   16.77027702  104.70300293    0.36000001    2.78999996
   16.77333260  110.68299866    0.38000000    2.78999996
   16.77666664  107.01100159    0.38000000    2.76999998
   16.77777672  115.78299713    0.38000000    2.76999998
   16.78000069  114.84899902    0.36000001    2.76999998
   16.78333282  110.43499756    0.36000001    2.76999998
   16.78666687  110.91799927    0.36000001    2.76999998
   16.78972244  114.60199738    0.38000000    2.76999998
   16.79305458  113.41400146    0.38000000    2.76999998
   16.79638863  110.41400146    0.36000001    2.78999996
   16.80249977  110.41400146    0.36000001    2.76999998
   16.80666542  109.33000183    0.36000001    2.76999998
   16.80972099  110.50199890    0.34000000    2.76999998
   16.81110954  107.36399841    0.34000000    2.76999998
   16.81333351  110.99199677    0.34000000    2.76999998
   16.81666756  104.78800201    0.36000001    2.76999998
   16.82000160  106.20899963    0.34000000    2.76999998
   16.82305717  112.71299744    0.34000000    2.78999996
   16.82638931  113.58599854    0.34000000    2.78999996
   16.82972336  109.09400177    0.34000000    2.78999996
   16.83277893  108.38600159    0.34000000    2.78999996
   16.83611107  107.76899719    0.34000000    2.78999996
   16.83916664  109.66200256    0.34000000    2.76999998
   16.84527779  109.66200256    0.34000000    2.76999998
   16.84944534  117.07599640    0.34000000    2.78999996
   16.85250092  110.63999939    0.34000000    2.76999998
   16.85583305  104.30699921    0.34000000    2.76999998
   16.85916710  109.18199921    0.31999999    2.76999998
   16.86250114  107.16200256    0.31999999    2.76999998
   16.86555672  102.57199860    0.31999999    2.76999998
   16.86888885  103.74700165    0.31999999    2.76999998
   16.87222290  108.96199799    0.31999999    2.76999998
   16.87527847  101.60600281    0.31999999    2.76999998
   16.87777710  103.25800323    0.31999999    2.76999998
   16.87888908  100.80100250    0.31999999    2.76999998
   16.88222313  105.73400116    0.31999999    2.76999998
   16.88805580  105.73400116    0.34000000    2.76999998
   16.89222145  113.60399628    0.36000001    2.76999998
   16.89555550  111.00399780    0.36000001    2.76999998
   16.89861107  111.11299896    0.36000001    2.76999998
   16.90194321  109.79900360    0.44000000    2.76999998
   16.90499878  111.50599670    0.41999999    2.76999998
   16.90833282  107.66200256    0.50000000    2.76999998
   16.91110992  113.21199799    0.50000000    2.76999998
   16.91222191  109.85099792    0.50000000    2.76999998
   16.91527748  120.50700378    0.55000001    2.76999998
   16.91860962  109.00800323    0.41999999    2.76999998
   16.92166519  107.26499939    0.36000001    2.76999998
   16.92499924  102.63899994    0.36000001    2.76999998
   16.93083191  102.63899994    0.34000000    2.78999996
   16.93499947  110.30400085    0.38000000    2.78999996
   16.93833160  107.92700195    0.36000001    2.76999998
   16.94138718  110.28600311    0.34000000    2.78999996
   16.94555473  109.18699646    0.36000001    2.76999998
   16.94638824  115.31700134    0.36000001    2.76999998
   16.94972038  102.87599945    0.36000001    2.76999998
   16.95277786   99.26219940    0.38000000    2.76999998
   16.95611191  101.51799774    0.38000000    2.75000000
   16.95916748  107.31400299    0.36000001    2.76999998
   16.96250153  108.96099854    0.38000000    2.78999996
   16.96583366  102.79000092    0.40000001    2.76999998
   16.96888924  107.04399872    0.40000001    2.76999998
   16.97389030  107.04399872    0.36000001    2.76999998
   16.97777748  109.68900299    0.36000001    2.76999998
   16.98111153  108.51399994    0.36000001    2.78999996
   16.98444557  107.44699860    0.36000001    2.76999998
   16.98750114  110.30100250    0.36000001    2.76999998
   16.99083328  111.32199860    0.36000001    2.76999998
   16.99416733  104.54599762    0.38000000    2.76999998
   16.99722290  115.23500061    0.38000000    2.76999998
   17.00055504  107.55400085    0.38000000    2.76999998
   17.00361061  102.54799652    0.38000000    2.76999998
   17.00694466  111.13700104    0.38000000    2.76999998
   17.01027870  114.66100311    0.38000000    2.78999996
   17.01111031   98.92209625    0.38000000    2.78999996
   17.03166580   98.92209625    0.44000000    2.76999998
   17.03583336  108.01799774    0.44000000    2.76999998
   17.03916550  100.68099976    0.41999999    2.76999998
   17.04222107  103.62500000    0.41999999    2.76999998
   17.04444313  108.13500214    0.40000001    2.76999998
   17.04583359  103.67600250    0.40000001    2.76999998
   17.04916573  105.06199646    0.38000000    2.76999998
   17.05249977  104.25599670    0.38000000    2.76999998
   17.05555534  107.81199646    0.38000000    2.76999998
   17.05888748  105.56099701    0.38000000    2.76999998
   17.06194305  102.88600159    0.38000000    2.76999998
   17.06527710  103.08499908    0.38000000    2.76999998
   17.06861115  107.45899963    0.36000001    2.78999996
   17.07444572  107.45899963    0.36000001    2.76999998
   17.07861137  103.48500061    0.36000001    2.76999998
   17.08194542  102.94999695    0.36000001    2.76999998
   17.08500099  112.92600250    0.40000001    2.76999998
   17.08833313  105.33200073    0.40000001    2.76999998
   17.09166718  104.14900208    0.38000000    2.76999998
   17.09472275  104.25900269    0.36000001    2.76999998
   17.09805679  107.67900085    0.34000000    2.76999998
   17.10111237  100.52200317    0.36000001    2.76999998
   17.10444450  101.43900299    0.36000001    2.76999998
   17.10888863  105.77999878    0.36000001    2.76999998
   17.11111069   97.20469666    0.36000001    2.76999998
   17.11250114   97.54509735    0.36000001    2.76999998
   17.11833382   97.54509735    0.34000000    2.75000000
   17.12249947  103.79599762    0.34000000    2.75000000
   17.12583351   97.22049713    0.36000001    2.76999998
   17.12888908  100.47499847    0.38000000    2.76999998
   17.13222313  101.85900116    0.38000000    2.78999996
   17.13527679  102.50299835    0.36000001    2.76999998
   17.13861084  101.65599823    0.38000000    2.76999998
   17.14194489  102.48899841    0.38000000    2.76999998
   17.14444351   98.83969879    0.38000000    2.76999998
   17.14555550  101.42700195    0.38000000    2.76999998
   17.14861107   98.30780029    0.40000001    2.76999998
   17.15194321   99.77629852    0.38000000    2.76999998
   17.15499878  102.08499908    0.38000000    2.76999998
   17.16138840  102.08499908    0.38000000    2.76999998
   17.16527748   98.56379700    0.36000001    2.78999996
   17.16860962  102.41899872    0.36000001    2.78999996
   17.17194366  103.06800079    0.36000001    2.76999998
   17.17499924  103.70800018    0.36000001    2.76999998
   17.17805481  101.01399994    0.38000000    2.76999998
   17.17888832  108.68199921    0.38000000    2.76999998
   17.18194389  104.19300079    0.38000000    2.76999998
   17.18527603  106.31300354    0.38000000    2.76999998
   17.18861008  101.05200195    0.40000001    2.76999998
   17.19166565  103.75800323    0.41999999    2.76999998
   17.19499969  102.29699707    0.41999999    2.76999998
   17.19833183   99.38760376    0.40000001    2.76999998
   17.20416832   99.38760376    0.40000001    2.76999998
   17.20833397   99.87989807    0.40000001    2.78999996
   17.21138954  101.61599731    0.38000000    2.76999998
   17.21194458  101.21900177    0.38000000    2.76999998
   17.21527863  106.20800018    0.38000000    2.76999998
   17.21833420  105.26599884    0.36000001    2.76999998
   17.22166634  101.50299835    0.36000001    2.76999998
   17.22472191  104.26399994    0.36000001    2.76999998
   17.22805595  103.86799622    0.36000001    2.76999998
   17.23139000  104.65399933    0.36000001    2.76999998
   17.23444557  105.39099884    0.38000000    2.76999998
   17.23777771  101.68900299    0.38000000    2.76999998
   17.24083328  100.50599670    0.38000000    2.76999998
   17.24916649  100.50599670    0.38000000    2.76999998
   17.25333405   99.99739838    0.40000001    2.76999998
   17.25666618  101.57900238    0.38000000    2.76999998
   17.26000023   99.07409668    0.38000000    2.76999998
   17.26305580   99.55989838    0.38000000    2.76999998
   17.26638794  103.60299683    0.38000000    2.76999998
   17.26944351  101.74800110    0.38000000    2.76999998
   17.27277756   99.60169983    0.36000001    2.76999998
   17.27611160  104.81400299    0.36000001    2.76999998
   17.27805519  100.04599762    0.36000001    2.76999998
   17.27972221  100.11699677    0.36000001    2.76999998
   17.28305435   98.02140045    0.38000000    2.76999998
   17.28972244   98.02140045    0.36000001    2.76999998
   17.29388809  117.59799957    0.36000001    2.76999998
   17.29722214   97.24919891    0.38000000    2.76999998
   17.30027771  100.98699951    0.36000001    2.76999998
   17.30360985   98.55509949    0.38000000    2.76999998
   17.30694389  105.73000336    0.40000001    2.76999998
   17.30999947  101.49700165    0.40000001    2.76999998
   17.31138802  102.00000000    0.40000001    2.76999998
   17.31361008   95.65599823    0.38000000    2.76999998
   17.31666756   99.28910065    0.38000000    2.76999998
   17.32000160   96.25520325    0.38000000    2.76999998
   17.32333374   96.60910034    0.38000000    2.76999998
   17.32638931  100.14199829    0.38000000    2.76999998
   17.33250046  100.14199829    0.38000000    2.78999996
   17.33666801  103.23600006    0.38000000    2.76999998
   17.34000015  102.77999878    0.36000001    2.76999998
   17.34305573  100.41400146    0.36000001    2.76999998
   17.34500122  103.44699860    0.34000000    2.76999998
   17.34694481   96.89920044    0.34000000    2.76999998
   17.35000038  100.27600098    0.36000001    2.76999998
   17.35333443   97.04750061    0.36000001    2.76999998
   17.35666656  100.80300140    0.36000001    2.76999998
   17.35972214   96.75420380    0.34000000    2.76999998
   17.36305618   99.58950043    0.36000001    2.76999998
   17.36611176  100.97299957    0.36000001    2.76999998
   17.36944389   99.86309814    0.38000000    2.76999998
   17.37555504   99.86309814    0.38000000    2.76999998
   17.37944412  104.37599945    0.38000000    2.76999998
   17.38277817  101.18199921    0.38000000    2.76999998
   17.38611031   97.94380188    0.38000000    2.76999998
   17.38916588  105.47000122    0.40000001    2.76999998
   17.39249992  106.68199921    0.40000001    2.76999998
   17.39583397   98.08439636    0.40000001    2.76999998
   17.39916611   99.35430145    0.38000000    2.76999998
   17.40222168   94.36869812    0.36000001    2.76999998
   17.40555573   96.10590363    0.36000001    2.76999998
   17.40861130   96.60510254    0.38000000    2.76999998
   17.41166687   97.31780243    0.38000000    2.76999998
   17.41222191  102.48200226    0.38000000    2.76999998
   17.41833305  102.48200226    0.38000000    2.76999998
   17.42249870  100.96199799    0.38000000    2.78999996
   17.42583275   94.70899963    0.38000000    2.76999998
   17.42888832   98.85890198    0.38000000    2.76999998
   17.43222237   95.49459839    0.38000000    2.76999998
   17.43527603  102.55000305    0.38000000    2.75000000
   17.43861008  103.12999725    0.38000000    2.75000000
   17.44194412   96.78970337    0.38000000    2.76999998
   17.44499969   95.76889801    0.38000000    2.76999998
   17.44555473   98.27719879    0.38000000    2.76999998
   17.44888878  103.40599823    0.40000001    2.76999998
   17.45194435   99.10019684    0.40000001    2.76999998
   17.45527840   94.81520081    0.40000001    2.76999998
   17.46111107   94.81520081    0.38000000    2.75000000
   17.46527863  103.96600342    0.40000001    2.75000000
   17.46861076   95.93910217    0.40000001    2.75000000
   17.47194481  100.18800354    0.41999999    2.75000000
   17.47500038   99.12940216    0.41999999    2.76999998
   17.47833443  100.15100098    0.41999999    2.75000000
   17.47861099  104.15799713    0.41999999    2.75000000
   17.48194504   97.16429901    0.44000000    2.76999998
   17.48527718   99.31849670    0.44000000    2.75000000
   17.48833275   96.28250122    0.41999999    2.76999998
   17.49166679   99.28320313    0.41999999    2.76999998
   17.49500084   97.12349701    0.41999999    2.76999998
   17.49805641   99.72579956    0.41999999    2.75000000
   17.50388908   99.72579956    0.44000000    2.76999998
   17.50805473  102.16300201    0.41999999    2.76999998
   17.51138878  101.05300140    0.41999999    2.76999998
   17.51194382   97.92649841    0.41999999    2.76999998
   17.51499939   98.11750031    0.44000000    2.76999998
   17.51833344   96.32530212    0.44000000    2.76999998
   17.52138901   99.96929932    0.41999999    2.76999998
   17.52472115   98.39289856    0.41999999    2.76999998
   17.52805519   98.08609772    0.41999999    2.76999998
   17.53138924   99.81510162    0.41999999    2.76999998
   17.53444481  102.40499878    0.41999999    2.76999998
   17.53777695  101.98999786    0.41999999    2.76999998
   17.54083252  101.47000122    0.41999999    2.76999998
   17.54694366  101.47000122    0.40000001    2.75000000
   17.55111122   98.22049713    0.40000001    2.76999998
   17.55416679   97.07060242    0.38000000    2.76999998
   17.55749893   99.47409821    0.38000000    2.76999998
   17.56055450  100.29199982    0.38000000    2.75000000
   17.56388855   96.75370026    0.38000000    2.76999998
   17.56722260  105.37799835    0.38000000    2.76999998
   17.57027817   98.11650085    0.38000000    2.76999998
   17.57361221  103.37400055    0.40000001    2.76999998
   17.57666779  104.77899933    0.41999999    2.76999998
   17.58000183  104.69499969    0.44000000    2.75000000
   17.58166695  100.90399933    0.44000000    2.75000000
   17.58472252   99.81449890    0.40000001    2.76999998
   17.58972359   99.81449890    0.41999999    2.76999998
   17.59388924  100.86900330    0.41999999    2.75000000
   17.59694481  104.39199829    0.41999999    2.75000000
   17.60027885   98.74710083    0.41999999    2.75000000
   17.60361099  103.39499664    0.41999999    2.75000000
   17.60666656  101.72100067    0.40000001    2.76999998
   17.61000061  105.56900024    0.41999999    2.75000000
   17.61194420  103.55200195    0.41999999    2.75000000
   17.61361122  104.42099762    0.41999999    2.75000000
   17.61694527  101.23600006    0.41999999    2.75000000
   17.62027740  102.21800232    0.41999999    2.76999998
   17.62333298  102.00700378    0.41999999    2.75000000
   17.62666702   97.50170135    0.41999999    2.75000000
   17.63249969   97.50170135    0.41999999    2.75000000
   17.63666725  103.06900024    0.44000000    2.76999998
   17.63999939  102.76899719    0.44000000    2.75000000
   17.64305496   98.84619904    0.46000001    2.76999998
   17.64555550  102.41300201    0.46000001    2.76999998
   17.64666748   94.63510132    0.46000001    2.76999998
   17.64999962   96.80000305    0.47999999    2.76999998
   17.65305519  100.88800049    0.47999999    2.75000000
   17.65638924  104.18199921    0.47999999    2.75000000
   17.65972137   97.88300323    0.47999999    2.76999998
   17.66277695   99.09729767    0.47999999    2.75000000
   17.66611099   95.71119690    0.47999999    2.76999998
   17.66944313   97.40370178    0.47999999    2.76999998
   17.67527771   97.40370178    0.47999999    2.75000000
   17.67944336   93.71160126    0.51999998    2.75000000
   17.68277740  104.29399872    0.46000001    2.75000000
   17.68610954  100.59700012    0.47999999    2.75000000
   17.68916512  101.28800201    0.52999997    2.75000000
   17.69249916   97.88150024    0.55000001    2.75000000
   17.69555473   99.15630341    0.55000001    2.75000000
   17.69888878   99.97740173    0.70999998    2.76999998
   17.70222282   96.45690155    0.56999999    2.75000000
   17.70527840   93.80509949    0.56999999    2.75000000
   17.70861244   97.55619812    0.55000001    2.76999998
   17.71194458   93.35549927    0.52999997    2.76999998
   17.71222305   97.24340057    0.52999997    2.76999998
   17.71944427   97.24340057    0.46000001    2.76999998
   17.72361183   96.37380219    0.47999999    2.76999998
   17.72694588   97.32949829    0.46000001    2.75000000
   17.73000145   98.61019897    0.41999999    2.76999998
   17.73333359   96.46250153    0.41999999    2.76999998
   17.73666763   97.37650299    0.41999999    2.76999998
   17.73972321   98.47789764    0.41999999    2.76999998
   17.74305534  100.14199829    0.41999999    2.75000000
   17.74555588   99.99120331    0.44000000    2.75000000
   17.74666786   97.79959869    0.44000000    2.75000000
   17.75000000   99.54409790    0.41999999    2.76999998
   17.75305557   98.13649750    0.40000001    2.76999998
   17.75638962   95.40959930    0.40000001    2.76999998
   17.76111031   95.40959930    0.40000001    2.75000000
   17.76527786   97.39530182    0.41999999    2.76999998
   17.76833344   99.38300323    0.44000000    2.75000000
   17.77166557  100.31300354    0.44000000    2.75000000
   17.77499962   95.97419739    0.46000001    2.75000000
   17.77805519   99.62169647    0.47999999    2.76999998
   17.77888870  102.35900116    0.47999999    2.76999998
   17.78166580   96.48500061    0.47999999    2.75000000
   17.78499985   95.28479767    0.47999999    2.75000000
   17.78805542   99.62329865    0.47999999    2.75000000
   17.79138756   96.31009674    0.47999999    2.75000000
   17.79444313   96.07250214    0.46000001    2.75000000
   17.79777718   97.46360016    0.47999999    2.76999998
   17.80388832   97.46360016    0.51999998    2.75000000
   17.80805397  106.30400085    0.61000001    2.76999998
   17.81138802   99.20069885    0.64999998    2.75000000
   17.81222153   95.37470245    0.64999998    2.75000000
   17.81499863   98.61380005    0.55000001    2.75000000
   17.81833458   97.72329712    0.75000000    2.75000000
   17.82139015   94.27279663    0.75000000    2.75000000
   17.82472229   95.41130066    0.52999997    2.75000000
   17.82805634   99.38430023    0.47999999    2.76999998
   17.83111191   98.12619781    0.50000000    2.75000000
   17.83444595   97.76550293    0.50000000    2.75000000
   17.83750153  101.08200073    0.50000000    2.76999998
   17.84083366   96.96720123    0.46000001    2.76999998
   17.84666824   96.96720123    0.47999999    2.76999998
   17.85083389   90.43199921    0.46000001    2.75000000
   17.85416794   91.33229828    0.46000001    2.75000000
   17.85722351  102.02200317    0.47999999    2.75000000
   17.86055565   98.50589752    0.47999999    2.76999998
   17.86388969   95.24320221    0.46000001    2.75000000
   17.86694527   90.75569916    0.47999999    2.75000000
   17.87027740   94.85549927    0.47999999    2.75000000
   17.87361145   94.63839722    0.46000001    2.76999998
   17.87666702   93.08100128    0.47999999    2.75000000
   17.87888908   96.52539825    0.47999999    2.75000000
   17.88027763   94.65390015    0.47999999    2.75000000
   17.88361168   97.77120209    0.46000001    2.75000000
   17.88972282   97.77120209    0.47999999    2.75000000
   17.89388847   96.55950165    0.47999999    2.75000000
   17.89694405   99.96630096    0.47999999    2.75000000
   17.90027809   93.73269653    0.46000001    2.75000000
   17.90333366   97.79969788    0.46000001    2.75000000
   17.90666580   97.59480286    0.46000001    2.75000000
   17.90999985   99.34290314    0.46000001    2.75000000
   17.91222191  102.97000122    0.46000001    2.76999998
   17.91361046  104.18900299    0.46000001    2.76999998
   17.91694450   98.81430054    0.46000001    2.75000000
   17.92000008  100.81900024    0.46000001    2.75000000
   17.92333221  105.46199799    0.47999999    2.75000000
   17.92666626   97.89969635    0.47999999    2.75000000
   17.93249893   97.89969635    0.47999999    2.75000000
   17.93666649   99.38439941    0.47999999    2.75000000
   17.93972206  102.52500153    0.47999999    2.75000000
   17.94305420   96.79589844    0.47999999    2.75000000
   17.94555473   94.60299683    0.47999999    2.75000000
   17.94666672   96.34850311    0.47999999    2.75000000
   17.95000076   99.29640198    0.47999999    2.75000000
   17.95305634  104.01399994    0.50000000    2.76999998
   17.95639038   99.05290222    0.50000000    2.75000000
   17.95972252   99.02999878    0.51999998    2.75000000
   17.96277809   98.90059662    0.52999997    2.75000000
   17.96611214   93.32649994    0.52999997    2.75000000
   17.96944427  103.42700195    0.55000001    2.73000002
   17.97527885  103.42700195    0.55000001    2.75000000
   17.97944450  100.72799683    0.52999997    2.75000000
   17.98277855   97.10459900    0.52999997    2.75000000
   17.98583412   96.20829773    0.51999998    2.75000000
   17.98916626   99.73030090    0.51999998    2.75000000
   17.99250031   99.07879639    0.51999998    2.75000000
   17.99555588  100.84700012    0.52999997    2.75000000
   17.99888992   94.77629852    0.52999997    2.75000000
   18.00194359  106.32299805    0.55000001    2.75000000
   18.00527763   99.79219818    0.67000002    2.75000000
   18.00861168   98.17130280    0.61000001    2.75000000
   18.01166725  106.63400269    0.63000000    2.75000000
   18.01222229  105.45200348    0.67000002    2.75000000
   18.01805496  105.45200348    0.52999997    2.75000000
   18.02222252   98.83399963    0.52999997    2.75000000
   18.02555466   97.14119720    0.52999997    2.75000000
   18.04527664  100.28299713    0.55000001    2.75000000
   18.04583359   98.04679871    0.55000001    2.76999998
   18.04888916   93.41130066    0.52999997    2.75000000
   18.05194283   97.96360016    0.55000001    2.75000000
   18.05527687   96.12259674    0.52999997    2.75000000
   18.06110954   96.12259674    0.52999997    2.75000000
   18.06527710  103.96399689    0.52999997    2.75000000
   18.06861115   96.59290314    0.56999999    2.73000002
   18.07194519   99.11460114    0.58999997    2.75000000
   18.07500076  100.04499817    0.56999999    2.75000000
   18.07833481   98.41110229    0.55000001    2.75000000
   18.07916832  106.70200348    0.55000001    2.75000000
   18.08194542  103.40799713    0.55000001    2.75000000
   18.08527756  111.95899963    0.52999997    2.75000000
   18.08833313  104.99299622    0.52999997    2.75000000
   18.09166718  108.08300018    0.52999997    2.75000000
   18.09472275  100.82900238    0.52999997    2.75000000
   18.09805679   99.81680298    0.55000001    2.75000000
   18.10416794   99.81680298    0.56999999    2.76999998
   18.10805511   94.24240112    0.67000002    2.75000000
   18.11138916   96.98329926    0.67000002    2.75000000
   18.11250114   96.60780334    0.64999998    2.75000000
   18.11499977   92.66390228    0.67000002    2.73000002
   18.11833382   98.86540222    0.64999998    2.75000000
   18.12138939  101.68000031    0.64999998    2.75000000
   18.12472153   93.84110260    0.67000002    2.75000000
   18.12916756  102.50299835    0.64999998    2.73000002
   18.13249969   97.05719757    0.67000002    2.73000002
   18.13555527  100.32599640    0.70999998    2.75000000
   18.13888931  101.79599762    0.70999998    2.75000000
   18.14194489   97.27809906    0.73000002    2.75000000
   18.14694405   97.27809906    0.80000001    2.75000000
   18.15111160  101.97299957    0.86000001    2.73000002
   18.15416718  105.81999969    0.95999998    2.73000002
   18.15749931  100.56700134    0.95999998    2.73000002
   18.16055489  100.09100342    0.94000000    2.73000002
   18.16388893  104.25700378    0.92000002    2.73000002
   18.16722107   94.61470032    0.94000000    2.73000002
   18.17027664  100.35500336    0.94000000    2.73000002
   18.17361069  101.36799622    0.92000002    2.73000002
   18.17694473  104.13899994    0.88000000    2.73000002
   18.17916679  102.01300049    0.88000000    2.73000002
   18.18055534   98.93759918    0.88000000    2.75000000
   18.18388748  100.09600067    0.86000001    2.73000002
   18.18972206  100.09600067    0.81999999    2.73000002
   18.19388771   99.54769897    0.80000001    2.75000000
   18.19694328   95.23269653    0.79000002    2.75000000
   18.20027924   93.95549774    0.75000000    2.75000000
   18.20361137   92.61710358    0.75000000    2.75000000
   18.20666695   91.49299622    0.76999998    2.73000002
   18.21000099   89.03639984    0.79000002    2.73000002
   18.21250153   93.39309692    0.79000002    2.73000002
   18.21361160   95.43250275    0.80000001    2.73000002
   18.21666718   92.86319733    0.80000001    2.73000002
   18.22000122   92.05149841    0.81999999    2.73000002
   18.22333336   94.44799805    0.80000001    2.75000000
   18.22638893   95.43080139    0.80000001    2.75000000
   18.23250008   95.43080139    0.83999997    2.73000002
   18.23666763   95.67910004    0.88000000    2.73000002
   18.23999977   97.23680115    0.86000001    2.73000002
   18.24305534  103.10700226    0.86000001    2.75000000
   18.24583435   98.69599915    0.88000000    2.75000000
   18.24666786   92.80130005    0.88000000    2.75000000
   18.25000000   99.64959717    0.79000002    2.73000002
   18.25305557  101.76300049    0.73000002    2.73000002
   18.25638962  101.38700104    0.73000002    2.73000002
   18.25944519  100.75099945    0.70999998    2.73000002
   18.26277733   97.25350189    0.70999998    2.73000002
   18.26611137   91.65219879    0.67000002    2.75000000
   18.26916695   97.13860321    0.70999998    2.73000002
   18.27527809   97.13860321    0.81999999    2.73000002
   18.27944374  101.65799713    0.88000000    2.73000002
   18.28277779   89.12000275    1.16999996    2.73000002
   18.28610992   92.32749939    0.64999998    2.73000002
   18.28916550   92.83290100    0.80000001    2.75000000
   18.29249954   89.23840332    0.79000002    2.73000002
   18.29555511   92.14880371    0.79000002    2.73000002
   18.29888916   94.86199951    0.79000002    2.75000000
   18.30222130   93.96410370    0.89999998    2.73000002
   18.30527687   90.97200012    0.89999998    2.73000002
   18.30861092   93.20449829    0.75000000    2.75000000
   18.31194305   90.30930328    0.75000000    2.75000000
   18.31250000   93.03600311    0.88000000    2.73000002
   18.31833458   93.03600311    0.76999998    2.75000000
   18.32222366   97.53690338    0.81999999    2.73000002
   18.32555580   94.48989868    1.05999994    2.73000002
   18.32888985   96.65010071    1.16999996    2.73000002
   18.33194542   93.87200165    1.16999996    2.73000002
   18.33527756   94.34459686    1.14999998    2.73000002
   18.33861160   96.82579803    0.95999998    2.73000002
   18.34166718   95.71179962    0.95999998    2.73000002
   18.34500122   94.83979797    0.69000000    2.75000000
   18.34583473   94.21299744    0.67000002    2.73000002
   18.34861183   97.86080170    0.67000002    2.73000002
   18.35194397   96.49160004    0.69000000    2.73000002
   18.35499954   93.52130127    0.69000000    2.75000000
   18.36111069   93.52130127    0.67000002    2.73000002
   18.36527824   93.99330139    0.67000002    2.73000002
   18.36833382   93.77559662    0.67000002    2.73000002
   18.37166595   92.30470276    0.69000000    2.73000002
   18.37500000   92.36080170    0.69000000    2.73000002
   18.37805557   94.98400116    0.69000000    2.73000002
   18.37916756   88.96880341    0.69000000    2.73000002
   18.38166618   89.20700073    0.69000000    2.73000002
   18.38500023   90.94570160    0.73000002    2.73000002
   18.38833237   93.26959991    0.73000002    2.73000002
   18.39138794   90.76799774    0.70999998    2.73000002
   18.39472198   89.04350281    0.70999998    2.73000002
   18.39805603   93.47260284    0.69000000    2.73000002
   18.40388870   93.47260284    0.70999998    2.73000002
   18.40805435  100.15000153    0.69000000    2.73000002
   18.41110992   98.70279694    0.69000000    2.73000002
   18.41250038   98.93910217    0.69000000    2.73000002
   18.41499901   93.03589630    0.69000000    2.73000002
   18.41833305   98.21939850    0.69000000    2.73000002
   18.42138863   93.41960144    0.73000002    2.73000002
   18.42472076   92.20989990    0.70999998    2.73000002
   18.42805481  100.03500366    0.69000000    2.73000002
   18.43111038   96.08439636    0.69000000    2.73000002
   18.43444443   95.10119629    0.69000000    2.73000002
   18.43750000   97.35320282    0.79000002    2.73000002
   18.44083214   94.18379974    0.76999998    2.73000002
   18.44666672   94.18379974    0.67000002    2.73000002
   18.45083427   95.24819946    0.64999998    2.73000002
   18.45416832   96.20149994    0.67000002    2.73000002
   18.45722389   93.47059631    0.67000002    2.73000002
   18.46055603  101.07900238    0.86000001    2.73000002
   18.46389008   98.31269836    0.76999998    2.75000000
   18.46694565   96.82579803    0.75000000    2.73000002
   18.47027779   96.20939636    0.75000000    2.73000002
   18.47361183   99.49490356    0.75000000    2.73000002
   18.47666740  100.24500275    0.63000000    2.73000002
   18.47916794   96.32720184    0.63000000    2.73000002
   18.48027802   92.36750031    0.63000000    2.73000002
   18.48361206   95.09839630    0.61000001    2.73000002
   18.48972321   95.09839630    0.63000000    2.73000002
   18.49361229   87.69940186    0.64999998    2.73000002
   18.49694443   97.49680328    0.70999998    2.73000002
   18.50027847   90.71769714    0.70999998    2.73000002
   18.50333405   96.16950226    0.70999998    2.73000002
   18.50666618   96.64379883    0.75000000    2.73000002
   18.51000023   96.34999847    0.79000002    2.71000004
   18.51250076   89.91310120    0.79000002    2.73000002
   18.51361084   94.46160126    0.79000002    2.73000002
   18.51694489   91.64179993    0.81999999    2.75000000
   18.52000046   94.87120056    0.79000002    2.73000002
   18.52333260   96.79270172    0.76999998    2.73000002
   18.52666664   98.79399872    0.69000000    2.75000000
   18.53249931   98.79399872    0.64999998    2.73000002
   18.53666687   94.31330109    0.67000002    2.73000002
   18.53972244   99.04940033    0.67000002    2.73000002
   18.54305458   95.90630341    0.67000002    2.73000002
   18.54583359   99.12049866    0.67000002    2.73000002
   18.54666710   98.00090027    0.67000002    2.73000002
   18.54999924   93.13430023    0.79000002    2.73000002
   18.55305481   97.76300049    0.80000001    2.73000002
   18.55638885   98.71920013    0.81999999    2.73000002
   18.55972099   91.88140106    0.81999999    2.73000002
   18.56277657   95.87449646    0.81999999    2.73000002
   18.56611061  101.56300354    0.83999997    2.71000004
   18.56944466  100.71299744    0.86000001    2.71000004
   18.57527924  100.71299744    0.88000000    2.71000004
   18.57944489   94.95369720    0.88000000    2.71000004
   18.58277893  101.34500122    0.86000001    2.71000004
   18.58583450   99.09760284    0.86000001    2.73000002
   18.58916664  101.25299835    0.80000001    2.73000002
   18.59222221   99.19370270    0.80000001    2.73000002
   18.59555626   93.86299896    0.79000002    2.71000004
   18.59889030   94.74479675    0.79000002    2.71000004
   18.60194397   94.42459869    0.76999998    2.71000004
   18.60527802   93.95429993    0.75000000    2.73000002
   18.60861206   89.88590240    0.80000001    2.73000002
   18.61166763   96.82230377    0.79000002    2.73000002
   18.61250114   97.73459625    0.79000002    2.73000002
   18.61944389   97.73459625    0.76999998    2.73000002
   18.62361145  104.13400269    0.79000002    2.73000002
   18.62694550   99.23529816    0.79000002    2.73000002
   18.63027763   97.49929810    0.79000002    2.73000002
   18.63333321   94.16799927    0.80000001    2.71000004
   18.63666725   99.68309784    0.79000002    2.71000004
   18.63999939   95.28800201    0.79000002    2.71000004
   18.64305496   97.93650055    0.80000001    2.71000004
   18.64583397   99.04389954    0.80000001    2.71000004
   18.64666748   96.05349731    0.80000001    2.71000004
   18.64999962  103.85500336    0.81999999    2.71000004
   18.65305519   94.89060211    0.81999999    2.71000004
   18.65638924  102.42099762    0.88000000    2.71000004
   18.66110992  102.42099762    0.89999998    2.71000004
   18.66499901  100.73200226    0.88000000    2.73000002
   18.66833305   92.41519928    0.86000001    2.71000004
   18.67166519   96.66880035    0.86000001    2.71000004
   18.67472076   92.50129700    0.86000001    2.71000004
   18.67805481   95.31950378    0.86000001    2.71000004
   18.67916679  102.77600098    0.86000001    2.71000004
   18.68166542   94.12689972    0.86000001    2.71000004
   18.68499947   95.75160217    0.92000002    2.71000004
   18.68805504   96.33290100    0.94000000    2.71000004
   18.69138718   91.00800323    0.94000000    2.71000004
   18.69472122   93.23680115    0.94000000    2.71000004
   18.69777679   98.60949707    0.94000000    2.71000004
   18.70388985   98.60949707    1.00000000    2.71000004
   18.70805550   98.50099945    1.00000000    2.71000004
   18.71111107   98.53620148    1.03999996    2.71000004
   18.71250153   96.88030243    1.07000005    2.71000004
   18.71472359   95.09040070    1.07000005    2.71000004
   18.71805573  104.06500244    1.09000003    2.71000004
   18.72138977   95.45619965    1.09000003    2.71000004
   18.72444534   99.03359985    1.09000003    2.71000004
   18.72777748   94.27220154    1.09000003    2.71000004
   18.73083305   96.77890015    1.11000001    2.71000004
   18.73416710   97.05549622    1.11000001    2.71000004
   18.73750114  100.71199799    1.16999996    2.71000004
   18.74055672  103.61699677    1.25000000    2.71000004
   18.74666786  103.61699677    1.25000000    2.71000004
   18.75083351   91.07839966    1.28999996    2.71000004
   18.75388908   89.58149719    1.41999996    2.71000004
   18.75722313   89.34259796    1.39999998    2.71000004
   18.76055527   93.78919983    1.39999998    2.71000004
   18.76361084   89.38339996    1.36000001    2.71000004
   18.76694489   91.69699860    1.48000002    2.69000006
   18.77027702   95.18879700    2.17000008    2.69000006
   18.77333260   91.25990295    2.39000010    2.69000006
   18.77666664   92.91130066    2.36999989    2.71000004
   18.77916718   94.41989899    2.32999992    2.71000004
   18.78027725   93.21140289    2.32999992    2.71000004
   18.78361130  100.40399933    2.25000000    2.71000004
   18.78944397  100.40399933    2.21000004    2.71000004
   18.79361153   94.71620178    2.19000006    2.71000004
   18.79694366   93.35780334    2.19000006    2.69000006
   18.79999924   98.55159760    2.15000010    2.71000004
   18.80333328   96.04389954    2.15000010    2.69000006
   18.80666542   97.92610168    2.07999992    2.71000004
   18.80972099   91.77010345    2.00000000    2.71000004
   18.81250000   93.20050049    1.98000002    2.71000004
   18.81333351   92.77729797    1.98000002    2.71000004
   18.81666756   96.86000061    1.98000002    2.71000004
   18.81972313   95.38279724    2.00000000    2.71000004
   18.82305717   97.17639923    2.21000004    2.71000004
   18.82638931   94.52729797    2.32999992    2.69000006
   18.83250046   94.52729797    2.40000010    2.69000006
   18.83638954  102.65100098    2.32999992    2.69000006
   18.83972359   92.87259674    2.30999994    2.69000006
   18.84305573   90.75769806    2.28999996    2.69000006
   18.84583473   96.29419708    2.25000000    2.69000006
   18.84638977   87.06629944    2.25000000    2.69000006
   18.84972191   85.68569946    2.23000002    2.69000006
   18.85277748   92.58840179    2.23000002    2.69000006
   18.85611153   93.58139801    2.19000006    2.69000006
   18.85944557   92.52279663    2.26999998    2.69000006
   18.86250114   91.32900238    2.21000004    2.71000004
   18.86583328   88.46219635    2.30999994    2.69000006
   18.86888885   87.23809814    2.30999994    2.69000006
   18.87527847   87.23809814    2.57999992    2.69000006
   18.87944412   91.49199677    3.01999998    2.69000006
   18.88249969   90.12570190    3.51999998    2.69000006
   18.88583374   93.31749725    3.39000010    2.69000006
   18.88916588   98.93849945    2.98000002    2.69000006
   18.89222145   87.09889984    2.44000006    2.69000006
   18.89555550   89.34040070    2.40000010    2.71000004
   18.89861107   94.68699646    1.91999996    2.71000004
   18.90194321   95.85870361    1.86000001    2.71000004
   18.90527725   90.75229645    1.94000006    2.69000006
   18.90833282   92.34140015    1.85000002    2.69000006
   18.91166687   97.80349731    1.75000000    2.69000006
   18.91277695   95.31300354    1.80999994    2.69000006
   18.91805458   95.31300354    2.00000000    2.71000004
   18.92222214   96.56870270    2.05999994    2.71000004
   18.92555428   95.80930328    2.17000008    2.69000006
   18.92860985   98.07299805    2.23000002    2.69000006
   18.93194389   98.33470154    2.15000010    2.69000006
   18.93499947   94.38539886    2.23000002    2.69000006
   18.93833160   90.92790222    2.51999998    2.69000006
   18.94166565   92.23169708    2.67000008    2.69000006
   18.94472122   90.80989838    2.64000010    2.69000006
   18.94610977   90.03869629    2.71000004    2.69000006
   18.94833183   94.64309692    2.75000000    2.69000006
   18.95166779   89.97380066    2.64000010    2.69000006
   18.95472336   94.78929901    2.42000008    2.69000006
   18.96083450   94.78929901    2.15000010    2.69000006
   18.96500015   90.25689697    2.44000006    2.69000006
   18.96833420   89.86049652    2.01999998    2.69000006
   18.97166634   87.94000244    1.98000002    2.69000006
   18.97472191   91.13490295    1.85000002    2.71000004
   18.97805595   91.16179657    1.63000000    2.69000006
   18.97944450   92.34750366    1.58000004    2.69000006
   18.98166656   91.00330353    1.58000004    2.69000006
   18.98500061   94.20870209    1.61000001    2.71000004
   18.98805618   97.48889923    1.58000004    2.71000004
   18.99138832   93.28019714    1.55999994    2.71000004
   18.99472237   94.31929779    1.61000001    2.71000004
   18.99777794   95.41609955    1.51999998    2.71000004
   19.00388908   95.41609955    1.48000002    2.69000006
   19.00777817  102.79199982    1.66999996    2.69000006
   19.01111031   98.48000336    1.64999998    2.69000006
   19.01388931   93.61759949    1.64999998    2.69000006
   19.01611137   87.05930328    1.64999998    2.69000006
   19.01916695  104.91500092    1.64999998    2.69000006
   19.02249908   96.52089691    1.66999996    2.69000006
   19.02583313   96.32649994    1.64999998    2.71000004
   19.02888870   93.09130096    1.73000002    2.71000004
   19.03222275  101.99199677    1.83000004    2.69000006
   19.03555489   96.12159729    2.26999998    2.69000006
   19.03861046   91.56620026    2.42000008    2.69000006
   19.04194450   92.49749756    2.57999992    2.69000006
   19.06222153   71.23799896    3.82999992    2.67000008
   19.06277657   69.81700134    4.05999994    2.66000009
   19.06583214   94.39849854    4.21999979    2.66000009
   19.06916809   91.05709839    4.53999996    2.66000009
   19.07250023   98.85980225    4.88999987    2.66000009
   19.07555580   93.69259644    4.90999985    2.66000009
   19.07888985   92.95030212    4.90999985    2.66000009
   19.08222389   94.38739777    4.67999983    2.67000008
   19.08527756   92.24739838    3.97000003    2.67000008
   19.08944511   92.24739838    3.01999998    2.67000008
   19.09361267   96.94329834    2.82999992    2.69000006
   19.09555626   95.04479980    3.07999992    2.67000008
   19.09722328   95.18160248    3.26999998    2.67000008
   19.10055542   92.16359711    3.26999998    2.67000008
   19.10388947   97.81999969    2.98000002    2.67000008
   19.10694504   91.07180023    2.64000010    2.69000006
   19.11027908   91.33540344    2.46000004    2.69000006
   19.11333466   92.17279816    2.44000006    2.67000008
   19.11666679   94.06500244    2.75000000    2.67000008
   19.12000084   92.01319885    2.86999989    2.69000006
   19.12305641   93.07720184    2.78999996    2.67000008
   19.12638855   97.79280090    3.09999990    2.67000008
   19.13222313   97.79280090    3.09999990    2.67000008
   19.13638878   91.35459900    2.89000010    2.67000008
   19.13972282   85.42929840    2.69000006    2.67000008
   19.14277840   85.99210358    2.64000010    2.67000008
   19.14611053   92.26260376    2.67000008    2.67000008
   19.14944458   88.18959808    2.46000004    2.67000008
   19.15250015   95.40339661    2.11999989    2.69000006
   19.15583229   95.02100372    1.64999998    2.69000006
   19.15916634   93.13320160    2.05999994    2.69000006
   19.16222191   92.12400055    2.28999996    2.67000008
   19.16305542   98.12660217    2.39000010    2.67000008
   19.16583252   92.63529968    2.57999992    2.69000006
   19.16916656   85.13880157    2.59999990    2.67000008
   19.17499924   85.13880157    2.39000010    2.67000008
   19.17916679   93.54429626    2.57999992    2.67000008
   19.18249893   98.11430359    2.40000010    2.67000008
   19.18583298   93.16870117    2.73000002    2.69000006
   19.18888855   92.85379791    2.71000004    2.67000008
   19.19222069  100.13400269    2.34999990    2.67000008
   19.19527626   96.62560272    2.09999990    2.69000006
   19.19638824   94.74629974    2.25000000    2.67000008
   19.19888878   96.68060303    2.30999994    2.69000006
   19.20222282   95.78649902    1.86000001    2.69000006
   19.20527840   90.08969879    1.78999996    2.69000006
   19.20861244   92.31839752    1.48000002    2.69000006
   19.21194458   93.42590332    1.88000000    2.67000008
   19.21805573   93.42590332    2.34999990    2.67000008
   19.22222328   95.21900177    2.53999996    2.67000008
   19.22527885   93.86019897    2.66000009    2.67000008
   19.22861099   93.15280151    2.67000008    2.67000008
   19.23000145   92.05490112    2.76999998    2.67000008
   19.23222351   96.48619843    2.80999994    2.67000008
   19.23555565   89.66649628    2.17000008    2.66000009
   19.23861122   96.41079712    2.28999996    2.67000008
   19.24194527   95.97899628    2.46000004    2.67000008
   19.24527740   93.32170105    2.40000010    2.67000008
   19.24833298   94.16010284    2.96000004    2.67000008
   19.25166702   93.17189789    2.89000010    2.67000008
   19.25499916   98.58589935    3.05999994    2.67000008
   19.26083374   98.58589935    2.71000004    2.67000008
   19.26499939   99.51660156    2.15000010    2.67000008
   19.26833344   96.12729645    2.00000000    2.67000008
   19.27138901   91.20999908    2.26999998    2.67000008
   19.27472115   97.25920105    2.75000000    2.67000008
   19.27777672  100.89900208    2.21000004    2.67000008
   19.28111076   97.07350159    1.94000006    2.66000009
   19.28444481   98.49690247    1.98000002    2.67000008
   19.28750038   97.50820160    1.98000002    2.66000009
   19.29083252   95.28389740    2.01999998    2.67000008
   19.29416656   95.44680023    2.07999992    2.67000008
   19.29666710   91.38390350    1.96000004    2.67000008
   19.29777718   91.32900238    1.88000000    2.69000006
   19.30360985   91.32900238    2.23000002    2.67000008
   19.30777740   93.48989868    2.51999998    2.67000008
   19.31110954   94.75930023    2.67000008    2.67000008
   19.31416512   90.02970123    2.61999989    2.66000009
   19.31750107   96.09799957    3.18000007    2.66000009
   19.32083511   90.36350250    2.66000009    2.66000009
   19.32389069   91.81179810    2.19000006    2.67000008
   19.32722282   91.34359741    2.21000004    2.67000008
   19.33000183   89.09809875    2.01999998    2.67000008
   19.33083344   88.85820007    2.13000011    2.67000008
   19.33416748   90.12640381    2.03999996    2.67000008
   19.33722305   88.71910095    1.88000000    2.67000008
   19.34055710   93.36409760    1.60000002    2.67000008
   19.34638977   93.36409760    1.63000000    2.67000008
   19.35055542   95.51470184    1.64999998    2.67000008
   19.35388947   86.57890320    1.64999998    2.67000008
   19.35722351   94.22889709    1.60000002    2.67000008
   19.36027908   97.27610016    1.64999998    2.67000008
   19.36333466   95.04199982    1.36000001    2.69000006
   19.36388969   93.30979919    1.36000001    2.69000006
   19.36722183  100.14800262    1.28999996    2.67000008
   19.37027740   96.97280121    1.16999996    2.67000008
   19.37361145   96.94370270    1.26999998    2.67000008
   19.37666702  106.66200256    1.36000001    2.67000008
   19.38000107   96.35849762    1.28999996    2.67000008
   19.38333321   96.81289673    1.28999996    2.67000008
   19.38944435   96.81289673    1.26999998    2.67000008
   19.39361191  102.55999756    1.16999996    2.67000008
   19.39666748   97.32550049    1.16999996    2.67000008
   19.39722252  101.75000000    1.16999996    2.67000008
   19.40055466   96.31069946    1.34000003    2.67000008
   19.40361023   85.84269714    1.34000003    2.67000008
   19.40694427  102.72599792    1.19000006    2.67000008
   19.40999985   96.17310333    1.26999998    2.67000008
   19.41333389   99.05100250    1.13000000    2.67000008
   19.41666603   98.44689941    1.11000001    2.67000008
   19.41972160  101.89199829    1.11000001    2.67000008
   19.42305565  103.64600372    1.01999998    2.69000006
   19.42638779  103.04499817    1.25000000    2.67000008
   19.43222237  103.04499817    1.50000000    2.67000008
   19.43638802  100.38300323    1.48000002    2.67000008
   19.43972206  101.97399902    1.50000000    2.67000008
   19.44416618  100.46199799    1.36000001    2.67000008
   19.44722176  104.25099945    1.41999996    2.67000008
   19.45055580   99.60220337    1.41999996    2.67000008
   19.45388985   96.94539642    1.75000000    2.67000008
   19.45694542   98.82830048    2.09999990    2.66000009
   19.46027946  100.27500153    1.96000004    2.66000009
   19.46333504   98.43820190    1.91999996    2.66000009
   19.46389008   95.47560120    2.01999998    2.66000009
   19.46722221   99.14299774    2.25000000    2.66000009
   19.47027779   99.80719757    2.15000010    2.66000009
   19.47500038   99.80719757    2.30999994    2.66000009
   19.47916794   99.01640320    1.98000002    2.66000009
   19.48250008   96.02390289    1.75000000    2.67000008
   19.48583412   94.45130157    1.83000004    2.67000008
   19.48888969   97.01159668    1.83000004    2.67000008
   19.49222183   99.74720001    1.73000002    2.67000008
   19.49527740  102.96600342    1.60000002    2.67000008
   19.49694443  101.12300110    1.60000002    2.67000008
   19.49888992  102.97200012    1.60000002    2.67000008
   19.50222206  101.77600098    1.98000002    2.67000008
   19.50527763  105.53500366    2.34999990    2.66000009
   19.50861168   97.19689941    2.46000004    2.66000009
   19.51194382   99.02210236    1.98000002    2.66000009
   19.51777840   99.02210236    1.60000002    2.66000009
   19.52194405   93.83450317    1.51999998    2.66000009
   19.52527809   91.67890167    1.19000006    2.66000009
   19.52833366   93.30120087    1.26999998    2.66000009
   19.53027725   93.15650177    1.26999998    2.66000009
   19.53222275   95.06939697    1.23000002    2.66000009
   19.53527641   95.10209656    1.26999998    2.66000009
   19.53861046   93.05590057    1.69000006    2.66000009
   19.54194450   90.79229736    1.66999996    2.66000009
   19.54500008   90.83989716    1.85000002    2.66000009
   19.54833221   97.46019745    1.48000002    2.66000009
   19.55138779   92.56890106    1.50000000    2.66000009
   19.55472183   96.74210358    1.50000000    2.66000009
   19.56083298   96.74210358    1.41999996    2.66000009
   19.56472206   90.95600128    1.58000004    2.66000009
   19.56805611   92.12270355    1.55999994    2.66000009
   19.57139015   93.43060303    1.69000006    2.66000009
   19.57444572   95.66500092    1.69000006    2.66000009
   19.57777786   90.39790344    1.41999996    2.66000009
   19.58111191   91.88220215    1.50000000    2.66000009
   19.58416748   95.01940155    1.53999996    2.66000009
   19.58750153   90.39420319    1.60000002    2.66000009
   19.59055710   93.77120209    1.51999998    2.66000009
   19.59388924   93.45469666    1.50000000    2.66000009
   19.59694481   94.99109650    1.60000002    2.66000009
   19.59749985   92.86219788    1.60000002    2.66000009
   19.60361099   92.86219788    1.44000006    2.66000009
   19.60777855   94.10510254    1.53999996    2.67000008
   19.61083412   96.43869781    1.58000004    2.66000009
   19.61416626   91.39230347    1.58000004    2.66000009
   19.61750031   89.06559753    1.28999996    2.66000009
   19.62055588   92.02210236    1.48000002    2.66000009
   19.62388992   91.66100311    1.07000005    2.66000009
   19.62722206   92.90260315    1.28999996    2.66000009
   19.63027763   86.13169861    1.30999994    2.66000009
   19.63083267   89.82499695    1.30999994    2.66000009
   19.63416672   91.82640076    1.11000001    2.66000009
   19.63722229   92.52100372    1.14999998    2.66000009
   19.64055634   91.84130096    1.14999998    2.66000009
   19.64638901   91.84130096    1.38000000    2.66000009
   19.65055466   91.16950226    1.38000000    2.66000009
   19.65388870   92.11199951    1.25000000    2.66000009
   19.65694427   93.49900055    1.25000000    2.66000009
   19.66027832   91.72070313    1.19000006    2.66000009
   19.66333389   94.26110077    1.05999994    2.66000009
   19.66388893   95.70960236    1.05999994    2.66000009
   19.66722107   99.09030151    0.95999998    2.66000009
   19.67055511   91.50689697    1.05999994    2.66000009
   19.67361069   96.90979767    1.05999994    2.66000009
   19.67694473   99.39669800    1.05999994    2.66000009
   19.68000031   94.11170197    1.01999998    2.67000008
   19.68333244   97.28880310    1.09000003    2.66000009
   19.68916512   97.28880310    1.11000001    2.66000009
   19.69333267   93.45310211    1.19000006    2.66000009
   19.69666672   96.08399963    1.21000004    2.66000009
   19.69722176   95.24330139    1.21000004    2.66000009
   19.70027924   88.21759796    1.14999998    2.66000009
   19.70333481   91.61810303    1.14999998    2.66000009
   19.70666695   90.59619904    0.75000000    2.66000009
   19.71000099   91.33229828    0.67000002    2.66000009
   19.71305656   91.75689697    0.67000002    2.66000009
   19.71638870   91.76360321    0.73000002    2.66000009
   19.71972275   93.70709991    0.63000000    2.66000009
   19.72277832   92.81109619    0.58999997    2.67000008
   19.72611237   91.92089844    0.63000000    2.67000008
   19.73222351   91.92089844    0.63000000    2.66000009
   19.73611069   94.95030212    0.61000001    2.66000009
   19.73944473   92.88430023    0.58999997    2.67000008
   19.74277878   94.30449677    0.61000001    2.66000009
   19.74583435   92.91719818    0.79000002    2.66000009
   19.74916649   96.66149902    0.88000000    2.66000009
   19.75222206   97.20010376    0.86000001    2.66000009
   19.75555611   93.49160004    1.00000000    2.64000010
   19.75888824   94.77220154    1.07000005    2.64000010
   19.76194382   90.20279694    1.11000001    2.64000010
   19.76388931   99.96150208    1.11000001    2.66000009
   19.76583290   94.49770355    1.11000001    2.66000009
   19.76888847   94.04180145    1.14999998    2.66000009
   19.77499962   94.04180145    1.25000000    2.64000010
   19.77916718   95.86560059    1.25000000    2.64000010
   19.78222275   96.73100281    1.25000000    2.64000010
   19.78555489   97.41249847    1.25000000    2.64000010
   19.78861046   99.79319763    1.19000006    2.64000010
   19.79194450   96.54930115    1.33000004    2.64000010
   19.79527664   96.31780243    1.33000004    2.64000010
   19.79722214   98.14739990    1.33000004    2.64000010
   19.79888916   97.30169678    1.33000004    2.64000010
   19.80194283   98.71299744    1.28999996    2.64000010
   19.80527687   93.52500153    1.16999996    2.64000010
   19.80861092   95.19349670    1.16999996    2.64000010
   19.81166649   89.70580292    1.16999996    2.64000010
   19.81777954   89.70580292    1.19000006    2.64000010
   19.82194519   94.31079865    1.11000001    2.64000010
   19.82500076   94.53029633    1.19000006    2.64000010
   19.82833481   94.24279785    1.21000004    2.64000010
   19.83055687   92.62480164    1.13000000    2.66000009
   19.83194542   91.01989746    1.13000000    2.66000009
   19.83527756   90.90039825    1.14999998    2.64000010
   19.83833313   95.41660309    1.09000003    2.66000009
   19.84166718   95.45680237    1.01999998    2.64000010
   19.84500122   91.91609955    1.01999998    2.64000010
   19.84805679   98.67449951    0.89999998    2.64000010
   19.85138893   96.71060181    1.03999996    2.66000009
   19.85444450   97.31780243    0.94000000    2.64000010
   19.86055565   97.31780243    0.89999998    2.64000010
   19.86472321   97.04060364    1.07000005    2.61999989
   19.86805534   96.48500061    1.11000001    2.64000010
   19.87111092   95.02439880    1.11000001    2.64000010
   19.87444496   96.83830261    1.21000004    2.64000010
   19.87777710   92.87480164    1.09000003    2.64000010
   19.88083267   98.71340179    1.01999998    2.64000010
   19.88527679   95.94499969    0.94000000    2.64000010
   19.88861084   91.74459839    0.94000000    2.64000010
   19.89194489   95.68550110    0.94000000    2.64000010
   19.89500046   93.34100342    1.23000002    2.64000010
   19.89722252   91.58329773    1.21000004    2.64000010
   19.89861107   91.31870270    1.19000006    2.64000010
   19.90333366   91.31870270    1.33000004    2.64000010
   19.90749931   93.07019806    1.44000006    2.64000010
   19.91083336   92.45099640    1.41999996    2.64000010
   19.91416550   92.88359833    1.39999998    2.61999989
   19.91722107   96.03170013    1.28999996    2.61999989
   19.92055511   96.47100067    1.21000004    2.61999989
   19.92388916   97.57260132    1.13000000    2.61999989
   19.92694473   92.53479767    1.07000005    2.64000010
   19.93027687   95.19730377    0.94000000    2.64000010
   19.93083191  101.51499939    0.94000000    2.64000010
   19.93388748   93.95439911    0.98000002    2.64000010
   19.93722153   93.93759918    1.01999998    2.64000010
   19.94055557   98.67140198    0.98000002    2.64000010
   19.94638824   98.67140198    1.05999994    2.61999989
   19.95055580   98.80359650    1.09000003    2.61999989
   19.95361137   99.96209717    1.09000003    2.64000010
   19.95694542   95.98359680    1.07000005    2.61999989
   19.96000099   98.31569672    1.03999996    2.61999989
   19.96333504   98.73190308    1.01999998    2.64000010
   19.96416664   97.91960144    1.00000000    2.64000010
   19.96666718  102.59999847    1.01999998    2.64000010
   19.97000122   96.65689850    1.05999994    2.64000010
   19.97333336   98.92220306    1.07000005    2.64000010
   19.97638893   93.45310211    1.05999994    2.61999989
   19.97972298   95.08840179    1.03999996    2.61999989
   19.98305511   96.63130188    1.00000000    2.61999989
   19.98916626   96.63130188    0.95999998    2.61999989
   19.99333382   96.61650085    0.92000002    2.61999989
   19.99666786   93.04350281    0.89999998    2.64000010
   19.99749947   91.34980011    0.89999998    2.61999989
   20.00027847   94.07740021    0.89999998    2.64000010
   20.00333405  102.36900330    0.81999999    2.64000010
   20.00666618   93.19000244    0.80000001    2.61999989
   20.00972176   95.04869843    0.80000001    2.61999989
   20.01305580   89.77590179    0.86000001    2.61999989
   20.01638794   95.09909821    0.89999998    2.61999989
   20.02000046  101.32499695    0.89999998    2.61999989
   20.02305603   92.90200043    0.92000002    2.61999989
   20.02638817   97.98229980    0.89999998    2.61999989
   20.03194427   97.98229980    0.81999999    2.61999989
   20.03610992   98.75109863    0.80000001    2.64000010
   20.03944397   96.07230377    0.79000002    2.61999989
   20.04249954   96.80570221    0.75000000    2.61999989
   20.04583359   96.48419952    0.76999998    2.61999989
   20.04916573   99.72769928    0.75000000    2.61999989
   20.05222130   98.16480255    0.76999998    2.61999989
   20.05555534   98.02320099    0.76999998    2.61999989
   20.05861092   98.82369995    0.76999998    2.61999989
   20.06194305   99.02999878    0.76999998    2.61999989
   20.07916832  102.02400208    0.64999998    2.61999989
   20.08333397  102.02400208    0.73000002    2.61999989
   20.08750153  101.36599731    0.73000002    2.61999989
   20.09083366  102.29599762    0.75000000    2.61999989
   20.09388924   95.44760132    0.79000002    2.59999990
   20.09722328   91.96790314    0.80000001    2.59999990
   20.10055542   95.84059906    0.80000001    2.59999990
   20.10361099   95.07250214    0.80000001    2.61999989
   20.10694504   96.89790344    0.80000001    2.61999989
   20.11027908  101.99400330    0.83999997    2.61999989
   20.11250114  104.17099762    0.86000001    2.59999990
   20.11388969  102.88999939    0.86000001    2.59999990
   20.11694527  103.81700134    0.89999998    2.59999990
   20.12027740   94.65550232    0.95999998    2.61999989
   20.12611198   94.65550232    1.11000001    2.59999990
   20.13027763   97.73979950    1.23000002    2.59999990
   20.13361168  104.00299835    1.25000000    2.59999990
   20.13666725  101.62799835    1.26999998    2.59999990
   20.13999939   95.52780151    1.39999998    2.59999990
   20.14333344  100.80400085    1.39999998    2.59999990
   20.14583397   96.25969696    1.58000004    2.59999990
   20.14694405  101.50700378    1.58000004    2.59999990
   20.14999962  101.23500061    1.44000006    2.59999990
   20.15333366   99.00669861    1.36000001    2.59999990
   20.15666580  102.01399994    1.34000003    2.59999990
   20.15972137   99.08480072    1.34000003    2.59999990
   20.16305542  101.32499695    1.26999998    2.59999990
   20.16916656  101.32499695    1.25000000    2.59999990
   20.17333221  103.18099976    1.21000004    2.59999990
   20.17638779  103.48799896    1.21000004    2.57999992
   20.17916679  101.07199860    1.26999998    2.59999990
   20.18000031  103.20500183    1.26999998    2.59999990
   20.18305397   97.87799835    1.19000006    2.59999990
   20.18638802   97.14739990    1.13000000    2.59999990
   20.18972206   99.54869843    1.13000000    2.59999990
   20.19277763  100.45999908    1.14999998    2.59999990
   20.19610977  102.95600128    1.14999998    2.59999990
   20.19944382  100.07499695    1.14999998    2.59999990
   20.20250130   96.57589722    1.16999996    2.59999990
   20.20583344   92.56109619    1.14999998    2.59999990
   20.21194458   92.56109619    1.16999996    2.59999990
   20.21611214   95.26170349    1.09000003    2.57999992
   20.21916771   95.90270233    1.09000003    2.59999990
   20.22249985   98.86740112    1.05999994    2.59999990
   20.22583389   94.25399780    1.00000000    2.59999990
   20.22888947   94.25800323    1.00000000    2.59999990
   20.23222351   94.04709625    0.98000002    2.59999990
   20.23527718   97.56060028    0.94000000    2.59999990
   20.23861122   99.96219635    0.88000000    2.59999990
   20.24194527  101.86100006    0.88000000    2.59999990
   20.24500084   99.73760223    0.86000001    2.59999990
   20.24694443   96.40100098    0.86000001    2.59999990
   20.24888992  100.70600128    0.86000001    2.57999992
   20.25472260  100.70600128    0.88000000    2.57999992
   20.25888824   95.20639801    0.89999998    2.57999992
   20.26222229   98.71140289    0.94000000    2.57999992
   20.26527786   94.51010132    0.94000000    2.57999992
   20.26861000   92.84559631    1.03999996    2.59999990
   20.27166557   99.48490143    1.03999996    2.59999990
   20.27499962   97.66369629    1.09000003    2.57999992
   20.27833366   92.73329926    1.03999996    2.57999992
   20.28027725   97.60980225    1.01999998    2.59999990
   20.28194427   99.00070190    1.01999998    2.59999990
   20.28499985  100.58000183    0.98000002    2.57999992
   20.28833199   96.41799927    1.05999994    2.57999992
   20.29138756   97.54039764    1.05999994    2.57999992
   20.29749870   97.54039764    1.16999996    2.57999992
   20.30166626   91.48010254    1.13000000    2.57999992
   20.30499840   98.19180298    1.09000003    2.57999992
   20.30805397   94.27870178    1.01999998    2.57999992
   20.31138802   98.66999817    0.89999998    2.57999992
   20.31388855   95.24739838    0.88000000    2.57999992
   20.31499863   91.09970093    0.88000000    2.57999992
   20.31833458   89.51429749    0.92000002    2.57999992
   20.32166672   92.13659668    1.00000000    2.57999992
   20.32472229   91.34059906    0.89999998    2.57999992
   20.32916832  103.46399689    0.94000000    2.57999992
   20.33250046   93.79360199    0.89999998    2.57999992
   20.33583450  104.59200287    0.92000002    2.57999992
   20.34055710  104.59200287    0.95999998    2.57999992
   20.34444427   99.40910339    0.95999998    2.57999992
   20.34722328   99.53980255    1.05999994    2.57999992
   20.34805679   98.48090363    1.05999994    2.57999992
   20.35138893   98.78469849    1.11000001    2.55999994
   20.35444450   99.53119659    1.03999996    2.57999992
   20.35777855   99.47669983    1.07000005    2.55999994
   20.36111069  108.09500122    1.07000005    2.57999992
   20.36416626  106.09200287    1.05999994    2.57999992
   20.36750031   99.93800354    1.05999994    2.55999994
   20.37083435  105.77100372    1.03999996    2.55999994
   20.37388992   97.09400177    1.03999996    2.55999994
   20.37722206   99.13510132    0.98000002    2.57999992
   20.38333321   99.13510132    1.11000001    2.57999992
   20.38750076  105.01699829    1.19000006    2.55999994
   20.39055634  105.15699768    1.09000003    2.55999994
   20.39388847  102.51399994    1.16999996    2.55999994
   20.39722252   97.19499969    1.16999996    2.55999994
   20.40027809  115.85600281    1.16999996    2.55999994
   20.40361023  128.92199707    1.11000001    2.55999994
   20.40694427  158.93499756    1.07000005    2.55999994
   20.40999985  173.53999329    1.07000005    2.55999994
   20.41333389  198.91600037    1.07000005    2.55999994
   20.41416550  206.02999878    1.05999994    2.55999994
   20.41694450  224.53100586    1.05999994    2.55999994
   20.42000008  305.20199585    1.05999994    2.55999994
   20.42222214  338.14300537    1.07000005    2.55999994
   20.42333221  337.43399048    1.07000005    2.55999994
   20.42472076  183.41700745    1.03999996    2.55999994
   20.42499924  102.51399994    1.16999996    2.55999994
   20.42499924   97.19499969    1.16999996    2.55999994
   20.42638779  115.85600281    1.16999996    2.55999994
   20.42638779  128.92199707    1.11000001    2.55999994
   20.42638779  158.93499756    1.07000005    2.55999994
   20.42638779  173.53999329    1.07000005    2.55999994
   20.42638779  198.91600037    1.07000005    2.55999994
   20.42666626  224.53100586    1.05999994    2.55999994
   20.42666626  305.20199585    1.05999994    2.55999994
   20.42722130  102.19200134    1.03999996    2.55999994
   20.43055534   -1.00000000    1.01999998    2.55999994
   20.43361092   -1.00000000    1.00000000    2.55999994
   20.43694305   -1.00000000    1.00000000    2.55999994
   20.43999863   -1.00000000    0.98000002    2.55999994
   20.44972038   -1.00000000    0.98000002    2.55999994
   20.45305634   -1.00000000    0.98000002    2.55999994
   20.45611191   -1.00000000    0.98000002    2.55999994
   20.45972252   -1.00000000    0.98000002    2.55999994
   20.46277809   -1.00000000    1.00000000    2.55999994
   20.46611214   -1.00000000    1.01999998    2.55999994
   20.46916771   -1.00000000    1.01999998    2.53999996
   20.47249985   -1.00000000    1.01999998    2.53999996
   20.47583389   -1.00000000    0.98000002    2.55999994
   20.47888947   -1.00000000    0.95999998    2.53999996
   20.48222351   -1.00000000    0.95999998    2.53999996
   20.49250031   -1.00000000    0.95999998    2.53999996
