    HOUR (UT)   FLARE FACTOR    SKY TESTER    SUN TESTER
   12.54972267   -1.00000000   -1.00000000   -1.00000000
   12.59611034  147.17700195    0.07000000    0.11000000
   12.59944439  123.83300018    0.05000000    0.11000000
   12.60277843  132.02799988    0.05000000    0.11000000
   12.60583401  127.32399750    0.05000000    0.11000000
   12.60916710  121.44100189    0.05000000    0.11000000
   12.61250019  126.70999908    0.07000000    0.11000000
   12.61638927  126.70999908    4.90999985    2.15000010
   12.62055588  122.58300018    1.39999998    2.11999989
   12.62388897  125.16400146    1.38000000    2.13000011
   12.62694454  120.13400269    1.33000004    2.13000011
   12.62944412  124.45099640    1.34000003    2.13000011
   12.63083363  122.87000275    1.36000001    2.13000011
   12.63388920  122.75099945    1.34000003    2.13000011
   12.63722229  123.35199738    1.36000001    2.13000011
   12.64055538  133.10299683    1.36000001    2.13000011
   12.64361095  127.82599640    1.30999994    2.13000011
   12.64694405  126.59200287    1.34000003    2.15000010
   12.64999962  123.65899658    1.34000003    2.15000010
   12.65333271  124.97399902    1.33000004    2.13000011
   12.65944386  124.97399902    1.33000004    2.13000011
   12.66333294  123.26499939    1.33000004    2.15000010
   12.66666698  122.82199860    1.33000004    2.15000010
   12.67000008  121.63700104    1.33000004    2.15000010
   12.67305565  125.04900360    1.33000004    2.15000010
   12.67638874  129.60699463    1.33000004    2.15000010
   12.67972279  122.83999634    1.30999994    2.15000010
   12.68277836  125.27500153    1.30999994    2.15000010
   12.68611145  121.97499847    1.30999994    2.15000010
   12.68916702  119.59200287    1.33000004    2.17000008
   12.69250011  121.76899719    1.33000004    2.17000008
   12.69583321  130.98599243    1.30999994    2.17000008
   12.69611073  131.34500122    1.30999994    2.17000008
   12.70222187  131.34500122    1.30999994    2.17000008
   12.70638847  131.97099304    1.30999994    2.17000008
   12.70944405  126.63999939    1.33000004    2.17000008
   12.71277714  119.16500092    1.33000004    2.17000008
   12.71611118  132.66799927    1.28999996    2.19000006
   12.71916580  128.41000366    1.26999998    2.17000008
   12.72249985  125.81600189    1.30999994    2.19000006
   12.72555542  122.16100311    1.30999994    2.19000006
   12.72888851  112.73699951    1.26999998    2.19000006
   12.72944355  120.40799713    1.26999998    2.19000006
   12.73249912  125.12799835    1.30999994    2.19000006
   12.73583317  125.45500183    1.30999994    2.19000006
   12.73888874  125.95800018    1.33000004    2.19000006
   12.74499989  125.95800018    1.30999994    2.19000006
   12.74916649  115.76499939    1.30999994    2.19000006
   12.75249958  120.24400330    1.33000004    2.21000004
   12.75555515  123.28299713    1.30999994    2.21000004
   12.75888920  122.90799713    1.30999994    2.21000004
   12.76222229  130.41099548    1.26999998    2.21000004
   12.76305580  115.97200012    1.33000004    2.21000004
   12.76555538  118.05899811    1.30999994    2.21000004
   12.76888847  125.22899628    1.30999994    2.21000004
   12.77222157  122.47799683    1.33000004    2.21000004
   12.77527714  118.71499634    1.28999996    2.21000004
   12.77861118  122.19400024    1.33000004    2.21000004
   12.78166676  122.99299622    1.30999994    2.21000004
   12.78777790  122.99299622    1.26999998    2.21000004
   12.79194450  123.16799927    1.30999994    2.23000002
   12.79527855  128.68899536    1.30999994    2.21000004
   12.79638958  119.24299622    1.33000004    2.23000002
   12.79888916  117.71600342    1.30999994    2.23000002
   12.80222225  121.58499908    1.28999996    2.23000002
   12.80555534  119.86100006    1.28999996    2.23000002
   12.80861092  130.97799683    1.28999996    2.23000002
   12.81194496  120.11599731    1.28999996    2.23000002
   12.81500053  117.68000031    1.30999994    2.23000002
   12.81833363  123.60600281    1.30999994    2.23000002
   12.82166672  125.34300232    1.28999996    2.23000002
   12.82472229  120.78900146    1.28999996    2.23000002
   12.83083344  120.78900146    1.28999996    2.25000000
   12.83472157  117.85099792    1.26999998    2.25000000
   12.83805561  131.97099304    1.30999994    2.25000000
   12.84138870  122.53600311    1.30999994    2.25000000
   12.84444427  124.72200012    1.30999994    2.25000000
   12.84777737  123.80699921    1.30999994    2.25000000
   12.85083389  116.89199829    1.28999996    2.25000000
   12.85416698  116.43000031    1.26999998    2.25000000
   12.85750008  121.11599731    1.33000004    2.25000000
   12.86055565  122.37899780    1.28999996    2.25000000
   12.86277771  123.92400360    1.30999994    2.25000000
   12.86416721  125.23899841    1.30999994    2.25000000
   12.86750031  117.88800049    1.28999996    2.25000000
   12.87361145  117.88800049    1.26999998    2.26999998
   12.87777805  119.18000031    1.33000004    2.26999998
   12.88083363  120.88400269    1.30999994    2.26999998
   12.88416672  118.38999939    1.33000004    2.26999998
   12.88749981  118.90100098    1.28999996    2.26999998
   12.89055538  117.55400085    1.33000004    2.26999998
   12.89388847  117.96099854    1.28999996    2.26999998
   12.89611053  125.10399628    1.26999998    2.26999998
   12.89750004  118.65299988    1.28999996    2.26999998
   12.90083313  117.21700287    1.30999994    2.26999998
   12.90388870  114.44999695    1.28999996    2.26999998
   12.90722179  118.46700287    1.30999994    2.28999996
   12.91055489  116.17600250    1.26999998    2.26999998
   12.91638851  116.17600250    1.26999998    2.26999998
   12.92055607  114.63600159    1.25000000    2.28999996
   12.92361164  116.79900360    1.23000002    2.28999996
   12.92694473  118.91300201    1.23000002    2.28999996
   12.92944431  126.92299652    1.25000000    2.28999996
   12.93055630  123.56199646    1.25000000    2.28999996
   12.93388939  115.71600342    1.23000002    2.28999996
   12.93694496  118.57399750    1.25000000    2.28999996
   12.94027805  118.62400055    1.21000004    2.28999996
   12.94361115  124.18599701    1.21000004    2.28999996
   12.94666672  120.64600372    1.21000004    2.28999996
   12.94999981  125.95200348    1.23000002    2.28999996
   12.95305538  121.96399689    1.21000004    2.28999996
   12.95916653  121.96399689    1.19000006    2.30999994
   12.96333313  119.84999847    1.19000006    2.30999994
   12.96666622  114.37599945    1.19000006    2.28999996
   12.96972179  116.29599762    1.19000006    2.30999994
   12.97305489  121.15699768    1.16999996    2.30999994
   12.97638798  123.87699890    1.13000000    2.30999994
   12.97944355  126.28800201    1.16999996    2.30999994
   12.98277760  118.24900055    1.14999998    2.30999994
   12.98611164  126.53600311    1.16999996    2.30999994
   12.98916721  121.20999908    1.16999996    2.30999994
   12.99250031  128.03700256    1.16999996    2.30999994
   12.99555588  125.04399872    1.16999996    2.30999994
   12.99638939  124.85900116    1.16999996    2.30999994
   13.00222206  124.85900116    1.16999996    2.30999994
   13.00611115  128.22300720    1.19000006    2.30999994
   13.00944424  126.62799835    1.19000006    2.30999994
   13.01277733  119.71900177    1.19000006    2.32999992
   13.01583290  122.19000244    1.21000004    2.30999994
   13.01916599  126.68000031    1.21000004    2.30999994
   13.02250004  123.63600159    1.23000002    2.32999992
   13.02555561  119.04900360    1.21000004    2.30999994
   13.02888870  120.51799774    1.23000002    2.32999992
   13.02972221  118.52500153    1.23000002    2.32999992
   13.03222179  127.64099884    1.23000002    2.32999992
   13.03555584  121.12799835    1.21000004    2.30999994
   13.03888893  131.15899658    1.23000002    2.30999994
   13.04500008  131.15899658    1.19000006    2.32999992
   13.04916668  128.13299561    1.16999996    2.30999994
   13.05222225  120.16999817    1.19000006    2.32999992
   13.05555534  122.61699677    1.14999998    2.32999992
   13.05888939  128.60800171    1.19000006    2.32999992
   13.06194496  124.90899658    1.16999996    2.32999992
   13.06305599  121.25399780    1.16999996    2.32999992
   13.06555557  126.47000122    1.19000006    2.32999992
   13.06888866  124.37699890    1.19000006    2.32999992
   13.07222176  127.75700378    1.19000006    2.32999992
   13.07527733  116.54399872    1.19000006    2.32999992
   13.07861137  123.66200256    1.19000006    2.32999992
   13.08166695  127.31400299    1.19000006    2.34999990
   13.08777714  127.31400299    1.16999996    2.32999992
   13.09194374  129.11799622    1.21000004    2.34999990
   13.09499931  126.94699860    1.19000006    2.34999990
   13.09638882  123.72699738    1.19000006    2.34999990
   13.09861088  123.62300110    1.13000000    2.34999990
   13.10194492  125.87000275    1.19000006    2.34999990
   13.10527802  123.65100098    1.19000006    2.34999990
   13.10833359  136.55200195    1.16999996    2.34999990
   13.11166668  132.41299438    1.16999996    2.34999990
   13.11500072  122.91999817    1.14999998    2.34999990
   13.11805534  117.84200287    1.13000000    2.34999990
   13.12138939  118.98300171    1.13000000    2.34999990
   13.12444496  128.91999817    1.14999998    2.34999990
   13.13055611  128.91999817    1.13000000    2.36999989
   13.13472176  138.72300720    1.13000000    2.36999989
   13.13805580  136.62800598    1.13000000    2.34999990
   13.14111137  130.84800720    1.14999998    2.34999990
   13.14444447  137.13800049    1.13000000    2.36999989
   13.14777756  128.22000122    1.13000000    2.36999989
   13.15083313  132.99800110    1.14999998    2.36999989
   13.15416622  134.53100586    1.14999998    2.36999989
   13.15722179  137.01899719    1.14999998    2.36999989
   13.16055489  136.02000427    1.16999996    2.36999989
   13.16305542  130.93600464    1.14999998    2.36999989
   13.16416645  126.65000153    1.14999998    2.36999989
   13.16750050  133.82699585    1.16999996    2.36999989
   13.17333412  133.82699585    1.14999998    2.36999989
   13.17750072  125.31099701    1.14999998    2.36999989
   13.18083382  128.97099304    1.14999998    2.36999989
   13.18416691  129.38099670    1.13000000    2.36999989
   13.18722248  134.27000427    1.13000000    2.36999989
   13.19055557  128.43699646    1.14999998    2.36999989
   13.19388866  132.47200012    1.13000000    2.36999989
   13.19638920  126.70099640    1.13000000    2.39000010
   13.19722271  128.29100037    1.13000000    2.39000010
   13.20055580  134.47000122    1.14999998    2.36999989
   13.20388889  137.66400146    1.13000000    2.39000010
   13.20694447  147.23500061    1.13000000    2.39000010
   13.21027756  136.49400330    1.11000001    2.39000010
   13.21638870  136.49400330    1.07000005    2.39000010
   13.22055531  121.22799683    1.07000005    2.39000010
   13.22361088  124.34899902    1.13000000    2.39000010
   13.22694397  129.65699768    1.07000005    2.39000010
   13.22972202  140.16999817    1.07000005    2.39000010
   13.23055553  133.79499817    1.13000000    2.39000010
   13.23388958  128.08500671    1.11000001    2.39000010
   13.23722267  134.30299377    1.11000001    2.39000010
   13.24027824  137.44799805    1.11000001    2.39000010
   13.24361134  127.81300354    1.13000000    2.39000010
   13.24666691  144.83299255    1.11000001    2.39000010
   13.25000000  138.48699951    1.13000000    2.39000010
   13.25333309  159.96299744    1.14999998    2.39000010
   13.25916672  159.96299744    1.07000005    2.39000010
   13.26333332  134.08200073    1.13000000    2.39000010
   13.26666641  132.63099670    1.11000001    2.40000010
   13.26972198  134.62699890    1.11000001    2.40000010
   13.27305508  139.30999756    1.07000005    2.39000010
   13.27611065  122.48000336    1.11000001    2.39000010
   13.27944374  131.48899841    1.11000001    2.39000010
   13.28277779  128.34100342    1.11000001    2.39000010
   13.28583336  135.93800354    1.11000001    2.40000010
   13.28916740  139.08000183    1.09000003    2.40000010
   13.29250050  133.95199585    1.11000001    2.40000010
   13.29555607  129.15600586    1.11000001    2.40000010
   13.29638958  131.54200745    1.11000001    2.40000010
   13.30194473  131.54200745    1.09000003    2.40000010
   13.30611134  125.44499969    1.09000003    2.40000010
   13.30944443  136.34500122    1.05999994    2.40000010
   13.31250000  142.68099976    1.03999996    2.40000010
   13.31583309  132.51499939    1.07000005    2.40000010
   13.31916618  133.07899475    1.07000005    2.40000010
   13.32222176  141.71299744    1.07000005    2.40000010
   13.32555580  131.08700562    1.03999996    2.40000010
   13.32888889  145.62300110    1.07000005    2.40000010
   13.32972240  131.95300293    1.07000005    2.40000010
   13.33222198  136.22000122    1.09000003    2.40000010
   13.33555508  144.63999939    1.09000003    2.40000010
   13.33888817  133.57800293    1.05999994    2.42000008
   13.34499931  133.57800293    1.05999994    2.42000008
   13.34888840  133.20399475    1.07000005    2.40000010
   13.35222244  130.09300232    1.09000003    2.42000008
   13.35555553  144.06799316    1.09000003    2.40000010
   13.35888958  130.61999512    1.09000003    2.42000008
   13.36194515  128.83099365    1.09000003    2.42000008
   13.36305618  131.92599487    1.09000003    2.42000008
   13.36555576  140.95300293    1.09000003    2.42000008
   13.36888885  134.26199341    1.11000001    2.42000008
   13.37222195  132.46899414    1.07000005    2.42000008
   13.37527752  134.31599426    1.09000003    2.42000008
   13.37861156  129.16499329    1.09000003    2.42000008
   13.38194466  131.54800415    1.09000003    2.42000008
   13.38777733  131.54800415    1.09000003    2.42000008
   13.39194393  130.72799683    1.09000003    2.42000008
   13.39499950  137.98899841    1.09000003    2.44000006
   13.39638901  142.11199951    1.09000003    2.44000006
   13.39861107  125.38400269    1.09000003    2.44000006
   13.40194416  142.78199768    1.09000003    2.42000008
   13.40527725  138.49200439    1.09000003    2.42000008
   13.40833282  127.71800232    1.05999994    2.42000008
   13.41166592  137.41799927    1.11000001    2.42000008
   13.41472149  133.16900635    1.11000001    2.42000008
   13.41805553  135.82299805    1.11000001    2.42000008
   13.42138958  125.46800232    1.11000001    2.42000008
   13.42444515  135.51699829    1.13000000    2.42000008
   13.43055630  135.51699829    1.09000003    2.44000006
   13.43472195  134.93299866    1.13000000    2.44000006
   13.43777752  134.10000610    1.11000001    2.42000008
   13.44111156  138.64199829    1.11000001    2.44000006
   13.44444466  134.14599609    1.11000001    2.44000006
   13.44750023  133.02799988    1.09000003    2.44000006
   13.45083332  134.96299744    1.11000001    2.44000006
   13.45416641  133.03399658    1.11000001    2.44000006
   13.45722198  135.34199524    1.09000003    2.42000008
   13.46055508  140.98599243    1.07000005    2.44000006
   13.46305561  136.96200562    1.07000005    2.44000006
   13.46388912  139.20500183    1.07000005    2.44000006
   13.46722221  144.39599609    1.09000003    2.44000006
   13.47333336  144.39599609    1.03999996    2.44000006
   13.47749996  148.03199768    1.05999994    2.44000006
   13.48083305  137.87199402    0.76999998    2.44000006
   13.48388958  138.51100159    0.75000000    2.42000008
   13.48722267  153.11099243    0.75000000    2.42000008
   13.49055576  139.83000183    0.75000000    2.42000008
   13.49361134  151.42500305    0.75000000    2.42000008
   13.49638939  142.97500610    0.76999998    2.42000008
   13.49722290  145.48500061    0.79000002    2.42000008
   13.50055599  131.02299500    0.76999998    2.42000008
   13.50388908  143.11700439    0.75000000    2.42000008
   13.50694466  143.45500183    0.76999998    2.42000008
   13.51027775  147.86700439    0.79000002    2.42000008
   13.51611137  147.86700439    0.76999998    2.42000008
   13.52027798  127.52899933    0.79000002    2.42000008
   13.52361107  136.21699524    0.79000002    2.42000008
   13.52694416  135.49400330    0.76999998    2.42000008
   13.52972221  137.14700317    0.79000002    2.42000008
   13.53055573  136.42799377    0.79000002    2.42000008
   13.53388977  142.91400146    0.80000001    2.42000008
   13.53722286  133.38000488    0.79000002    2.42000008
   13.54027843  132.66000366    0.80000001    2.44000006
   13.54361153  134.33299255    0.80000001    2.42000008
   13.54666710  137.41799927    0.81999999    2.42000008
   13.55000019  135.64100647    0.81999999    2.42000008
   13.55333328  135.20300293    0.81999999    2.42000008
   13.55916691  135.20300293    0.83999997    2.42000008
   13.56333351  136.81500244    0.81999999    2.42000008
   13.56638908  133.91299438    0.81999999    2.44000006
   13.56972218  138.02699280    0.81999999    2.44000006
   13.57277775  134.10099792    0.80000001    2.44000006
   13.57611084  134.53900146    0.80000001    2.44000006
   13.57944393  137.49400330    0.81999999    2.44000006
   13.58249950  136.63900757    0.81999999    2.44000006
   13.58583260  129.84700012    0.80000001    2.44000006
   13.58916664  128.70599365    0.76999998    2.44000006
   13.59222221  128.47399902    0.79000002    2.44000006
   13.59555531  140.60000610    0.79000002    2.44000006
   13.59638882  143.76300049    0.79000002    2.44000006
   13.61722279  143.76300049    0.75000000    2.46000004
   13.62111092  133.54899597    0.76999998    2.46000004
   13.62444496  135.16499329    0.76999998    2.44000006
   13.62777805  136.59500122    0.76999998    2.46000004
   13.62972260  134.01899719    0.76999998    2.46000004
   13.63111115  134.52200317    0.76999998    2.46000004
   13.63444424  135.80799866    0.75000000    2.46000004
   13.63777733  136.50700378    0.73000002    2.46000004
   13.64083290  130.94999695    0.75000000    2.46000004
   13.64416695  130.46200562    0.73000002    2.46000004
   13.64750004  136.63600159    0.73000002    2.46000004
   13.65055561  134.86000061    0.73000002    2.46000004
   13.65388870  133.76199341    0.73000002    2.46000004
   13.65972137  133.76199341    0.73000002    2.46000004
   13.66388893  133.29499817    0.73000002    2.46000004
   13.66722298  141.25300598    0.73000002    2.46000004
   13.67027855  135.46899414    0.73000002    2.46000004
   13.67361164  139.74000549    0.73000002    2.46000004
   13.67694473  131.45799255    0.73000002    2.46000004
   13.68000031  140.08599854    0.73000002    2.46000004
   13.68333340  136.61900330    0.70999998    2.46000004
   13.68666649  140.15400696    0.73000002    2.46000004
   13.68972206  148.10099792    0.73000002    2.46000004
   13.69305515  129.22200012    0.73000002    2.46000004
   13.69638920  134.79499817    0.70999998    2.46000004
   13.69694424  135.83900452    0.70999998    2.46000004
   13.70277786  135.83900452    0.70999998    2.46000004
   13.70694447  141.36300659    0.73000002    2.46000004
   13.71000004  140.63099670    0.73000002    2.46000004
   13.71333313  140.31599426    0.73000002    2.46000004
   13.71638870  134.49600220    0.70999998    2.46000004
   13.71972179  138.48100281    0.73000002    2.46000004
   13.72305489  139.86799622    0.73000002    2.46000004
   13.72611046  138.23599243    0.70999998    2.46000004
   13.72944355  134.02400208    0.73000002    2.46000004
   13.72999954  132.25199890    0.73000002    2.46000004
   13.73305511  141.08099365    0.73000002    2.46000004
   13.73638916  137.23699951    0.73000002    2.46000004
   13.73972225  132.18200684    0.73000002    2.48000002
   13.74555588  132.18200684    0.73000002    2.46000004
   13.74972248  132.28199768    0.73000002    2.48000002
   13.75277805  133.94799805    0.73000002    2.48000002
   13.75611115  131.08799744    0.73000002    2.46000004
   13.75944424  133.87500000    0.75000000    2.46000004
   13.76249981  138.81199646    0.70999998    2.46000004
   13.76333332  135.19200134    0.70999998    2.46000004
   13.76611137  140.83000183    0.69000000    2.46000004
   13.76944447  138.73199463    0.70999998    2.46000004
   13.77277756  132.92599487    0.73000002    2.46000004
   13.77583313  136.91499329    0.73000002    2.46000004
   13.77916622  132.59700012    0.73000002    2.46000004
   13.78249931  128.38000488    0.73000002    2.48000002
   13.78833389  128.38000488    0.75000000    2.48000002
   13.79250050  126.59500122    0.75000000    2.48000002
   13.79583359  118.86499786    0.73000002    2.48000002
   13.79666710  123.43399811    0.73000002    2.48000002
   13.79916668  126.61000061    0.73000002    2.48000002
   13.80249977  132.69299316    0.75000000    2.46000004
   13.80583382  130.38200378    0.75000000    2.48000002
   13.80888939  135.49899292    0.75000000    2.48000002
   13.81222248  130.75300598    0.70999998    2.48000002
   13.81527805  130.83299255    0.73000002    2.48000002
   13.81861115  135.17300415    0.73000002    2.48000002
   13.82194424  132.64199829    0.75000000    2.48000002
   13.82499981  128.04400635    0.73000002    2.48000002
   13.83111095  128.04400635    0.73000002    2.48000002
   13.83527756  138.27499390    0.73000002    2.48000002
   13.83861065  134.39300537    0.73000002    2.48000002
   13.84166622  134.85400391    0.73000002    2.48000002
   13.84499931  142.83599854    0.73000002    2.48000002
   13.84833336  130.25399780    0.73000002    2.48000002
   13.85138893  135.14900208    0.73000002    2.48000002
   13.85472298  133.67100525    0.70999998    2.48000002
   13.85805607  128.87100220    0.73000002    2.48000002
   13.86111164  137.27099609    0.70999998    2.48000002
   13.86333370  131.53999329    0.70999998    2.48000002
   13.86472225  130.28999329    0.73000002    2.48000002
   13.86805534  129.87899780    0.73000002    2.48000002
   13.87416649  129.87899780    0.75000000    2.48000002
   13.87805557  127.83999634    0.75000000    2.48000002
   13.88138866  127.28500366    0.70999998    2.48000002
   13.88472176  125.98999786    0.70999998    2.48000002
   13.88777733  128.87399292    0.70999998    2.48000002
   13.89111137  121.93399811    0.73000002    2.50000000
   13.89444447  127.54000092    0.73000002    2.50000000
   13.89666653  123.34700012    0.73000002    2.50000000
   13.89777756  128.30400085    0.73000002    2.50000000
   13.90111065  132.35200500    0.73000002    2.50000000
   13.90444374  132.02400208    0.75000000    2.48000002
   13.90749931  130.36199951    0.75000000    2.48000002
   13.91083336  131.22700500    0.70999998    2.50000000
   13.91694450  131.22700500    0.76999998    2.50000000
   13.92111111  125.94899750    0.73000002    2.50000000
   13.92416668  134.62300110    0.76999998    2.50000000
   13.92750072  130.45799255    0.76999998    2.50000000
   13.93000031  125.43399811    0.79000002    2.50000000
   13.93111134  124.53199768    0.79000002    2.50000000
   13.93444443  129.25300598    0.75000000    2.50000000
   13.93777752  125.66100311    0.75000000    2.50000000
   13.94083309  123.78099823    0.75000000    2.50000000
   13.94416714  129.82000732    0.75000000    2.50000000
   13.94722271  134.12500000    0.73000002    2.50000000
   13.95055580  132.58900452    0.75000000    2.51999998
   13.95388889  129.50300598    0.75000000    2.50000000
   13.95972157  129.50300598    0.76999998    2.50000000
   13.96388912  127.01300049    0.75000000    2.50000000
   13.96722221  136.04400635    0.76999998    2.50000000
   13.97027779  125.60299683    0.80000001    2.50000000
   13.97361088  127.45300293    0.80000001    2.50000000
   13.97666645  131.73699951    0.79000002    2.51999998
   13.97999954  131.45899963    0.80000001    2.51999998
   13.98333359  136.83799744    0.79000002    2.50000000
   13.98638916  132.16799927    0.80000001    2.50000000
   13.98972225  126.30400085    0.80000001    2.50000000
   13.99305534  129.48399353    0.81999999    2.50000000
   13.99611092  135.55299377    0.79000002    2.50000000
   13.99666691  129.11700439    0.79000002    2.50000000
   14.00277805  129.11700439    0.80000001    2.50000000
   14.00694466  123.51799774    0.76999998    2.50000000
   14.01000023  133.35000610    0.75000000    2.51999998
   14.01333332  130.84300232    0.73000002    2.51999998
   14.01666641  131.77400208    0.73000002    2.51999998
   14.01972198  131.75300598    0.76999998    2.50000000
   14.02305508  126.77999878    0.75000000    2.51999998
   14.02638817  128.87100220    0.76999998    2.50000000
   14.02944374  127.99800110    0.76999998    2.50000000
   14.02999973  129.14399719    0.76999998    2.50000000
   14.03305531  129.09800720    0.76999998    2.50000000
   14.03611183  131.81599426    0.75000000    2.51999998
   14.03944492  123.93099976    0.76999998    2.51999998
   14.04555607  123.93099976    0.75000000    2.51999998
   14.04972267  129.05700684    0.73000002    2.51999998
   14.05277824  127.73100281    0.76999998    2.51999998
   14.05611134  128.31500244    0.76999998    2.51999998
   14.05916691  125.65499878    0.76999998    2.51999998
   14.06250000  132.22300720    0.75000000    2.51999998
   14.06333351  126.17700195    0.75000000    2.51999998
   14.06611156  129.41999817    0.76999998    2.51999998
   14.06916618  134.06500244    0.76999998    2.51999998
   14.07250023  138.23399353    0.75000000    2.51999998
   14.07583332  127.57199860    0.79000002    2.51999998
   14.07888889  135.11300659    0.76999998    2.51999998
   14.08222198  133.69999695    0.76999998    2.51999998
   14.08833313  133.69999695    0.76999998    2.51999998
   14.09249973  130.65299988    0.76999998    2.51999998
   14.09555531  131.31500244    0.76999998    2.51999998
   14.09666634  131.60099792    0.76999998    2.51999998
   14.09944439  126.82900238    0.76999998    2.51999998
   14.10249996  129.47399902    0.76999998    2.51999998
   14.10583401  125.16999817    0.73000002    2.51999998
   14.10916710  129.47900391    0.73000002    2.51999998
   14.11222267  123.97100067    0.73000002    2.51999998
   14.11555576  127.02300262    0.73000002    2.51999998
   14.11888885  124.90699768    0.75000000    2.51999998
   14.12194443  132.42599487    0.75000000    2.53999996
   14.12527752  128.15499878    0.75000000    2.53999996
   14.13111115  128.15499878    0.70999998    2.51999998
   14.13555527  132.10400391    0.73000002    2.51999998
   14.13861084  125.77899933    0.76999998    2.53999996
   14.14194393  125.63400269    0.70999998    2.53999996
   14.14499950  131.33900452    0.70999998    2.53999996
   14.14833355  124.81500244    0.73000002    2.53999996
   14.15166664  134.28199768    0.70999998    2.53999996
   14.15472221  126.87200165    0.67000002    2.53999996
   14.15805531  127.82399750    0.64999998    2.53999996
   14.16138840  125.99800110    0.67000002    2.51999998
   14.16333294  128.12199402    0.67000002    2.51999998
   14.16499996  135.42799377    0.64999998    2.53999996
   14.16805553  131.09899902    0.69000000    2.53999996
   14.17388916  131.09899902    0.67000002    2.53999996
   14.17805576  123.44000244    0.69000000    2.51999998
   14.18138885  131.38200378    0.67000002    2.53999996
   14.18444443  127.23600006    0.67000002    2.53999996
   14.18777752  122.59300232    0.67000002    2.53999996
   14.19111156  125.65399933    0.67000002    2.53999996
   14.19416714  124.48699951    0.69000000    2.53999996
   14.19666672  129.08299255    0.69000000    2.53999996
   14.19805527  126.18399811    0.64999998    2.53999996
   14.20138836  127.16999817    0.67000002    2.53999996
   14.20472240  124.47100067    0.67000002    2.53999996
   14.20805550  126.19400024    0.67000002    2.53999996
   14.21111107  132.78799438    0.69000000    2.53999996
   14.21694374  132.78799438    0.69000000    2.53999996
   14.22083282  125.26300049    0.70999998    2.53999996
   14.22416592  123.36100006    0.69000000    2.53999996
   14.22749996  128.88600159    0.69000000    2.53999996
   14.22999954  131.88600159    0.69000000    2.53999996
   14.23111057  130.52900696    0.67000002    2.53999996
   14.23416710  131.78500366    0.67000002    2.53999996
   14.23750019  127.25099945    0.69000000    2.53999996
   14.24083328  125.76799774    0.70999998    2.53999996
   14.24388885  128.66600037    0.69000000    2.53999996
   14.24722290  127.87200165    0.70999998    2.53999996
   14.25027752  134.66400146    0.69000000    2.53999996
   14.25361156  126.30799866    0.70999998    2.53999996
   14.25972176  126.30799866    0.70999998    2.53999996
   14.26388931  131.32600403    0.73000002    2.53999996
   14.26694393  121.73200226    0.69000000    2.53999996
   14.27027798  125.82299805    0.67000002    2.55999994
   14.27361107  138.02400208    0.67000002    2.53999996
   14.27666664  132.94200134    0.70999998    2.53999996
   14.27999973  130.13499451    0.73000002    2.53999996
   14.28333378  126.33399963    0.73000002    2.53999996
   14.28638935  126.55799866    0.73000002    2.53999996
   14.28972244  127.87000275    0.73000002    2.53999996
   14.29305553  135.90499878    0.70999998    2.53999996
   14.29611111  129.63499451    0.73000002    2.55999994
   14.29666710  133.49200439    0.73000002    2.55999994
   14.30249977  133.49200439    0.70999998    2.55999994
   14.30666733  123.85399628    0.70999998    2.53999996
   14.31000042  126.62799835    0.69000000    2.53999996
   14.31305599  135.22599792    0.69000000    2.53999996
   14.31638908  122.33499908    0.70999998    2.55999994
   14.31944466  128.35400391    0.70999998    2.53999996
   14.32277775  134.02099609    0.70999998    2.53999996
   14.32611084  121.31300354    0.70999998    2.53999996
   14.32916641  130.32099915    0.70999998    2.55999994
   14.32999992  125.47699738    0.70999998    2.55999994
   14.33277798  130.15100098    0.75000000    2.55999994
   14.33583260  125.65000153    0.73000002    2.55999994
   14.33916664  130.84800720    0.73000002    2.55999994
   14.34527779  130.84800720    0.73000002    2.53999996
   14.34944439  127.55400085    0.70999998    2.53999996
   14.35277843  120.55599976    0.73000002    2.55999994
   14.35583401  118.90899658    0.70999998    2.55999994
   14.35916710  122.17700195    0.70999998    2.55999994
   14.36250019  121.36399841    0.70999998    2.55999994
   14.36333370  126.37899780    0.70999998    2.55999994
   14.36611176  138.17999268    0.70999998    2.55999994
   14.36944485  122.62000275    0.75000000    2.55999994
   14.37250042  124.98300171    0.75000000    2.55999994
   14.37583351  121.53900146    0.69000000    2.55999994
   14.37888908  123.56800079    0.73000002    2.55999994
   14.38222218  126.43699646    0.69000000    2.55999994
   14.38833332  126.43699646    0.69000000    2.55999994
   14.39222240  124.46700287    0.73000002    2.55999994
   14.39555550  125.38500214    0.75000000    2.55999994
   14.39666653  128.88499451    0.80000001    2.55999994
   14.39916611  126.91699982    0.79000002    2.55999994
   14.40249920  123.00299835    0.79000002    2.55999994
   14.40555477  120.85600281    0.80000001    2.55999994
   14.40888882  124.25199890    0.81999999    2.55999994
   14.41222191  125.56900024    0.81999999    2.55999994
   14.41527748  123.08999634    0.81999999    2.55999994
   14.41861153  126.63899994    0.86000001    2.55999994
   14.42166710  127.55100250    0.88000000    2.55999994
   14.42500019  126.61299896    0.89999998    2.55999994
   14.43111134  126.61299896    0.92000002    2.55999994
   14.43527794  121.74099731    1.01999998    2.55999994
   14.43833351  125.15599823    0.98000002    2.55999994
   14.44166660  110.12000275    1.00000000    2.55999994
   14.44472218  122.61900330    0.94000000    2.55999994
   14.44805527  132.66799927    0.94000000    2.55999994
   14.45138836  125.50800323    0.94000000    2.55999994
   14.45444393  123.19799805    0.92000002    2.55999994
   14.45777798  126.63099670    0.94000000    2.55999994
   14.46111107  128.11300659    0.95999998    2.55999994
   14.46333313  127.44499969    0.92000002    2.55999994
   14.46472168  119.51200104    0.92000002    2.55999994
   14.46805477  125.48200226    0.92000002    2.55999994
   14.47388840  125.48200226    0.89999998    2.55999994
   14.47805500  117.51599884    0.83999997    2.55999994
   14.48138809  120.56999969    0.83999997    2.55999994
   14.48444462  121.22599792    0.81999999    2.55999994
   14.48777771  125.18699646    0.80000001    2.55999994
   14.49083328  126.15000153    0.76999998    2.55999994
   14.49416733  118.37000275    0.76999998    2.55999994
   14.49666691  122.47699738    0.79000002    2.55999994
   14.49777794  120.34700012    0.79000002    2.55999994
   14.50111103  118.30200195    0.79000002    2.55999994
   14.50416660  125.95700073    0.79000002    2.57999992
   14.50749969  124.00900269    0.86000001    2.55999994
   14.51083374  124.60199738    0.88000000    2.55999994
   14.51666641  124.60199738    0.92000002    2.55999994
   14.52083302  122.78399658    0.88000000    2.55999994
   14.52416611  129.43699646    0.86000001    2.57999992
   14.52722168  127.47299957    0.86000001    2.57999992
   14.52999973  129.97200012    0.88000000    2.55999994
   14.53111076  131.30299377    0.88000000    2.55999994
   14.53444481  124.41600037    0.92000002    2.55999994
   14.53750038  123.25700378    0.92000002    2.57999992
   14.54083347  123.66100311    0.92000002    2.55999994
   14.54416752  128.20599365    0.98000002    2.57999992
   14.54722309  123.28299713    0.98000002    2.57999992
   14.55055618  119.40100098    0.94000000    2.55999994
   14.55388927  121.48100281    0.94000000    2.55999994
   14.55972195  121.48100281    0.89999998    2.55999994
   14.56388950  118.80899811    0.83999997    2.57999992
   14.56722260  119.69599915    0.80000001    2.57999992
   14.57027817  121.54399872    0.79000002    2.57999992
   14.57361126  124.43199921    0.73000002    2.55999994
   14.57666683  129.15199280    0.73000002    2.55999994
   14.57999992  123.43299866    0.75000000    2.57999992
   14.58333302  120.12999725    0.73000002    2.57999992
   14.58638859  118.98999786    0.69000000    2.57999992
   14.58972168  120.78800201    0.69000000    2.57999992
   14.59305477  118.54599762    0.70999998    2.57999992
   14.59611034  120.91899872    0.70999998    2.57999992
   14.59666634  125.85299683    0.70999998    2.57999992
   14.60249996  125.85299683    0.73000002    2.57999992
   14.60666752  117.88099670    0.70999998    2.57999992
   14.60972214  119.50700378    0.73000002    2.57999992
   14.61305618  120.72299957    0.69000000    2.57999992
   14.63055611  121.35199738    0.69000000    2.57999992
   14.63277817  120.08699799    0.69000000    2.57999992
   14.63611126  118.73200226    0.67000002    2.57999992
   14.63944435  122.09300232    0.63000000    2.57999992
   14.64527798  122.09300232    0.64999998    2.57999992
   14.64944458  123.71299744    0.64999998    2.59999990
   14.65277767  121.07700348    0.64999998    2.59999990
   14.65583324  117.33000183    0.63000000    2.57999992
   14.65916634  120.03099823    0.63000000    2.57999992
   14.66222191  123.12100220    0.63000000    2.59999990
   14.66361046  116.79199982    0.63000000    2.59999990
   14.66583252  121.39399719    0.61000001    2.57999992
   14.66916656  123.88999939    0.63000000    2.57999992
   14.67222214  124.71099854    0.61000001    2.57999992
   14.67555618  117.96399689    0.64999998    2.57999992
   14.67888927  120.57399750    0.64999998    2.57999992
   14.68194485  122.58200073    0.64999998    2.57999992
   14.68805599  122.58200073    0.58999997    2.57999992
   14.69222260  113.47799683    0.58999997    2.57999992
   14.69583321  115.01000214    0.63000000    2.59999990
   14.69694424  122.98100281    0.63000000    2.59999990
   14.69972229  116.26999664    0.61000001    2.57999992
   14.70305538  122.60099792    0.63000000    2.57999992
   14.70638847  117.70600128    0.61000001    2.59999990
   14.70944405  126.23100281    0.61000001    2.57999992
   14.71277714  119.67199707    0.63000000    2.57999992
   14.71583271  114.66699982    0.63000000    2.57999992
   14.71916580  121.45600128    0.63000000    2.59999990
   14.72249985  121.84500122    0.61000001    2.59999990
   14.72555542  120.63600159    0.58999997    2.59999990
   14.73111057  120.63600159    0.61000001    2.59999990
   14.73527813  116.04299927    0.61000001    2.59999990
   14.73833370  117.02700043    0.61000001    2.59999990
   14.74166679  124.30100250    0.56999999    2.59999990
   14.74472237  123.41000366    0.63000000    2.59999990
   14.74805546  120.53900146    0.63000000    2.57999992
   14.75138855  116.13500214    0.63000000    2.57999992
   14.75444412  121.15699768    0.58999997    2.59999990
   14.75777817  122.98999786    0.58999997    2.59999990
   14.76111126  125.64600372    0.58999997    2.59999990
   14.76361084  123.49600220    0.63000000    2.59999990
   14.76444435  121.04199982    0.63000000    2.59999990
   14.76777744  126.64700317    0.63000000    2.59999990
   14.77388859  126.64700317    0.64999998    2.59999990
   14.77805519  122.74400330    0.64999998    2.59999990
   14.78111076  118.70899963    0.67000002    2.57999992
   14.78444481  120.14800262    0.64999998    2.59999990
   14.78750038  120.88200378    0.63000000    2.59999990
   14.79083347  127.30300140    0.70999998    2.59999990
   14.79416752  129.73500061    0.70999998    2.59999990
   14.79694462  120.54900360    0.64999998    2.59999990
   14.79777813  116.42700195    0.64999998    2.59999990
   14.80111122  125.81099701    0.67000002    2.59999990
   14.80444431  121.23500061    0.67000002    2.59999990
   14.80749989  120.72399902    0.67000002    2.59999990
   14.81083393  116.60299683    0.64999998    2.59999990
   14.81666660  116.60299683    0.67000002    2.59999990
   14.82083321  121.40499878    0.73000002    2.59999990
   14.82416630  124.54599762    0.70999998    2.59999990
   14.82722187  125.77899933    0.75000000    2.59999990
   14.83027744  114.08000183    0.75000000    2.59999990
   14.83083344  111.87100220    0.76999998    2.59999990
   14.83416653  122.67700195    0.76999998    2.59999990
   14.83722210  126.07700348    0.75000000    2.59999990
   14.84055519  123.36100006    0.69000000    2.59999990
   14.84388828  121.59600067    0.73000002    2.59999990
   14.84694386  122.71099854    0.75000000    2.59999990
   14.85027790  127.07199860    0.86000001    2.59999990
   14.85333347  123.69599915    0.86000001    2.59999990
   14.85944462  123.69599915    0.88000000    2.59999990
   14.86361122  119.06199646    0.83999997    2.59999990
   14.86416721  128.64300537    0.83999997    2.59999990
   14.86750031  122.54699707    0.83999997    2.59999990
   14.87055588  123.45500183    1.01999998    2.59999990
   14.87388897  126.73400116    1.07000005    2.59999990
   14.87722206  128.32400513    1.07000005    2.59999990
   14.88027763  125.41999817    1.11000001    2.59999990
   14.88361073  126.80300140    1.11000001    2.57999992
   14.88694477  114.81400299    1.11000001    2.59999990
   14.89000034  124.71399689    1.03999996    2.59999990
   14.89333344  116.27500153    1.03999996    2.59999990
   14.89666653  124.59600067    1.05999994    2.59999990
   14.89777756  123.47899628    1.01999998    2.59999990
   14.90249920  123.47899628    0.92000002    2.59999990
   14.90638828  121.72200012    0.89999998    2.59999990
   14.90972137  118.03600311    0.94000000    2.59999990
   14.91305542  116.89700317    0.94000000    2.59999990
   14.91611099  119.08000183    1.00000000    2.59999990
   14.91944504  116.64700317    0.89999998    2.59999990
   14.92277813  130.38400269    0.86000001    2.59999990
   14.92611122  124.58100128    0.86000001    2.59999990
   14.92916679  123.19699860    0.89999998    2.61999989
   14.93083382  125.29499817    0.89999998    2.61999989
   14.93305588  126.65100098    0.92000002    2.59999990
   14.93611145  128.24400330    0.92000002    2.59999990
   14.93944454  125.16699982    1.01999998    2.59999990
   14.94527817  125.16699982    1.00000000    2.59999990
   14.94944477  123.54499817    1.00000000    2.59999990
   14.95249939  122.39800262    0.94000000    2.59999990
   14.95583344  123.98100281    0.81999999    2.59999990
   14.95916653  125.09999847    0.86000001    2.59999990
   14.96222210  125.79100037    0.86000001    2.59999990
   14.96416664  130.85499573    0.81999999    2.59999990
   14.96611118  119.33799744    0.81999999    2.59999990
   14.96916580  123.36100006    0.95999998    2.59999990
   14.97249985  127.34200287    0.92000002    2.59999990
   14.97583294  124.68299866    0.92000002    2.59999990
   14.97888851  121.73999786    1.34000003    2.59999990
   14.98222160  129.97000122    1.58000004    2.59999990
   14.98805618  129.97000122    1.55999994    2.59999990
   14.99222279  127.24299622    1.51999998    2.59999990
   14.99527836  123.13600159    1.58000004    2.59999990
   14.99777794  127.28099823    1.48000002    2.59999990
   14.99916649  129.05200195    1.48000002    2.59999990
   15.00249958  117.64700317    1.50000000    2.59999990
   15.00583363  125.59200287    1.28999996    2.59999990
   15.00888920  123.88600159    1.26999998    2.59999990
   15.01222229  118.67900085    1.34000003    2.59999990
   15.01555538  114.62899780    1.34000003    2.59999990
   15.01861095  126.33699799    1.28999996    2.59999990
   15.02194405  118.34600067    1.23000002    2.59999990
   15.02527714  124.77700043    1.00000000    2.61999989
   15.03083324  124.77700043    0.86000001    2.61999989
   15.03500080  123.47599792    0.92000002    2.61999989
   15.03833389  121.53900146    0.80000001    2.61999989
   15.04138947  122.31300354    0.79000002    2.61999989
   15.04472256  125.24900055    0.80000001    2.61999989
   15.04805565  122.41699982    0.76999998    2.61999989
   15.05111122  123.90899658    0.69000000    2.61999989
   15.05444431  131.10099792    0.69000000    2.61999989
   15.05777836  127.10900116    0.69000000    2.61999989
   15.06083393  130.05099487    0.73000002    2.61999989
   15.06416702  127.43000031    0.70999998    2.61999989
   15.06472206  127.19599915    0.70999998    2.61999989
   15.06777763  120.16999817    0.73000002    2.61999989
   15.07361126  120.16999817    0.67000002    2.59999990
   15.07777786  119.09700012    0.63000000    2.61999989
   15.08111095  120.98200226    0.63000000    2.61999989
   15.08444405  120.19599915    0.58999997    2.61999989
   15.08749962  117.25800323    0.64999998    2.61999989
   15.09083271  126.64099884    0.61000001    2.61999989
   15.09388828  131.37300110    0.63000000    2.61999989
   15.09722233  123.05300140    0.63000000    2.61999989
   15.09805489  120.92099762    0.63000000    2.61999989
   15.10083389  119.85199738    0.58999997    2.61999989
   15.10416698  125.59700012    0.61000001    2.61999989
   15.10750008  118.57499695    0.58999997    2.61999989
   15.11055565  121.29199982    0.58999997    2.61999989
   15.11666679  121.29199982    0.58999997    2.61999989
   15.12083340  123.50399780    0.56999999    2.61999989
   15.12388897  132.61500549    0.56999999    2.61999989
   15.12722206  129.47599792    0.56999999    2.61999989
   15.13055611  123.32399750    0.61000001    2.61999989
   15.13138866  130.62899780    0.61000001    2.61999989
   15.13388920  128.72999573    0.61000001    2.61999989
   15.13722229  120.67900085    0.64999998    2.61999989
   15.14055538  117.52899933    0.69000000    2.61999989
   15.14361095  118.30200195    0.70999998    2.61999989
   15.14694405  127.02700043    0.70999998    2.61999989
   15.14999962  120.60099792    0.80000001    2.61999989
   15.15333271  121.45300293    0.92000002    2.61999989
   15.15944386  121.45300293    0.83999997    2.61999989
   15.16361046  123.11100006    0.83999997    2.59999990
   15.16472149  122.04100037    0.83999997    2.59999990
   15.16722298  115.21099854    0.83999997    2.61999989
   15.17055607  118.58999634    0.86000001    2.61999989
   15.17388916  120.77100372    0.69000000    2.61999989
   15.17694473  125.57700348    0.69000000    2.61999989
   15.18027782  116.10500336    0.69000000    2.61999989
   15.18361092  125.36399841    0.67000002    2.61999989
   15.18666649  122.04199982    0.63000000    2.61999989
   15.19000053  124.71900177    0.61000001    2.61999989
   15.19305515  118.25800323    0.64999998    2.61999989
   15.19638920  124.52600098    0.64999998    2.61999989
   15.19805527  121.77600098    0.64999998    2.61999989
   15.20222187  121.77600098    0.69000000    2.61999989
   15.20638847  120.75499725    0.73000002    2.64000010
   15.20972157  121.51699829    0.70999998    2.61999989
   15.21277714  120.65699768    0.70999998    2.61999989
   15.21611118  116.93800354    0.70999998    2.61999989
   15.21944427  117.99600220    0.69000000    2.61999989
   15.22277737  119.38800049    0.64999998    2.61999989
   15.22583294  119.69699860    0.64999998    2.61999989
   15.22916603  116.82900238    0.76999998    2.61999989
   15.23138809  115.05500031    0.76999998    2.61999989
   15.23249912  116.12400055    0.76999998    2.61999989
   15.23583317  118.90299988    0.89999998    2.61999989
   15.23916721  122.48400116    0.83999997    2.61999989
   15.24527836  122.48400116    0.64999998    2.61999989
   15.24916649  119.24400330    0.64999998    2.61999989
   15.25249958  120.81400299    0.58999997    2.61999989
   15.25583363  122.35700226    0.61000001    2.61999989
   15.25888920  124.10800171    0.61000001    2.61999989
   15.26222229  115.92299652    0.67000002    2.61999989
   15.26472187  119.98699951    0.55000001    2.61999989
   15.26555538  120.24500275    0.55000001    2.61999989
   15.26888847  113.67400360    0.56999999    2.61999989
   15.27222157  114.66899872    0.56999999    2.61999989
   15.27527714  121.78399658    0.58999997    2.61999989
   15.27861118  118.88500214    0.56999999    2.61999989
   15.28194427  120.66899872    0.61000001    2.61999989
   15.28805637  120.66899872    0.58999997    2.61999989
   15.29222298  121.61000061    0.56999999    2.61999989
   15.29527855  120.64199829    0.58999997    2.64000010
   15.29805565  122.53700256    0.63000000    2.64000010
   15.29888916  119.06800079    0.63000000    2.64000010
   15.30222225  118.21199799    0.58999997    2.61999989
   15.30555534  118.64299774    0.63000000    2.61999989
   15.30888939  115.52799988    0.67000002    2.61999989
   15.31194496  117.83899689    0.63000000    2.61999989
   15.31527805  117.87200165    0.63000000    2.61999989
   15.31833363  119.80200195    0.64999998    2.61999989
   15.32166672  117.46700287    0.64999998    2.61999989
   15.32499981  119.18000031    0.61000001    2.64000010
   15.33083344  119.18000031    0.61000001    2.64000010
   15.33500004  120.22499847    0.63000000    2.64000010
   15.33833313  119.85700226    0.70999998    2.61999989
   15.34138870  117.07499695    0.64999998    2.61999989
   15.34472179  122.34799957    0.69000000    2.64000010
   15.34777737  123.41699982    0.69000000    2.64000010
   15.35111141  119.82299805    0.64999998    2.61999989
   15.35444450  120.24299622    0.63000000    2.61999989
   15.35750008  121.32299805    0.61000001    2.64000010
   15.36083412  113.51300049    0.63000000    2.61999989
   15.36416721  112.40799713    0.61000001    2.64000010
   15.36583328  115.85199738    0.61000001    2.64000010
   15.36777782  115.45999908    0.63000000    2.64000010
   15.37361145  115.45999908    0.61000001    2.64000010
   15.37777805  110.69899750    0.63000000    2.64000010
   15.38111115  115.25700378    0.63000000    2.64000010
   15.38444424  114.05000305    0.67000002    2.64000010
   15.38749981  112.61699677    0.63000000    2.61999989
   15.39083290  113.87599945    0.63000000    2.61999989
   15.39388847  115.20099640    0.69000000    2.64000010
   15.39722252  112.67900085    0.67000002    2.61999989
   15.39916611  115.59300232    0.69000000    2.64000010
   15.40083313  120.35500336    0.69000000    2.64000010
   15.40388870  115.73600006    0.69000000    2.64000010
   15.40722179  118.71499634    0.67000002    2.64000010
   15.41055489  117.10800171    0.69000000    2.64000010
   15.41666698  117.10800171    0.73000002    2.64000010
   15.42055607  116.99199677    0.70999998    2.64000010
   15.42388916  114.48600006    0.70999998    2.64000010
   15.42722225  117.60900116    0.69000000    2.64000010
   15.43027782  122.96099854    0.67000002    2.61999989
   15.43277836  118.16899872    0.64999998    2.64000010
   15.43416691  118.58899689    0.64999998    2.64000010
   15.43750000  118.30300140    0.69000000    2.64000010
   15.44055557  119.14900208    0.67000002    2.61999989
   15.44388866  116.91500092    0.63000000    2.64000010
   15.44722271  115.99199677    0.63000000    2.64000010
   15.45027733  114.65000153    0.63000000    2.64000010
   15.45361137  117.14900208    0.67000002    2.64000010
   15.45944405  117.14900208    0.67000002    2.64000010
   15.46361065  114.87500000    0.67000002    2.64000010
   15.46611118  112.71299744    0.63000000    2.64000010
   15.46694374  118.87799835    0.63000000    2.64000010
   15.47027779  116.45999908    0.63000000    2.64000010
   15.47361088  111.84600067    0.63000000    2.61999989
   15.47666645  114.85299683    0.67000002    2.64000010
   15.47999954  113.96800232    0.67000002    2.64000010
   15.48333359  117.79000092    0.63000000    2.61999989
   15.48638916  115.36799622    0.63000000    2.64000010
   15.48972225  118.78500366    0.64999998    2.64000010
   15.49277782  117.67299652    0.64999998    2.64000010
   15.49611092  115.49600220    0.64999998    2.64000010
   15.50222206  115.49600220    0.70999998    2.64000010
   15.50638866  117.50700378    0.63000000    2.64000010
   15.50944424  113.84100342    0.64999998    2.64000010
   15.51277733  116.36399841    0.67000002    2.64000010
   15.51611137  122.71900177    0.67000002    2.64000010
   15.51916599  119.85299683    0.67000002    2.64000010
   15.52250004  115.87500000    0.63000000    2.64000010
   15.52583313  114.52899933    0.63000000    2.64000010
   15.52888870  113.02999878    0.63000000    2.64000010
   15.53222179  119.97000122    0.70999998    2.64000010
   15.53333378  117.10700226    0.70999998    2.64000010
   15.53611183  118.01399994    0.69000000    2.64000010
   15.53944492  114.39199829    0.70999998    2.64000010
   15.54500008  114.39199829    0.69000000    2.64000010
   15.54916668  119.71800232    0.67000002    2.64000010
   15.55249977  117.90699768    0.67000002    2.64000010
   15.55583382  119.58100128    0.69000000    2.64000010
   15.55888939  114.24600220    0.67000002    2.64000010
   15.56222248  119.06900024    0.64999998    2.64000010
   15.56555557  119.51000214    0.73000002    2.64000010
   15.56638908  116.98699951    0.73000002    2.64000010
   15.56916618  115.43800354    0.69000000    2.64000010
   15.57250023  118.47000122    0.70999998    2.64000010
   15.57555580  117.48600006    0.70999998    2.64000010
   15.57888889  114.25399780    0.73000002    2.64000010
   15.58222198  112.14700317    0.86000001    2.64000010
   15.68638897   -1.00000000   -1.00000000   -1.00000000
   15.94305515   -1.00000000   -1.00000000   -1.00000000
   16.09277916   -1.00000000   -1.00000000   -1.00000000
   16.11916733  126.33000183    0.92000002    2.66000009
   16.12249947  120.03299713    0.92000002    2.64000010
   16.12555504  123.43399811    0.83999997    2.66000009
   16.12888908  123.78600311    0.83999997    2.66000009
   16.13222313  121.93299866    0.86000001    2.66000009
   16.13527679  111.99299622    0.81999999    2.64000010
   16.13944435  111.99299622    0.81999999    2.64000010
   16.14361191  117.74299622    0.81999999    2.64000010
   16.14694405  112.05999756    0.81999999    2.64000010
   16.14999962  118.66600037    0.76999998    2.64000010
   16.15250015  120.33599854    0.76999998    2.66000009
   16.15361023  121.44400024    0.79000002    2.66000009
   16.15666580  115.94999695    0.79000002    2.66000009
   16.15999985  118.21700287    0.79000002    2.66000009
   16.16333389  120.18199921    0.76999998    2.66000009
   16.16638756  119.37100220    0.76999998    2.66000009
   16.16972160  117.05400085    0.76999998    2.64000010
   16.17305565  124.76699829    0.76999998    2.64000010
   16.17611122  118.41999817    0.75000000    2.66000009
   16.18249893  118.41999817    0.79000002    2.66000009
   16.18638802  116.06800079    0.79000002    2.66000009
   16.18972206  123.39299774    0.79000002    2.66000009
   16.19305420  120.32299805    0.80000001    2.66000009
   16.19610977  124.82700348    0.80000001    2.66000009
   16.19944382  127.64299774    0.81999999    2.64000010
   16.20277786  122.31600189    0.81999999    2.64000010
   16.20583344  115.01399994    0.81999999    2.64000010
   16.20916748  121.46600342    0.83999997    2.66000009
   16.21250153  128.18299866    0.83999997    2.66000009
   16.21555710  120.31700134    0.86000001    2.66000009
   16.21888924  122.68000031    0.83999997    2.66000009
   16.21944427  124.54199982    0.83999997    2.66000009
   16.22527885  124.54199982    0.81999999    2.64000010
   16.22944450  115.64099884    0.86000001    2.66000009
   16.23250008  121.23899841    0.83999997    2.66000009
   16.23583412  114.68900299    0.83999997    2.66000009
   16.23916626  116.56199646    0.80000001    2.66000009
   16.24222183  115.67199707    0.79000002    2.66000009
   16.24555588  117.07900238    0.75000000    2.66000009
   16.24861145  116.51399994    0.75000000    2.66000009
   16.25194359  117.69499969    0.75000000    2.66000009
   16.25277710  115.00900269    0.75000000    2.66000009
   16.25555611  118.22200012    0.75000000    2.66000009
   16.25888824  113.54900360    0.75000000    2.66000009
   16.26194382  115.53199768    0.75000000    2.66000009
   16.26805496  115.53199768    0.75000000    2.66000009
   16.27222252  115.66500092    0.75000000    2.66000009
   16.27527809  117.50700378    0.69000000    2.66000009
   16.27861023  117.34500122    0.70999998    2.66000009
   16.28194427  121.36100006    0.70999998    2.66000009
   16.28499985  114.96700287    0.67000002    2.66000009
   16.28610992  112.22299957    0.67000002    2.66000009
   16.28861046  115.39299774    0.70999998    2.64000010
   16.29194450  116.89099884    0.69000000    2.66000009
   16.29527664  116.38400269    0.69000000    2.66000009
   16.29833221  117.72100067    0.75000000    2.66000009
   16.30166626  114.16500092    0.75000000    2.66000009
   16.30499840  119.47299957    0.75000000    2.66000009
   16.31083298  119.47299957    0.76999998    2.66000009
   16.31499863  116.00700378    0.76999998    2.66000009
   16.31833458  119.59300232    0.75000000    2.66000009
   16.31944466  116.58300018    0.75000000    2.66000009
   16.32166672  119.27600098    0.69000000    2.66000009
   16.32500076  119.26899719    0.73000002    2.66000009
   16.32833481  110.98699951    0.69000000    2.66000009
   16.33139038  112.51000214    0.73000002    2.66000009
   16.33472252  112.94899750    0.69000000    2.66000009
   16.33777809  116.53800201    0.69000000    2.66000009
   16.34111214  113.59100342    0.73000002    2.66000009
   16.34444427  119.36000061    0.70999998    2.66000009
   16.34749985  119.50299835    0.70999998    2.66000009
   16.35361099  119.50299835    0.70999998    2.66000009
   16.35777855  118.12400055    0.69000000    2.66000009
   16.36111069  113.91300201    0.69000000    2.66000009
   16.36416626  116.84400177    0.73000002    2.66000009
   16.36750031  116.76399994    0.73000002    2.66000009
   16.37083435  118.00700378    0.75000000    2.66000009
   16.37416649  114.32499695    0.69000000    2.66000009
   16.37722206  113.27899933    0.69000000    2.66000009
   16.38055611  117.76599884    0.73000002    2.66000009
   16.38388824  114.77999878    0.69000000    2.66000009
   16.38611031  119.42700195    0.69000000    2.66000009
   16.38722229  117.82299805    0.69000000    2.66000009
   16.39055634  111.73600006    0.69000000    2.66000009
   16.39666748  111.73600006    0.63000000    2.66000009
   16.40055466  107.08599854    0.67000002    2.66000009
   16.40388870  120.72699738    0.67000002    2.66000009
   16.40722275  122.96600342    0.63000000    2.66000009
   16.41027832  110.71399689    0.63000000    2.66000009
   16.41361046  120.09300232    0.63000000    2.66000009
   16.41694450  118.15799713    0.70999998    2.66000009
   16.41944313  118.35500336    0.69000000    2.66000009
   16.42027664  115.64399719    0.69000000    2.66000009
   16.42361069  111.56199646    0.69000000    2.66000009
   16.42694473  113.88300323    0.69000000    2.66000009
   16.43000031  111.52899933    0.69000000    2.66000009
   16.43333244  111.66699982    0.73000002    2.66000009
   16.43944359  111.66699982    0.73000002    2.66000009
   16.44361115  114.93800354    0.75000000    2.66000009
   16.44666672  111.00199890    0.70999998    2.66000009
   16.45000076  112.14800262    0.69000000    2.66000009
   16.45277786  114.76899719    0.69000000    2.66000009
   16.45361137  112.82399750    0.69000000    2.66000009
   16.45694542  111.43299866    0.58999997    2.66000009
   16.46027946  119.61499786    0.67000002    2.66000009
   16.46333504  117.96900177    0.63000000    2.66000009
   16.46666718  109.14499664    0.61000001    2.66000009
   16.46972275  113.72499847    0.64999998    2.66000009
   16.47305679  112.50700378    0.64999998    2.66000009
   16.47638893  112.53600311    0.63000000    2.66000009
   16.48250008  112.53600311    0.58999997    2.66000009
   16.48666763  114.50000000    0.56999999    2.66000009
   16.48972321  123.34500122    0.56999999    2.66000009
   16.49305534  117.72399902    0.56999999    2.66000009
   16.49611092  117.16000366    0.55000001    2.66000009
   16.49944496  119.10900116    0.55000001    2.66000009
   16.50277710  118.14900208    0.56999999    2.66000009
   16.50583267  120.50900269    0.56999999    2.66000009
   16.50916672  120.67700195    0.56999999    2.66000009
   16.51250076  115.99700165    0.55000001    2.66000009
   16.51555634  116.87400055    0.55000001    2.66000009
   16.51888847  118.70200348    0.58999997    2.66000009
   16.51944351  114.59799957    0.58999997    2.66000009
   16.52499962  114.59799957    0.52999997    2.66000009
   16.52916718  119.53500366    0.52999997    2.66000009
   16.53249931  123.58200073    0.52999997    2.66000009
   16.53583336  122.00700378    0.55000001    2.66000009
   16.53888893  117.01100159    0.52999997    2.66000009
   16.54222107  118.71399689    0.56999999    2.66000009
   16.54555511  119.38800049    0.58999997    2.66000009
   16.54861069  116.17400360    0.61000001    2.66000009
   16.55194283  118.55400085    0.61000001    2.66000009
   16.55277634  117.49800110    0.61000001    2.66000009
   16.55555534  118.86199951    0.63000000    2.66000009
   16.55861092  117.50499725    0.67000002    2.66000009
   16.56194305  119.55999756    0.69000000    2.66000009
   16.56805611  119.55999756    0.67000002    2.66000009
   16.57194519  116.44999695    0.64999998    2.67000008
   16.57527924  106.61299896    0.64999998    2.66000009
   16.57861137  108.06300354    0.64999998    2.66000009
   16.58166695  114.98300171    0.63000000    2.66000009
   16.58500099  120.66500092    0.64999998    2.66000009
   16.58611107  113.80100250    0.64999998    2.66000009
   16.58889008  117.50599670    0.67000002    2.66000009
   16.59194565  115.48999786    0.67000002    2.66000009
   16.59527779  120.63300323    0.69000000    2.66000009
   16.59833336  115.20300293    0.76999998    2.66000009
   16.60166740  113.29299927    1.00000000    2.66000009
   16.60499954  109.98000336    1.01999998    2.64000010
   16.61083412  109.98000336    1.11000001    2.67000008
   16.61499977  107.39399719    1.16999996    2.66000009
   16.61805534  108.87400055    1.13000000    2.64000010
   16.61944389  113.75499725    1.13000000    2.64000010
   16.62166595  117.57099915    1.00000000    2.66000009
   16.62500000  111.40100098    1.00000000    2.66000009
   16.62833405  112.33300018    0.81999999    2.66000009
   16.63138962  113.32900238    0.80000001    2.66000009
   16.63472176  113.05200195    0.80000001    2.66000009
   16.63805580  110.90200043    0.81999999    2.66000009
   16.64111137  113.80100250    0.79000002    2.66000009
   16.64444351  112.12000275    0.80000001    2.66000009
   16.64777756  112.69100189    0.80000001    2.66000009
   16.65361023  112.69100189    0.79000002    2.66000009
   16.65777779  112.34700012    0.79000002    2.66000009
   16.66110992  114.96099854    0.73000002    2.66000009
   16.66416550  120.69499969    0.75000000    2.66000009
   16.66749954  118.91799927    0.73000002    2.66000009
   16.67055511  120.55699921    0.73000002    2.66000009
   16.67388916  118.73100281    0.69000000    2.66000009
   16.67722130  119.19300079    0.75000000    2.66000009
   16.68027687  115.45300293    0.69000000    2.67000008
   16.68361092  108.69799805    0.75000000    2.66000009
   16.68610954  111.58899689    0.75000000    2.66000009
   16.68694305  114.57399750    0.75000000    2.66000009
   16.69027710  117.98600006    0.75000000    2.66000009
   16.69638824  117.98600006    0.81999999    2.66000009
   16.70055580  120.07099915    0.88000000    2.66000009
   16.70388985  124.93099976    0.95999998    2.66000009
   16.70722389  117.96299744    0.95999998    2.66000009
   16.71027946  114.05300140    0.88000000    2.66000009
   16.71361160  111.61799622    0.88000000    2.66000009
   16.71694565  113.15799713    0.83999997    2.66000009
   16.71944427  116.59700012    0.81999999    2.66000009
   16.72027779  117.18000031    0.81999999    2.66000009
   16.72361183  116.90299988    0.80000001    2.66000009
   16.72694588  112.43399811    0.73000002    2.66000009
   16.73000145  113.36100006    0.73000002    2.66000009
   16.73333359  111.83399963    0.75000000    2.66000009
   16.73944473  111.83399963    0.73000002    2.66000009
   16.74333382  116.66600037    0.75000000    2.66000009
   16.74666786  109.13999939    0.75000000    2.66000009
   16.75000000  107.25000000    0.79000002    2.66000009
   16.75277710  111.47299957    0.75000000    2.66000009
   16.75361061  109.57299805    0.75000000    2.66000009
   16.75666618  117.24700165    0.73000002    2.66000009
   16.76000023  113.46800232    0.75000000    2.66000009
   16.76305580  118.35800171    0.70999998    2.66000009
   16.76638794  115.79199982    0.70999998    2.66000009
   16.76972198  114.11100006    0.67000002    2.66000009
   16.77277756  112.34899902    0.67000002    2.66000009
   16.77611160  115.80799866    0.75000000    2.66000009
   16.78222275  115.80799866    0.80000001    2.66000009
   16.78638840  111.41200256    0.80000001    2.66000009
   16.78944397  107.58499908    0.81999999    2.66000009
   16.79277802  111.90899658    0.83999997    2.64000010
   16.79611015  112.87400055    0.89999998    2.66000009
   16.79916573  115.32700348    0.89999998    2.66000009
   16.80249977  110.91400146    0.89999998    2.66000009
   16.80583191  110.63800049    0.95999998    2.66000009
   16.80888748  109.89099884    0.98000002    2.66000009
   16.81222153  110.35099792    0.94000000    2.66000009
   16.81527710  106.75599670    0.88000000    2.66000009
   16.81861115  113.13899994    0.80000001    2.66000009
   16.81944466  111.38700104    0.80000001    2.66000009
   16.82500076  111.38700104    0.80000001    2.66000009
   16.82916832  113.53299713    0.70999998    2.67000008
   16.83250046  108.03399658    0.70999998    2.67000008
   16.83555603  109.48699951    0.75000000    2.66000009
   16.83889008  115.62200165    0.70999998    2.66000009
   16.84194565  103.59100342    0.70999998    2.66000009
   16.84527779  105.55000305    0.67000002    2.66000009
   16.84861183  107.27999878    0.64999998    2.67000008
   16.85166740  102.69000244    0.64999998    2.66000009
   16.85277748  109.24299622    0.64999998    2.66000009
   16.85555649  106.55799866    0.64999998    2.66000009
   16.85861206  107.18199921    0.64999998    2.66000009
   16.86194420  108.76100159    0.69000000    2.66000009
   16.86777878  108.76100159    0.73000002    2.66000009
   16.87194443  104.39099884    0.73000002    2.64000010
   16.87527847  103.68499756    0.76999998    2.66000009
   16.87833405  108.73600006    0.76999998    2.66000009
   16.88166618  108.70600128    0.80000001    2.66000009
   16.88500023  101.51499939    0.70999998    2.66000009
   16.88611031  101.63300323    0.67000002    2.66000009
   16.88861084  103.50099945    0.67000002    2.66000009
   16.89166641  106.79000092    0.67000002    2.64000010
   16.89500046  105.55100250    0.67000002    2.66000009
   16.89805603  103.85399628    0.69000000    2.66000009
   16.90138817  107.76599884    0.73000002    2.66000009
   16.90472221  105.15699768    0.73000002    2.66000009
   16.91083336  105.15699768    0.70999998    2.66000009
   16.91472244  108.79900360    0.75000000    2.66000009
   16.91805458  103.01899719    0.76999998    2.66000009
   16.91944313  104.80000305    0.76999998    2.66000009
   16.92166519  108.47399902    0.80000001    2.66000009
   16.92499924  106.96900177    0.83999997    2.66000009
   16.92833328  105.42600250    0.83999997    2.66000009
   16.93138885  104.49299622    0.79000002    2.64000010
   16.93472099  103.16500092    0.79000002    2.64000010
   16.93777657  105.80400085    0.81999999    2.66000009
   16.94111061  107.58699799    0.89999998    2.66000009
   16.94444275  110.00499725    0.89999998    2.66000009
   16.94749832  114.92099762    0.75000000    2.66000009
   16.95361137  114.92099762    0.70999998    2.66000009
   16.95777893  105.83000183    0.75000000    2.66000009
   16.96083450  110.07800293    0.79000002    2.66000009
   16.96416664  108.34999847    0.75000000    2.66000009
   16.96750069  103.44699860    0.80000001    2.66000009
   16.97055626  108.46399689    0.64999998    2.66000009
   16.97389030  114.73999786    0.69000000    2.66000009
   16.97694588  104.10399628    0.69000000    2.66000009
   16.98027802  104.85600281    0.69000000    2.66000009
   16.98361206  101.76699829    0.63000000    2.66000009
   16.98611069  105.65000153    0.67000002    2.66000009
   16.98722267  106.12899780    0.69000000    2.66000009
   16.99027824  110.42900085    0.73000002    2.66000009
   16.99638939  110.42900085    0.75000000    2.66000009
   17.00055504  105.70099640    0.73000002    2.67000008
   17.00361061  105.78099823    0.75000000    2.66000009
   17.00694466  108.64600372    0.75000000    2.66000009
   17.01027870  105.19100189    0.73000002    2.66000009
   17.01333427  105.23600006    0.73000002    2.66000009
   17.01666641  108.81300354    0.73000002    2.66000009
   17.01944351  103.39299774    0.67000002    2.66000009
   17.02027702  108.60800171    0.67000002    2.66000009
   17.02333260  103.61900330    0.70999998    2.66000009
   17.02666664  109.79799652    0.67000002    2.66000009
   17.02972221  104.38200378    0.76999998    2.66000009
   17.03305435  105.13099670    0.80000001    2.66000009
   17.03916550  105.13099670    0.81999999    2.66000009
   17.04333305  106.46700287    0.86000001    2.66000009
   17.04666710  105.26300049    0.86000001    2.66000009
   17.04972076  104.42299652    0.80000001    2.66000009
   17.05277634  106.42800140    0.63000000    2.66000009
   17.05360985  100.50800323    0.63000000    2.66000009
   17.05666542  108.16799927    0.69000000    2.66000009
   17.05999947  106.16600037    0.63000000    2.66000009
   17.06305504  102.73799896    0.63000000    2.66000009
   17.06638718  103.82599640    0.63000000    2.66000009
   17.06972313  109.97000122    0.64999998    2.66000009
   17.07277870  107.33200073    0.64999998    2.66000009
   17.07611275  104.34600067    0.69000000    2.66000009
   17.08194542  104.34600067    0.67000002    2.66000009
   17.08611107  107.97799683    0.69000000    2.66000009
   17.08944511  106.72899628    0.67000002    2.66000009
   17.09277916  105.64399719    0.69000000    2.66000009
   17.09583473  103.98999786    0.64999998    2.66000009
   17.09916687  104.30500031    0.67000002    2.66000009
   17.10250092  104.06700134    0.69000000    2.66000009
   17.10555649  106.54199982    0.67000002    2.66000009
   17.10888863  106.94699860    0.67000002    2.66000009
   17.11194420  105.03099823    0.63000000    2.66000009
   17.11527824  109.12100220    0.63000000    2.66000009
   17.11861038  109.16799927    0.63000000    2.64000010
   17.11944389  111.78800201    0.64999998    2.66000009
   17.13999939  111.78800201    0.76999998    2.66000009
   17.14416695  112.11199951    0.79000002    2.66000009
   17.14749908  109.16899872    0.70999998    2.66000009
   17.15055466  111.83000183    0.76999998    2.66000009
   17.15277672  111.80999756    0.69000000    2.66000009
   17.15444374  112.76599884    0.69000000    2.66000009
   17.15777779  111.69300079    0.69000000    2.66000009
   17.16110992  112.04000092    0.70999998    2.66000009
   17.16444397  111.16200256    0.67000002    2.66000009
   17.16749954  112.88600159    0.67000002    2.66000009
   17.17083359  110.34600067    0.70999998    2.66000009
   17.17388916  109.07099915    0.63000000    2.66000009
   17.17722130  113.22499847    0.56999999    2.66000009
   17.18277740  113.22499847    0.56999999    2.66000009
   17.18694305  113.66200256    0.52999997    2.66000009
   17.19027710  112.27799988    0.58999997    2.66000009
   17.19333267  117.68199921    0.56999999    2.66000009
   17.19666672  116.76799774    0.55000001    2.66000009
   17.19972038  117.61499786    0.55000001    2.66000009
   17.20305634  118.70700073    0.58999997    2.66000009
   17.20639038  119.21399689    0.55000001    2.66000009
   17.20944595  120.49500275    0.61000001    2.66000009
   17.21277809  123.39800262    0.61000001    2.66000009
   17.21611214  115.59100342    0.69000000    2.66000009
   17.21916771  125.00199890    0.67000002    2.64000010
   17.21972275  120.48899841    0.67000002    2.64000010
   17.22555542  120.48899841    0.70999998    2.66000009
   17.22972298  119.05200195    0.67000002    2.64000010
   17.23305511  124.55799866    0.69000000    2.64000010
   17.23611069  115.78399658    0.69000000    2.64000010
   17.23944473  118.16600037    0.67000002    2.66000009
   17.24277878  115.95700073    0.69000000    2.66000009
   17.24583435  111.87899780    0.73000002    2.64000010
   17.24916649  111.56900024    0.76999998    2.64000010
   17.25250053  116.99199677    0.81999999    2.64000010
   17.25305557  114.98400116    0.81999999    2.64000010
   17.25611115  111.50700378    0.79000002    2.64000010
   17.25944519  115.88700104    0.75000000    2.66000009
   17.26250076  123.24400330    0.75000000    2.66000009
   17.26861000  123.24400330    0.73000002    2.66000009
   17.27249908  117.66000366    0.75000000    2.66000009
   17.27583313  110.67600250    0.70999998    2.66000009
   17.27916718  123.40200043    0.73000002    2.64000010
   17.28222275  121.59200287    0.75000000    2.64000010
   17.28555489  116.25000000    0.80000001    2.66000009
   17.28638840  115.42700195    0.80000001    2.66000009
   17.28916550  115.06199646    0.80000001    2.64000010
   17.29222107  120.10299683    0.80000001    2.64000010
   17.29555511  115.70099640    0.79000002    2.66000009
   17.29888916  118.73899841    0.80000001    2.66000009
   17.30194283  120.81999969    0.76999998    2.66000009
   17.30527687  118.95899963    0.83999997    2.64000010
   17.31138802  118.95899963    0.80000001    2.66000009
   17.31555557  125.68199921    0.63000000    2.66000009
   17.31861115  119.41000366    0.63000000    2.66000009
   17.31972313  122.36299896    0.61000001    2.66000009
   17.32222366  123.26599884    0.61000001    2.66000009
   17.32555580  121.50000000    0.67000002    2.66000009
   17.32861137  116.28399658    0.73000002    2.66000009
   17.33194542  124.36799622    0.70999998    2.66000009
   17.33527756  118.56400299    0.70999998    2.66000009
   17.33833313  123.25800323    0.69000000    2.66000009
   17.34166718  119.01000214    0.69000000    2.66000009
   17.34472275  125.72599792    0.64999998    2.66000009
   17.34805679  121.29000092    0.64999998    2.66000009
   17.35416794  121.29000092    0.64999998    2.66000009
   17.35833359  119.96499634    0.63000000    2.66000009
   17.36166763  118.44799805    0.64999998    2.66000009
   17.36472321  126.53700256    0.67000002    2.66000009
   17.36805534  127.76499939    0.70999998    2.66000009
   17.37138939  120.07700348    0.73000002    2.66000009
   17.37472153  121.83200073    0.70999998    2.64000010
   17.37777710  119.13899994    0.73000002    2.66000009
   17.38111115  117.87300110    0.73000002    2.66000009
   17.38416672  123.03299713    0.76999998    2.66000009
   17.38638878  124.80500031    0.73000002    2.66000009
   17.38805580  128.43600464    0.73000002    2.66000009
   17.39138794  118.36499786    0.70999998    2.66000009
   17.39722252  118.36499786    0.79000002    2.66000009
   17.40111160  120.48500061    0.86000001    2.64000010
   17.40444374  123.67900085    0.86000001    2.64000010
   17.40777779  123.44599915    0.79000002    2.64000010
   17.41083336  121.35800171    0.81999999    2.64000010
   17.41416550  113.77100372    0.83999997    2.66000009
   17.41722107  117.53600311    0.81999999    2.64000010
   17.41972160  120.05300140    0.81999999    2.64000010
   17.42111015  117.86100006    0.80000001    2.66000009
   17.42416573  119.24800110    0.80000001    2.66000009
   17.42749977  115.60900116    0.83999997    2.64000010
   17.43083191  116.10700226    1.07000005    2.64000010
   17.43388748  113.94599915    0.95999998    2.64000010
   17.43999863  113.94599915    0.92000002    2.64000010
   17.44388771  107.65599823    0.86000001    2.66000009
   17.44722176  111.08200073    0.89999998    2.64000010
   17.45055580  112.38200378    0.89999998    2.64000010
   17.45305634  112.86599731    0.86000001    2.64000010
   17.45416832  118.09799957    0.86000001    2.64000010
   17.45722389  110.19699860    0.92000002    2.66000009
   17.46055603  117.64900208    0.94000000    2.64000010
   17.46389008  111.27400208    0.94000000    2.64000010
   17.46694565  118.16600037    0.95999998    2.66000009
   17.47027779  116.69300079    0.89999998    2.66000009
   17.47361183  119.43599701    0.81999999    2.66000009
   17.47666740  117.86199951    0.81999999    2.66000009
   17.48277855  117.86199951    0.79000002    2.66000009
   17.48694420  118.57700348    0.76999998    2.66000009
   17.48999977  118.08599854    0.75000000    2.66000009
   17.49333382  116.51999664    0.80000001    2.64000010
   17.49666786  115.41500092    0.81999999    2.66000009
   17.49972153  116.96900177    0.81999999    2.64000010
   17.50305557  113.91600037    0.81999999    2.64000010
   17.50611115  112.68299866    0.80000001    2.64000010
   17.50944519  120.52899933    0.83999997    2.64000010
   17.51277733  111.69599915    0.86000001    2.64000010
   17.51583290  117.77600098    0.83999997    2.66000009
   17.51916695  116.96499634    0.86000001    2.64000010
   17.51972198  114.99500275    0.86000001    2.64000010
   17.55305481  111.79399872    1.13000000    2.64000010
   17.55360985  118.52500153    1.13000000    2.64000010
   17.55694389  116.74500275    1.09000003    2.64000010
   17.56027794  112.01599884    1.11000001    2.64000010
   17.56333351  113.74099731    1.11000001    2.64000010
   17.56666756  115.14399719    1.09000003    2.64000010
   17.56805611  115.14399719    1.09000003    2.64000010
   17.57222366  112.92500305    1.11000001    2.64000010
   17.57555580  112.59600067    1.07000005    2.66000009
   17.57861137  117.57499695    0.98000002    2.64000010
   17.58194542  118.90799713    0.98000002    2.64000010
   17.58361244  110.18399811    1.00000000    2.64000010
   17.58555603  113.59700012    1.00000000    2.64000010
   17.58889008  110.30300140    0.94000000    2.64000010
   17.59194565  111.21800232    0.95999998    2.64000010
   17.59527779  116.92400360    0.92000002    2.64000010
   17.59861183  114.49900055    0.92000002    2.66000009
   17.60166740  114.67800140    0.95999998    2.64000010
   17.60499954  116.48699951    0.94000000    2.64000010
   17.61083412  116.48699951    1.05999994    2.64000010
   17.61499977  111.58599854    1.16999996    2.64000010
   17.61694527  112.04900360    1.21000004    2.64000010
   17.61861038  106.86399841    1.21000004    2.64000010
   17.62194443  108.32900238    1.14999998    2.64000010
   17.62500000  107.86299896    1.09000003    2.64000010
   17.62833405  112.97399902    1.09000003    2.64000010
   17.63166618  110.97399902    1.13000000    2.64000010
   17.63472176  109.31600189    1.16999996    2.64000010
   17.63805580  116.13300323    1.16999996    2.64000010
   17.64138794  107.76200104    1.11000001    2.64000010
   17.64444351  109.88200378    1.05999994    2.64000010
   17.64777756  109.22799683    1.01999998    2.64000010
   17.65638924  109.22799683    0.98000002    2.64000010
   17.66055489  104.46600342    0.94000000    2.64000010
   17.66388893  107.39099884    0.94000000    2.64000010
   17.66694450  108.97000122    0.92000002    2.64000010
   17.67027664  106.16899872    0.94000000    2.64000010
   17.67333221  116.55000305    0.94000000    2.64000010
   17.67666626  107.81099701    0.94000000    2.64000010
   17.68000031  111.26499939    0.95999998    2.64000010
   17.68305397  103.18800354    0.95999998    2.64000010
   17.68638802  113.04199982    0.95999998    2.64000010
   17.68722153  108.65599823    0.94000000    2.64000010
   17.68999863  114.86599731    0.94000000    2.64000010
   17.69333267  110.06600189    1.00000000    2.64000010
   17.69916534  110.06600189    1.01999998    2.66000009
   17.70333481  109.00399780    1.00000000    2.64000010
   17.70666695  107.70600128    0.98000002    2.64000010
   17.71000099  109.50199890    0.98000002    2.64000010
   17.71305656  108.61199951    0.98000002    2.64000010
   17.71638870  103.10900116    0.95999998    2.64000010
   17.71944427  109.11900330    1.03999996    2.64000010
   17.72055626  111.86199951    1.01999998    2.64000010
   17.72305679  110.63899994    1.01999998    2.64000010
   17.72638893  112.63800049    1.05999994    2.64000010
   17.72944450  109.72100067    1.03999996    2.64000010
   17.73277855  105.61599731    1.07000005    2.64000010
   17.73583412  109.34899902    1.03999996    2.64000010
   17.74222183  109.34899902    1.01999998    2.64000010
   17.74611092  115.72399902    1.03999996    2.64000010
   17.74944496  108.38400269    1.01999998    2.64000010
   17.75277710  103.94699860    1.01999998    2.64000010
   17.75416756  107.39099884    1.01999998    2.64000010
   17.75638962  111.42500305    0.95999998    2.64000010
   17.75944519  108.24600220    0.94000000    2.64000010
   17.76277733  108.01699829    0.98000002    2.64000010
   17.76611137  108.84899902    0.98000002    2.64000010
   17.76916695  111.22699738    0.95999998    2.64000010
   17.77249908  109.37400055    0.95999998    2.64000010
   17.77583313  116.66200256    0.98000002    2.66000009
   17.77888870  106.01899719    1.00000000    2.64000010
   17.78499985  106.01899719    0.98000002    2.66000009
   17.78916550  107.02799988    0.95999998    2.64000010
   17.79222107  114.05300140    0.95999998    2.64000010
   17.79555511  110.74099731    0.98000002    2.64000010
   17.79888916  114.79900360    0.94000000    2.64000010
   17.80194283  113.82900238    0.98000002    2.64000010
   17.80527687  109.59600067    0.98000002    2.64000010
   17.80861092  108.12500000    1.00000000    2.64000010
   17.81166649  108.92600250    1.00000000    2.64000010
   17.81499863  108.85099792    1.09000003    2.64000010
   17.81805611  108.63700104    1.11000001    2.64000010
   17.82083511  106.14900208    1.13000000    2.64000010
   17.82194519  108.04100037    1.13000000    2.64000010
   17.82777786  108.04100037    1.11000001    2.61999989
   17.83194542  111.16899872    1.13000000    2.64000010
   17.83527756  112.49600220    1.11000001    2.64000010
   17.83833313  112.86299896    1.13000000    2.64000010
   17.84166718  109.09700012    1.13000000    2.64000010
   17.84472275  113.19599915    1.13000000    2.64000010
   17.84805679  109.56800079    1.13000000    2.64000010
   17.85138893  110.94999695    1.13000000    2.64000010
   17.85416794  111.48999786    1.03999996    2.64000010
   17.85499954  108.40799713    0.92000002    2.64000010
   17.85805511  113.78399658    0.89999998    2.64000010
   17.86138916  109.45099640    0.89999998    2.66000009
   17.86472321  111.02999878    0.89999998    2.64000010
   17.87083435  111.02999878    0.92000002    2.64000010
   17.87500000  110.57299805    0.86000001    2.64000010
   17.87805557  107.87300110    0.86000001    2.64000010
   17.88138962  113.99199677    0.86000001    2.64000010
   17.88472176  111.70600128    0.83999997    2.64000010
   17.88750076  104.16100311    0.83999997    2.64000010
   17.88833237  110.31199646    0.83999997    2.64000010
   17.89166641  108.91400146    0.86000001    2.64000010
   17.89472198  107.23400116    0.88000000    2.64000010
   17.89805603  112.27300262    0.89999998    2.64000010
   17.90138817  113.40100098    0.92000002    2.64000010
   17.90444374  117.69999695    0.92000002    2.64000010
   17.90777779  113.14600372    0.98000002    2.61999989
   17.91361046  113.14600372    0.98000002    2.64000010
   17.91749954  111.70800018    1.01999998    2.64000010
   17.92083359  110.46800232    1.01999998    2.64000010
   17.92138863  108.65200043    1.00000000    2.64000010
   17.92472076  113.60700226    1.00000000    2.64000010
   17.92777634  108.70500183    1.03999996    2.64000010
   17.93111038  111.62999725    1.03999996    2.64000010
   17.93416595  113.73600006    1.05999994    2.64000010
   17.93750000  109.43299866    1.07000005    2.64000010
   17.94083214  113.10500336    1.07000005    2.64000010
   17.94388771  110.02700043    1.09000003    2.64000010
   17.94722176  104.94999695    1.16999996    2.61999989
   17.95055580  107.20400238    1.16999996    2.64000010
   17.95639038  107.20400238    1.14999998    2.64000010
   17.96055603  111.49800110    1.25000000    2.64000010
   17.96361160  106.29799652    1.33000004    2.61999989
   17.96694565  112.20800018    1.30999994    2.64000010
   17.97027779  108.31099701    1.28999996    2.61999989
   17.97333336  108.40899658    1.28999996    2.64000010
   17.97666740  111.66999817    1.28999996    2.64000010
   17.97972298  108.88700104    1.25000000    2.64000010
   17.98305511  110.40599823    1.25000000    2.64000010
   17.98638916  103.94400024    1.39999998    2.61999989
   17.98805618  110.94400024    1.63000000    2.64000010
   17.98999977  107.44799805    1.88000000    2.61999989
   17.99305534  105.32599640    1.91999996    2.61999989
   17.99916649  105.32599640    1.76999998    2.61999989
   18.00333405  108.71700287    1.48000002    2.61999989
   18.00666618  110.02500153    1.36000001    2.61999989
   18.00972176  109.81099701    1.13000000    2.64000010
   18.01305580  114.77999878    1.13000000    2.64000010
   18.01611137  111.27100372    1.07000005    2.64000010
   18.01944351  114.40799713    1.05999994    2.64000010
   18.02138901  111.44699860    0.98000002    2.64000010
   18.02305603  110.16400146    0.98000002    2.64000010
   18.02611160  108.59400177    0.94000000    2.64000010
   18.02944374  108.29699707    0.95999998    2.64000010
   18.03277779  111.57099915    1.00000000    2.64000010
   18.03583336  107.79699707    1.07000005    2.64000010
   18.04194450  107.79699707    1.25000000    2.61999989
   18.04611015  115.29499817    1.09000003    2.61999989
   18.04944420  110.88500214    0.95999998    2.64000010
   18.05249977  116.87000275    0.94000000    2.64000010
   18.05472183  113.18099976    0.94000000    2.64000010
   18.05638885  113.39900208    0.98000002    2.64000010
   18.05944443  112.22200012    0.98000002    2.64000010
   18.06277657  113.42500305    0.98000002    2.64000010
   18.06583214  107.69000244    0.98000002    2.64000010
   18.06916809  110.78500366    1.00000000    2.61999989
   18.07250023  112.23300171    1.01999998    2.61999989
   18.07555580  109.50499725    0.95999998    2.61999989
   18.07888985  108.88400269    0.95999998    2.61999989
   18.08472252  108.88400269    1.03999996    2.61999989
   18.08889008  114.86699677    1.01999998    2.64000010
   18.09222221  114.61100006    1.03999996    2.64000010
   18.09555626  111.47200012    1.05999994    2.64000010
   18.09861183  115.61900330    1.07000005    2.64000010
   18.10194397  115.84400177    1.07000005    2.64000010
   18.10499954  116.27200317    1.03999996    2.61999989
   18.10833359  107.93299866    1.03999996    2.61999989
   18.11166763  115.99800110    1.01999998    2.61999989
   18.11472321  109.84300232    1.03999996    2.61999989
   18.11805534  111.43299866    1.07000005    2.61999989
   18.12138939  112.13800049    1.07000005    2.61999989
   18.12194443  111.09999847    1.07000005    2.61999989
   18.12777710  111.09999847    1.05999994    2.61999989
   18.13194466  111.21199799    1.00000000    2.64000010
   18.13500023  107.91300201    1.01999998    2.61999989
   18.13833237  108.00199890    1.03999996    2.61999989
   18.14138794  115.92600250    1.05999994    2.61999989
   18.14472198  108.93699646    1.03999996    2.61999989
   18.14805603  112.64299774    1.03999996    2.61999989
   18.15111160  108.46600342    1.03999996    2.61999989
   18.15444374  115.36000061    1.05999994    2.61999989
   18.15499878  112.67800140    1.05999994    2.61999989
   18.15805435  116.76399994    1.05999994    2.61999989
   18.16138840  115.12100220    1.09000003    2.61999989
   18.16472244  109.54799652    1.13000000    2.61999989
   18.17055511  109.54799652    1.28999996    2.61999989
   18.17472076  109.19899750    1.39999998    2.61999989
   18.17777634  110.59300232    1.39999998    2.61999989
   18.18111038  105.92800140    1.33000004    2.61999989
   18.18444443  105.05200195    1.19000006    2.64000010
   18.18750000  101.89199829    1.19000006    2.61999989
   18.18833160  106.17600250    1.19000006    2.61999989
   18.19111061  109.50199890    1.19000006    2.61999989
   18.19444275  110.71600342    1.21000004    2.64000010
   18.19777679  111.73699951    1.16999996    2.64000010
   18.20083427  115.10600281    1.13000000    2.64000010
   18.20416832  106.68499756    1.16999996    2.61999989
   18.20750046  110.54399872    1.21000004    2.61999989
   18.21333504  110.54399872    1.16999996    2.61999989
   18.21750069  110.27999878    1.19000006    2.61999989
   18.22083473  118.99400330    1.21000004    2.61999989
   18.22166634  113.46099854    1.21000004    2.61999989
   18.22416687  114.80400085    1.19000006    2.61999989
   18.22750092  115.70899963    1.14999998    2.61999989
   18.23083305  116.33799744    1.14999998    2.61999989
   18.23388863  115.58300018    1.19000006    2.64000010
   18.23722267  110.23100281    1.23000002    2.61999989
   18.24055672  111.72899628    1.25000000    2.61999989
   18.24361229  107.91699982    1.25000000    2.61999989
   18.24694443  114.99700165    1.25000000    2.61999989
   18.25000000  115.50000000    1.25000000    2.61999989
   18.25611115  115.50000000    1.26999998    2.61999989
   18.26027870  109.05500031    1.25000000    2.61999989
   18.26361084  106.70899963    1.25000000    2.61999989
   18.26694489  114.91100311    1.23000002    2.61999989
   18.27000046  107.43900299    1.23000002    2.61999989
   18.27333260  114.75299835    1.23000002    2.61999989
   18.27666664  123.40399933    1.19000006    2.64000010
   18.27972221  117.52700043    1.16999996    2.61999989
   18.28305435  122.99299622    1.11000001    2.61999989
   18.28638840  120.82299805    1.13000000    2.61999989
   18.28833199  109.20500183    1.13000000    2.61999989
   18.28972244  113.82099915    1.13000000    2.61999989
   18.29305458  111.11000061    1.14999998    2.61999989
   18.29916573  111.11000061    1.21000004    2.61999989
   18.30333328  116.12699890    1.13000000    2.61999989
   18.30638885  114.32499695    1.19000006    2.61999989
   18.30972099  117.05599976    1.16999996    2.61999989
   18.31277657  120.65000153    1.19000006    2.61999989
   18.31611061  109.03800201    1.19000006    2.61999989
   18.31944466  119.13700104    1.19000006    2.61999989
   18.32166672  107.74800110    1.23000002    2.61999989
   18.32277870  114.87300110    1.23000002    2.61999989
   18.32611275  111.92600250    1.23000002    2.61999989
   18.32944489  101.49500275    1.21000004    2.61999989
   18.33250046  106.47299957    1.21000004    2.61999989
   18.33583450  111.82800293    1.28999996    2.61999989
   18.34194565  111.82800293    1.26999998    2.61999989
   18.34611130  109.94999695    1.28999996    2.59999990
   18.34916687  120.46900177    1.23000002    2.61999989
   18.35250092  108.75000000    1.23000002    2.61999989
   18.35499954  108.68800354    1.19000006    2.61999989
   18.35611153  109.77700043    1.19000006    2.61999989
   18.35944557  111.30300140    1.14999998    2.61999989
   18.36277771  107.50499725    1.13000000    2.61999989
   18.36583328  106.12300110    1.11000001    2.61999989
   18.36916733  109.21800232    1.01999998    2.61999989
   18.37249947  108.17099762    1.01999998    2.61999989
   18.37555504  105.80899811    0.92000002    2.61999989
   18.37888908  105.65100098    0.88000000    2.61999989
   18.38472176  105.65100098    0.86000001    2.61999989
   18.38888931  119.60500336    0.86000001    2.61999989
   18.39222145  107.92800140    0.89999998    2.61999989
   18.39527702  117.45300293    1.03999996    2.61999989
   18.39861107  115.60700226    1.03999996    2.61999989
   18.40194321  109.71700287    1.03999996    2.61999989
   18.40499878  114.53600311    1.00000000    2.61999989
   18.40833282  114.62500000    1.03999996    2.61999989
   18.41166687  115.17400360    1.03999996    2.61999989
   18.41472244  107.01399994    1.03999996    2.61999989
   18.41805458  110.18399811    1.03999996    2.61999989
   18.42111015  117.62799835    1.03999996    2.61999989
   18.42166519  113.26599884    1.03999996    2.61999989
   18.42749977  113.26599884    1.28999996    2.25000000
   18.43166542  110.04499817    1.07000005    2.59999990
   18.43499947  114.72000122    1.11000001    2.61999989
   18.43833160  111.08000183    1.11000001    2.61999989
   18.44138718  115.00700378    1.05999994    2.61999989
   18.44472122  107.71199799    1.11000001    2.59999990
   18.44805527  111.33000183    1.09000003    2.59999990
   18.45111275  115.10800171    1.07000005    2.61999989
   18.45444489  113.38400269    1.14999998    2.59999990
   18.45499992  118.96700287    1.14999998    2.59999990
   18.45805550  114.28299713    1.11000001    2.59999990
   18.46111107  116.18800354    1.13000000    2.59999990
   18.46444511  113.05000305    1.13000000    2.59999990
   18.47055626  113.05000305    1.14999998    2.59999990
   18.47472191  113.37500000    1.11000001    2.59999990
   18.47777748  115.48100281    1.07000005    2.59999990
   18.48111153  110.61000061    1.07000005    2.59999990
   18.48416710  112.59500122    1.09000003    2.59999990
   18.48750114  109.94400024    1.01999998    2.59999990
   18.48833275  112.68099976    1.01999998    2.59999990
   18.49111176  110.41300201    1.05999994    2.59999990
   18.49444389  111.09700012    1.05999994    2.59999990
   18.49749947  111.08100128    1.14999998    2.59999990
   18.50083351  106.31500244    1.14999998    2.59999990
   18.50388908  112.27200317    1.09000003    2.61999989
   18.50722313  111.49500275    1.07000005    2.59999990
   18.51333427  111.49500275    1.14999998    2.59999990
   18.51749992  112.22399902    1.21000004    2.59999990
   18.52055550  112.80999756    1.23000002    2.61999989
   18.52166557  112.05599976    1.23000002    2.61999989
   18.52416611  109.79399872    1.26999998    2.59999990
   18.52750015  111.22100067    1.21000004    2.61999989
   18.53083229  112.85199738    1.21000004    2.61999989
   18.53388786  107.03299713    1.21000004    2.59999990
   18.53722191  113.98699951    1.21000004    2.59999990
   18.54027748  110.82800293    1.23000002    2.59999990
   18.54361153  114.98100281    1.23000002    2.59999990
   18.54694366  108.02100372    1.21000004    2.59999990
   18.54999924  115.55400085    1.13000000    2.59999990
   18.57083511  115.55400085    1.19000006    2.59999990
   18.57500076  107.74099731    1.13000000    2.59999990
   18.57833481  111.69799805    1.13000000    2.59999990
   18.58139038  116.07099915    1.16999996    2.59999990
   18.58472252  111.26699829    1.14999998    2.59999990
   18.58805656  115.50099945    1.16999996    2.59999990
   18.59111214  104.51799774    1.16999996    2.59999990
   18.59444427  109.30000305    1.23000002    2.59999990
   18.59749985  109.91200256    1.44000006    2.59999990
   18.60083389  108.65599823    1.44000006    2.59999990
   18.60166740  113.45200348    1.64999998    2.59999990
   18.60444450  110.80500031    1.64999998    2.59999990
   18.60750008  111.75099945    1.64999998    2.59999990
   18.61361122  111.75099945    1.38000000    2.57999992
   18.61777878  113.77300262    1.28999996    2.59999990
   18.62111092  113.82299805    1.28999996    2.59999990
   18.62416649  111.64800262    1.25000000    2.59999990
   18.62750053  113.44899750    1.30999994    2.59999990
   18.63083267  112.03199768    1.30999994    2.59999990
   18.63388824  113.91500092    1.48000002    2.59999990
   18.63500023  108.79100037    1.58000004    2.59999990
   18.63750076  111.82800293    1.58000004    2.59999990
   18.64055634  115.54399872    1.33000004    2.59999990
   18.64388847  115.69300079    1.36000001    2.59999990
   18.64722252  115.28199768    1.25000000    2.59999990
   18.65027809  111.03500366    1.25000000    2.59999990
   18.65638924  111.03500366    1.23000002    2.59999990
   18.66055489  114.06600189    1.25000000    2.57999992
   18.66388893  117.55100250    1.23000002    2.59999990
   18.66694450  117.82099915    1.28999996    2.59999990
   18.66860962  119.79499817    1.30999994    2.59999990
   18.67083359  116.41899872    1.25000000    2.59999990
   18.67388916  122.88500214    1.21000004    2.59999990
   18.67722130  128.30900574    1.14999998    2.59999990
   18.68027687  120.15599823    1.16999996    2.59999990
   18.68361092  118.98899841    1.13000000    2.59999990
   18.68694305  118.59200287    1.11000001    2.59999990
   18.68999863  114.72499847    1.16999996    2.59999990
   18.69333267  119.38400269    1.13000000    2.57999992
   18.69944382  119.38400269    1.09000003    2.59999990
   18.70333481  117.76000214    1.13000000    2.57999992
   18.70666695  118.17400360    1.11000001    2.59999990
   18.71000099  119.06700134    1.11000001    2.59999990
   18.71305656  114.75099945    1.16999996    2.59999990
   18.71638870  119.24299622    1.16999996    2.57999992
   18.71972275  123.97200012    1.25000000    2.59999990
   18.72277832  116.88400269    1.26999998    2.57999992
   18.72611237  122.68699646    1.34000003    2.59999990
   18.72916794  118.29000092    1.39999998    2.59999990
   18.73250008  128.73800659    1.39999998    2.59999990
   18.73527718  121.05799866    1.50000000    2.57999992
   18.73583412  120.98300171    1.50000000    2.57999992
   18.74222183  120.98300171    1.60000002    2.57999992
   18.74638939  120.10600281    1.64999998    2.57999992
   18.74944496  119.76000214    1.64999998    2.57999992
   18.75277710  123.18099976    1.66999996    2.57999992
   18.75611115  123.56800079    1.64999998    2.57999992
   18.75916672  130.21499634    1.64999998    2.59999990
   18.76250076  114.83499908    1.60000002    2.57999992
   18.76555634  126.76799774    1.48000002    2.57999992
   18.76861000  113.78399658    1.44000006    2.57999992
   18.76916695  121.80500031    1.46000004    2.57999992
   18.77249908  123.68699646    1.48000002    2.57999992
   18.77583313  123.37899780    1.34000003    2.57999992
   18.77888870  123.03800201    1.30999994    2.57999992
   18.78499985  123.03800201    1.26999998    2.57999992
   18.78916550  124.20099640    1.38000000    2.57999992
   18.79249954  120.80699921    1.46000004    2.57999992
   18.79555511  122.86299896    1.58000004    2.57999992
   18.79888916  117.87500000    1.58000004    2.57999992
   18.80194283  120.05200195    1.66999996    2.57999992
   18.80249977  119.41300201    1.66999996    2.57999992
   18.80583191  121.31600189    1.69000006    2.57999992
   18.80916595  113.48600006    1.66999996    2.57999992
   18.81222153  120.71900177    1.63000000    2.57999992
   18.81555557  116.51200104    1.66999996    2.57999992
   18.81888962  117.91400146    1.53999996    2.57999992
   18.82194519  119.36100006    1.55999994    2.57999992
   18.82777786  119.36100006    1.63000000    2.57999992
   18.83194542  120.63300323    1.63000000    2.57999992
   18.83527756  119.69300079    1.71000004    2.57999992
   18.83555603  112.90599823    1.75000000    2.57999992
   18.83889008  118.13300323    1.66999996    2.57999992
   18.84222221  117.73600006    1.55999994    2.57999992
   18.84527779  113.69000244    1.51999998    2.57999992
   18.84861183  117.52400208    1.51999998    2.57999992
   18.85194397  114.20200348    1.53999996    2.55999994
   18.85499954  115.25000000    1.51999998    2.55999994
   18.85833359  118.25900269    1.38000000    2.57999992
   18.86166763  112.49299622    1.38000000    2.57999992
   18.86472321  115.03800201    1.38000000    2.57999992
   18.87083435  115.03800201    1.44000006    2.55999994
   18.87472153  112.25800323    1.53999996    2.57999992
   18.87805557  116.29799652    1.48000002    2.55999994
   18.88138962  114.91300201    1.48000002    2.55999994
   18.88444519  117.02500153    1.50000000    2.57999992
   18.88777733  109.91799927    1.58000004    2.57999992
   18.89111137  111.21199799    1.64999998    2.57999992
   18.89416695  115.15699768    1.69000006    2.57999992
   18.89749908  115.57599640    1.73000002    2.57999992
   18.90083313  115.22699738    2.03999996    2.55999994
   18.90194321  113.72200012    2.00000000    2.55999994
   18.90444374  113.31800079    1.94000006    2.55999994
   18.90749931  115.79699707    1.83000004    2.55999994
   18.91361046  115.79699707    1.88000000    2.57999992
   18.91777802  111.25399780    1.85000002    2.57999992
   18.92083359  114.55300140    1.88000000    2.55999994
   18.92416573  114.91300201    1.88000000    2.55999994
   18.92749977  118.33300018    1.91999996    2.57999992
   18.93055534  118.68499756    1.88000000    2.55999994
   18.93388748  116.66500092    1.83000004    2.55999994
   18.93527603  112.65000153    1.83000004    2.55999994
   18.93750000  116.80699921    1.76999998    2.55999994
   18.94055557  109.10600281    1.76999998    2.55999994
   18.94388771  115.23699951    1.73000002    2.55999994
   18.94722176  110.76999664    1.73000002    2.55999994
   18.95027924  110.91300201    1.75000000    2.55999994
   18.95639038  110.91300201    1.73000002    2.55999994
   18.96055603  115.04299927    1.71000004    2.55999994
   18.96389008  115.46700287    1.75000000    2.55999994
   18.96694565  109.91400146    1.69000006    2.55999994
   18.96888924  113.16200256    1.69000006    2.55999994
   18.97055626  116.32399750    1.71000004    2.55999994
   18.97389030  117.50800323    1.73000002    2.55999994
   18.97722244  114.86699677    1.73000002    2.55999994
   18.98027802  112.98300171    1.76999998    2.55999994
   18.98361206  118.41300201    1.78999996    2.55999994
   18.98666763  117.33999634    1.80999994    2.55999994
   18.98999977  117.34700012    1.94000006    2.55999994
   18.99333382  113.99199677    1.96000004    2.55999994
   18.99916649  113.99199677    2.03999996    2.55999994
   19.00333405  115.82099915    1.98000002    2.55999994
   19.00666618  114.46800232    1.98000002    2.55999994
   19.00972176  111.14700317    1.96000004    2.55999994
   19.01305580  114.59300232    2.01999998    2.55999994
   19.01638794  111.79100037    1.94000006    2.55999994
   19.01944351  114.95500183    1.94000006    2.55999994
   19.02277756  111.42199707    1.96000004    2.55999994
   19.02611160  111.99199677    1.96000004    2.55999994
   19.02916718  113.05400085    1.96000004    2.55999994
   19.03249931  112.90000153    1.89999998    2.55999994
   19.03555489  112.41300201    1.89999998    2.55999994
   19.03583336  107.99800110    1.89999998    2.55999994
   19.04222107  107.99800110    1.98000002    2.55999994
   19.04611015  115.82599640    1.98000002    2.55999994
   19.04944420  114.55200195    2.01999998    2.55999994
   19.05277634  110.19400024    1.91999996    2.55999994
   19.05611038  113.31199646    1.91999996    2.55999994
   19.05916595  115.90100098    1.89999998    2.55999994
   19.06250000  117.28600311    1.91999996    2.55999994
   19.06555557  114.53099823    1.89999998    2.55999994
   19.06888962  114.35700226    1.85000002    2.55999994
   19.06916809  114.21499634    1.88000000    2.55999994
   19.07250023  116.59600067    1.94000006    2.55999994
   19.07583427  117.12899780    1.91999996    2.53999996
   19.07888985  115.41600037    1.89999998    2.55999994
   19.08500099  115.41600037    2.00000000    2.53999996
   19.08916664  112.68399811    1.78999996    2.55999994
   19.09222221  118.04799652    1.66999996    2.55999994
   19.09555626  114.88500214    1.64999998    2.55999994
   19.09889030  113.62799835    1.58000004    2.55999994
   19.10194397  113.95700073    1.55999994    2.55999994
   19.10250092  111.27500153    1.55999994    2.55999994
   19.10583305  111.91400146    1.50000000    2.55999994
   19.10888863  110.12000275    1.50000000    2.55999994
   19.11222267  114.06500244    1.63000000    2.55999994
   19.11555672  113.11900330    1.58000004    2.55999994
   19.11861038  114.48200226    1.53999996    2.53999996
   19.12194443  112.50800323    1.48000002    2.55999994
   19.12777710  112.50800323    1.41999996    2.53999996
   19.13194466  114.87799835    1.48000002    2.55999994
   19.13527679  114.63999939    1.50000000    2.55999994
   19.13583374  113.56900024    1.50000000    2.55999994
   19.13888931  113.22200012    1.50000000    2.53999996
   19.14194489  117.29900360    1.50000000    2.53999996
   19.14527702  116.66799927    1.51999998    2.55999994
   19.14833260  112.10800171    1.60000002    2.55999994
   19.15166664  115.11799622    1.60000002    2.53999996
   19.15499878  111.77799988    1.61000001    2.53999996
   19.15805435  114.39900208    1.66999996    2.53999996
   19.16138840  114.35199738    1.71000004    2.55999994
   19.16472244  112.27700043    1.94000006    2.53999996
   19.17055511  112.27700043    2.34999990    2.53999996
   19.17472076  122.07900238    2.34999990    2.53999996
   19.17805481  113.03800201    2.03999996    2.53999996
   19.18111038  114.09100342    1.85000002    2.53999996
   19.18444443  111.15200043    1.78999996    2.55999994
   19.18777657  118.51000214    1.76999998    2.53999996
   19.19083214  116.55000305    1.78999996    2.53999996
   19.19416618  114.29199982    1.78999996    2.53999996
   19.19722176  116.39600372    1.83000004    2.55999994
   19.20055580  112.19100189    1.89999998    2.55999994
   19.20250130  113.72000122    1.85000002    2.55999994
   19.20416832  114.93499756    1.89999998    2.53999996
   19.20722389  113.84700012    1.85000002    2.53999996
   19.21333504  113.84700012    1.80999994    2.53999996
   19.21750069  113.88999939    1.83000004    2.55999994
   19.22083473  115.62300110    1.83000004    2.55999994
   19.22416687  117.85500336    1.58000004    2.53999996
   19.22750092  115.47299957    1.41999996    2.53999996
   19.23055649  113.83499908    1.38000000    2.53999996
   19.23388863  114.73200226    1.36000001    2.53999996
   19.23583412  118.46900177    1.38000000    2.53999996
   19.23750114  112.96299744    1.36000001    2.53999996
   19.24055672  118.98999786    1.41999996    2.53999996
   19.24388885  116.27200317    1.39999998    2.53999996
   19.24722290  120.16699982    1.41999996    2.53999996
   19.25027847  115.52100372    1.41999996    2.53999996
   19.25638962  115.52100372    1.41999996    2.53999996
   19.26055527  118.30599976    1.44000006    2.53999996
   19.26361084  115.09100342    1.44000006    2.53999996
   19.26694489  116.97499847    1.50000000    2.53999996
   19.26916695  119.63500214    1.50000000    2.53999996
   19.27055550  112.99900055    1.50000000    2.53999996
   19.27361107  118.73000336    1.51999998    2.53999996
   19.27694511  113.00900269    1.55999994    2.53999996
   19.28027725  117.71199799    1.58000004    2.51999998
   19.28333282  115.03800201    1.58000004    2.51999998
   19.28666687  116.80599976    1.58000004    2.53999996
   19.28972244  121.85500336    1.53999996    2.53999996
   19.29305458  116.19000244    1.48000002    2.53999996
   19.29916573  116.19000244    1.51999998    2.53999996
   19.30333328  115.71199799    1.51999998    2.51999998
   19.30666542  114.69499969    1.51999998    2.51999998
   19.30972099  116.86299896    1.55999994    2.53999996
   19.31305504  113.96399689    1.58000004    2.51999998
   19.31638718  121.42600250    1.63000000    2.53999996
   19.31944466  117.10600281    1.66999996    2.53999996
   19.32277870  118.51999664    1.69000006    2.51999998
   19.32583427  116.81099701    1.69000006    2.51999998
   19.32916832  117.00399780    1.69000006    2.51999998
   19.33250046  116.45800018    1.76999998    2.51999998
   19.33555603  119.96399689    1.73000002    2.51999998
   19.33611107  116.30200195    1.73000002    2.51999998
   19.34194565  116.30200195    1.76999998    2.51999998
   19.34611130  116.83699799    1.71000004    2.51999998
   19.34944534  115.18900299    1.55999994    2.53999996
   19.35250092  114.81800079    1.55999994    2.53999996
   19.35583305  116.36799622    1.55999994    2.53999996
   19.35916710  115.65100098    1.58000004    2.51999998
   19.36222267  114.30799866    1.58000004    2.51999998
   19.36555672  114.55999756    1.58000004    2.51999998
   19.36888885  110.46600342    1.58000004    2.51999998
   19.36944389  115.47599792    1.58000004    2.51999998
   19.37249947  115.72399902    1.60000002    2.53999996
   19.37555504  112.12799835    1.55999994    2.51999998
   19.37888908  113.51599884    1.64999998    2.51999998
   19.38500023  113.51599884    1.71000004    2.51999998
   19.38888931  114.39199829    2.00000000    2.51999998
   19.39222145  116.28500366    1.80999994    2.51999998
   19.39555550  116.10600281    1.76999998    2.51999998
   19.39861107  119.54599762    1.75000000    2.51999998
   19.40194321  116.80100250    1.63000000    2.51999998
   19.40277672  121.09999847    1.55999994    2.51999998
   19.40555573  115.37599945    1.61000001    2.51999998
   19.40861130  115.50700378    1.64999998    2.51999998
   19.41194344  113.54699707    1.64999998    2.51999998
   19.41527748  115.39199829    1.55999994    2.51999998
   19.41833305  114.29499817    1.53999996    2.51999998
   19.42166519  114.64099884    1.55999994    2.51999998
   19.42777634  114.64099884    1.51999998    2.51999998
   19.43194389  118.07900238    1.50000000    2.51999998
   19.43499947  115.93599701    1.51999998    2.51999998
   19.43610954  116.67600250    1.51999998    2.51999998
   19.43861008  119.21800232    1.51999998    2.51999998
   19.44166565  115.45800018    1.61000001    2.51999998
   19.44499969  114.31099701    1.55999994    2.51999998
   19.44833183  114.05799866    1.63000000    2.51999998
   19.45138931  116.92800140    1.58000004    2.51999998
   19.45472336  114.99400330    1.61000001    2.50000000
   19.45777893  117.19499969    1.61000001    2.51999998
   19.46111107  116.03800201    1.60000002    2.51999998
   19.46444511  114.59600067    1.71000004    2.50000000
   19.47055626  114.59600067    1.75000000    2.51999998
   19.47472191  115.27300262    1.76999998    2.51999998
   19.47777748  115.90599823    1.86000001    2.50000000
   19.48111153  114.44799805    1.83000004    2.50000000
   19.48444557  114.91600037    1.85000002    2.50000000
   19.48750114  114.21800232    1.85000002    2.50000000
   19.49083328  113.37799835    1.80999994    2.50000000
   19.49416733  117.95099640    1.83000004    2.51999998
   19.49722290  113.46800232    1.86000001    2.50000000
   19.50055504  113.21199799    1.83000004    2.50000000
   19.50277710  115.69899750    1.80999994    2.51999998
   19.50416756  113.06199646    1.80999994    2.51999998
   19.50722313  120.06500244    1.76999998    2.51999998
   19.51333427  120.06500244    1.78999996    2.50000000
   19.51749992  122.46099854    1.83000004    2.50000000
   19.52083397  123.38400269    1.85000002    2.50000000
   19.52388954  118.93000031    1.85000002    2.50000000
   19.52722168  117.90699768    1.85000002    2.50000000
   19.53027725  117.96700287    1.86000001    2.50000000
   19.53361130  119.80100250    1.86000001    2.50000000
   19.53610992  115.54000092    1.88000000    2.50000000
   19.53722191  122.99600220    1.88000000    2.50000000
   19.54027748  117.40299988    1.98000002    2.50000000
   19.54361153  120.27999878    1.94000006    2.51999998
   19.54694366  117.80300140    1.89999998    2.50000000
   19.54999924  129.66999817    1.89999998    2.50000000
   19.55611038  129.66999817    1.88000000    2.50000000
   19.56027794  117.41999817    1.94000006    2.50000000
   19.56361008  116.71099854    1.86000001    2.50000000
   19.56694603  117.61499786    1.83000004    2.50000000
   19.58444595  115.29000092    1.76999998    2.48000002
   19.58666801  115.57199860    1.78999996    2.48000002
   19.59000015  118.52400208    1.71000004    2.50000000
   19.59333420  115.70300293    1.69000006    2.50000000
   19.59916687  115.70300293    1.64999998    2.50000000
   19.60333443  123.12300110    1.71000004    2.48000002
   19.60666656  117.74400330    1.66999996    2.50000000
   19.60972214  116.30899811    1.66999996    2.50000000
   19.61305618  118.52999878    1.71000004    2.50000000
   19.61611176  119.96099854    1.83000004    2.50000000
   19.61777878  121.77300262    1.83000004    2.50000000
   19.61972237  120.97100067    1.76999998    2.50000000
   19.62305641  120.46600342    1.88000000    2.50000000
   19.62638855  116.89800262    1.96000004    2.48000002
   19.62944412  118.62999725    2.00000000    2.48000002
   19.63277817  127.73000336    1.80999994    2.48000002
   19.63583374  120.07399750    1.91999996    2.48000002
   19.64194489  120.07399750    2.05999994    2.48000002
   19.64611053  116.95500183    1.98000002    2.48000002
   19.64944458  120.81800079    2.00000000    2.48000002
   19.65111160  117.30699921    1.94000006    2.48000002
   19.65305519  119.73400116    1.91999996    2.48000002
   19.65638924  124.30300140    1.88000000    2.48000002
   19.65944481  116.94999695    1.89999998    2.48000002
   19.66277695  122.68199921    1.86000001    2.48000002
   19.66611099  121.74500275    1.89999998    2.48000002
   19.66944313  114.65599823    1.91999996    2.48000002
   19.67249870  119.48899841    1.96000004    2.48000002
   19.67583275  119.06999969    2.05999994    2.48000002
   19.67916679  119.18800354    2.15000010    2.48000002
   19.68499947  119.18800354    2.09999990    2.46000004
   19.68916512  115.75700378    2.05999994    2.48000002
   19.69222069  117.47100067    2.05999994    2.48000002
   19.69555473  115.87500000    1.91999996    2.48000002
   19.69861031  121.50499725    1.80999994    2.48000002
   19.70194435  119.71900177    1.80999994    2.48000002
   19.70527840  119.83000183    1.83000004    2.48000002
   19.70833397  119.31600189    1.91999996    2.48000002
   19.71166801  116.47000122    1.91999996    2.48000002
   19.71500015  120.48300171    1.88000000    2.48000002
   19.71777916  117.18900299    1.78999996    2.48000002
   19.71833420  121.56900024    1.78999996    2.48000002
   19.72166634  117.77899933    1.78999996    2.48000002
   19.72777748  117.77899933    1.85000002    2.48000002
   19.73194504  120.51300049    1.85000002    2.46000004
   19.73527718  117.43699646    1.83000004    2.46000004
   19.73833275  119.43699646    1.85000002    2.46000004
   19.74166679  117.04000092    1.85000002    2.46000004
   19.74472237  116.62699890    1.86000001    2.48000002
   19.74805641  114.27899933    1.88000000    2.46000004
   19.75111198  118.99500275    1.89999998    2.48000002
   19.75166702  119.23100281    1.89999998    2.48000002
   19.75499916  117.01300049    1.88000000    2.46000004
   19.75805473  120.84600067    1.86000001    2.46000004
   19.76138878  118.32700348    1.85000002    2.46000004
   19.76472282  125.81900024    1.86000001    2.46000004
