    HOUR (UT)   FLARE FACTOR    SKY TESTER    SUN TESTER
   11.24638939   -1.00000000   -1.00000000   -1.00000000
   11.26611137  185.34700012    3.68000007    2.01999998
   11.27166653  193.88699341    3.66000009    2.01999998
   11.27472210  196.42599487    3.64000010    2.01999998
   11.27805519  202.02200317    3.64000010    2.01999998
   11.28138828  191.87899780    3.61999989    2.03999996
   11.28444481  188.22099304    3.59999990    2.01999998
   11.28777790  200.75399780    3.57999992    2.03999996
   11.29111195  195.05999756    3.55999994    2.03999996
   11.29416752  203.12100220    3.55999994    2.03999996
   11.29750061  206.90499878    3.53999996    2.03999996
   11.29944515  204.51199341    3.51999998    2.03999996
   11.30111122  193.52999878    3.51999998    2.03999996
   11.30416679  212.03500366    3.51999998    2.05999994
   11.30749989  207.30999756    3.50000000    2.05999994
   11.31083393  201.62899780    3.48000002    2.05999994
   11.31388950  211.15400696    3.46000004    2.05999994
   11.31722260  198.61099243    3.46000004    2.05999994
   11.32055569  235.19999695    3.45000005    2.05999994
   11.32361126  205.76100159    3.43000007    2.05999994
   11.32694435  207.34199524    3.43000007    2.05999994
   11.32999992  193.44099426    3.41000009    2.07999992
   11.33277798  198.94700623    3.41000009    2.07999992
   11.33388901  199.00599670    3.41000009    2.07999992
   11.33694458  204.79800415    3.39000010    2.09999990
   11.34027767  224.53100586    3.39000010    2.07999992
   11.34361076  198.79299927    3.36999989    2.09999990
   11.34666634  206.34300232    3.34999990    2.09999990
   11.35000038  199.50599670    3.34999990    2.09999990
   11.35333347  198.86199951    3.32999992    2.09999990
   11.35638905  195.90800476    3.32999992    2.09999990
   11.35972214  199.97500610    3.30999994    2.09999990
   11.36305618  202.67599487    3.28999996    2.09999990
   11.36611176  195.62899780    3.28999996    2.11999989
   11.36666679  208.96699524    3.28999996    2.09999990
   11.36972237  204.39100647    3.26999998    2.09999990
   11.37305546  206.59599304    3.26999998    2.11999989
   11.37638855  195.88200378    3.26999998    2.11999989
   11.37944412  208.43200684    3.26999998    2.11999989
   11.38277817  190.83799744    3.26999998    2.11999989
   11.38611126  206.61599731    3.25000000    2.13000011
   11.38916683  192.38099670    3.25000000    2.13000011
   11.39249992  204.66099548    3.25000000    2.13000011
   11.39555550  199.62899780    3.25000000    2.13000011
   11.39888859  210.53300476    3.23000002    2.13000011
   11.39944458  201.23800659    3.23000002    2.13000011
   11.40249920  198.85299683    3.23000002    2.13000011
   11.40555477  188.43099976    3.21000004    2.13000011
   11.40888882  201.68299866    3.21000004    2.15000010
   11.41222191  199.24099731    3.20000005    2.15000010
   11.41527748  184.52299500    3.18000007    2.13000011
   11.41861153  191.82000732    3.18000007    2.13000011
   11.42166710  186.63099670    3.16000009    2.13000011
   11.42500019  190.58500671    3.16000009    2.15000010
   11.42833328  182.01899719    3.16000009    2.15000010
   11.43138885  185.16200256    3.16000009    2.15000010
   11.43277836  195.46200562    3.16000009    2.15000010
   11.43500042  202.24099731    3.14000010    2.15000010
   11.43805599  190.02499390    3.14000010    2.15000010
   11.44138908  189.83000183    3.11999989    2.17000008
   11.44472218  176.59599304    3.09999990    2.17000008
   11.44777775  201.83299255    3.07999992    2.17000008
   11.45111084  192.33399963    3.05999994    2.17000008
   11.45444393  200.16600037    3.03999996    2.17000008
   11.45749950  204.94400024    3.03999996    2.17000008
   11.46083355  209.25999451    3.01999998    2.17000008
   11.46388912  194.94599915    3.00000000    2.17000008
   11.46611118  202.76300049    3.00000000    2.17000008
   11.46777725  196.39599609    3.00000000    2.17000008
   11.47083282  186.21699524    2.96000004    2.17000008
   11.47416592  188.11300659    2.94000006    2.17000008
   11.47749996  201.52600098    2.94000006    2.19000006
   11.48055553  201.96400452    2.93000007    2.19000006
   11.48388958  198.43200684    2.91000009    2.19000006
   11.48722267  203.05400085    2.91000009    2.19000006
   11.49027824  196.51899719    2.91000009    2.21000004
   11.49361134  183.92199707    2.89000010    2.21000004
   11.49666691  188.08700562    2.89000010    2.21000004
   11.49944496  193.07899475    2.86999989    2.21000004
   11.50055599  183.97900391    2.86999989    2.21000004
   11.50361156  188.80499268    2.86999989    2.21000004
   11.50694466  181.53900146    2.86999989    2.21000004
   11.51027775  186.49699402    2.86999989    2.21000004
   11.51333332  195.90199280    2.84999990    2.21000004
   11.51666641  179.98800659    2.84999990    2.21000004
   11.51999950  185.06900024    2.82999992    2.21000004
   11.52305508  177.63699341    2.82999992    2.21000004
   11.52638817  189.89500427    2.80999994    2.23000002
   11.52944374  184.23300171    2.80999994    2.23000002
   11.53277779  186.15899658    2.80999994    2.21000004
   11.53333378  194.74200439    2.80999994    2.21000004
   11.53638935  198.84700012    2.80999994    2.21000004
   11.53972244  186.04600525    2.80999994    2.23000002
   11.54305553  196.19000244    2.80999994    2.23000002
   11.54611111  198.49600220    2.80999994    2.23000002
   11.54944515  198.64300537    2.80999994    2.23000002
   11.55249977  199.94200134    2.80999994    2.23000002
   11.55583382  189.60000610    2.80999994    2.25000000
   11.55916691  195.83599854    2.80999994    2.25000000
   11.56222248  200.30799866    2.80999994    2.25000000
   11.56555557  206.78999329    2.80999994    2.25000000
   11.56611156  192.13000488    2.80999994    2.25000000
   11.56916618  188.61799622    2.80999994    2.25000000
   11.57222176  196.71200562    2.78999996    2.25000000
   11.57555580  188.37300110    2.78999996    2.25000000
   11.57888889  196.46099854    2.78999996    2.25000000
   11.58194447  184.28900146    2.78999996    2.26999998
   11.58527756  192.23899841    2.78999996    2.26999998
   11.58861065  193.89199829    2.78999996    2.25000000
   11.59166622  187.86500549    2.78999996    2.25000000
   11.59499931  186.11500549    2.78999996    2.25000000
   11.59833336  178.93400574    2.78999996    2.25000000
   11.59944439  196.83500671    2.78999996    2.25000000
   11.60222244  187.77600098    2.78999996    2.25000000
   11.60555553  185.53700256    2.78999996    2.26999998
   11.60861111  192.55700684    2.78999996    2.26999998
   11.61194515  172.89700317    2.78999996    2.26999998
   11.61500072  181.64799500    2.78999996    2.26999998
   11.61833382  183.96000671    2.78999996    2.26999998
   11.62166691  181.46200562    2.76999998    2.28999996
   11.62472248  185.96699524    2.76999998    2.26999998
   11.62805557  184.66600037    2.75000000    2.28999996
   11.63138866  187.11799622    2.75000000    2.28999996
   11.63277817  190.38800049    2.75000000    2.28999996
   11.63500023  188.30200195    2.73000002    2.26999998
   11.63833332  188.44900513    2.73000002    2.28999996
   11.64138889  195.98599243    2.73000002    2.28999996
   11.64472198  184.78700256    2.71000004    2.28999996
   11.64777756  189.74099731    2.71000004    2.28999996
   11.65111065  192.12199402    2.71000004    2.28999996
   11.65444374  186.84199524    2.71000004    2.28999996
   11.65749931  190.39599609    2.69000006    2.28999996
   11.66083336  190.11700439    2.69000006    2.28999996
   11.66416645  184.88699341    2.69000006    2.28999996
   11.66611099  180.92100525    2.69000006    2.28999996
   11.66777802  191.51400757    2.69000006    2.28999996
   11.67111111  185.71000671    2.69000006    2.28999996
   11.67416668  180.05200195    2.67000008    2.30999994
   11.67750072  186.19799805    2.66000009    2.30999994
   11.68083382  179.15299988    2.66000009    2.30999994
   11.68388939  190.63800049    2.66000009    2.30999994
   11.68722248  183.98699951    2.66000009    2.30999994
   11.69027805  184.19500732    2.67000008    2.30999994
   11.69361115  197.04100037    2.66000009    2.30999994
   11.69694424  192.12600708    2.66000009    2.30999994
   11.69944477  178.14399719    2.66000009    2.32999992
   11.70055580  181.01600647    2.66000009    2.32999992
   11.70388889  178.15199280    2.66000009    2.30999994
   11.70694447  181.21699524    2.67000008    2.32999992
   11.71027756  181.58000183    2.69000006    2.32999992
   11.71361065  191.16499329    2.67000008    2.32999992
   11.71666622  180.36999512    2.67000008    2.32999992
   11.71999931  183.09700012    2.67000008    2.32999992
   11.72305489  186.66299438    2.67000008    2.32999992
   11.72638798  177.51499939    2.67000008    2.32999992
   11.72972202  181.48500061    2.67000008    2.32999992
   11.73277760  181.69900513    2.69000006    2.32999992
   11.73333359  190.76699829    2.69000006    2.32999992
   11.73638916  191.18200684    2.69000006    2.32999992
   11.73972225  182.88900757    2.69000006    2.32999992
   11.74305534  181.27000427    2.69000006    2.32999992
   11.74611092  167.42900085    2.71000004    2.34999990
   11.74944496  188.86199951    2.71000004    2.34999990
   11.75277805  177.58500671    2.71000004    2.32999992
   11.75583363  183.60000610    2.71000004    2.34999990
   11.75916672  175.83799744    2.71000004    2.32999992
   11.76222229  166.11599731    2.71000004    2.34999990
   11.76555538  183.96200562    2.69000006    2.32999992
   11.76611137  178.85099792    2.69000006    2.32999992
   11.76916599  162.58900452    2.69000006    2.32999992
   11.77250004  175.43899536    2.67000008    2.34999990
   11.77555561  167.75199890    2.66000009    2.34999990
   11.77888870  177.00399780    2.64000010    2.34999990
   11.78194427  172.33399963    2.64000010    2.34999990
   11.78527832  179.93200684    2.59999990    2.36999989
   11.78861141  183.38400269    2.57999992    2.36999989
   11.79166698  181.81100464    2.57999992    2.36999989
   11.79500008  176.37500000    2.55999994    2.36999989
   11.79833412  184.58500671    2.53999996    2.34999990
   11.79944515  171.87399292    2.53999996    2.36999989
   11.80194473  179.90499878    2.51999998    2.36999989
   11.80527782  180.07899475    2.51999998    2.36999989
   11.80833340  174.91099548    2.50000000    2.36999989
   11.81166649  180.35299683    2.48000002    2.36999989
   11.81472206  182.04800415    2.48000002    2.36999989
   11.81805515  182.27900696    2.48000002    2.36999989
   11.82138920  174.24000549    2.46000004    2.36999989
   11.82444477  178.65299988    2.44000006    2.36999989
   11.82777786  175.00300598    2.42000008    2.39000010
   11.83111095  179.00999451    2.42000008    2.36999989
   11.83277798  176.40299988    2.40000010    2.39000010
   11.83472157  179.12199402    2.40000010    2.39000010
   11.83805561  177.80400085    2.39000010    2.39000010
   11.84111118  183.83500671    2.36999989    2.39000010
   11.84444427  177.18400574    2.34999990    2.39000010
   11.84749985  181.30599976    2.30999994    2.39000010
   11.85083389  167.81399536    2.28999996    2.39000010
   11.85416698  174.88299561    2.28999996    2.40000010
   11.85722256  166.10699463    2.28999996    2.40000010
   11.86055565  174.11900330    2.26999998    2.39000010
   11.86388969  167.44599915    2.25000000    2.40000010
   11.86611176  165.75300598    2.25000000    2.40000010
   11.86750031  170.58500671    2.25000000    2.40000010
   11.87083340  173.27900696    2.23000002    2.40000010
   11.87388897  169.66900635    2.23000002    2.40000010
   11.87722206  165.44200134    2.23000002    2.40000010
   11.88027763  164.72300720    2.21000004    2.40000010
   11.88361073  174.31799316    2.19000006    2.40000010
   11.88694477  165.57600403    2.17000008    2.40000010
   11.89000034  167.13699341    2.17000008    2.40000010
   11.89333344  171.42999268    2.15000010    2.42000008
   11.89666653  170.92100525    2.15000010    2.42000008
   11.89944458  179.04100037    2.13000011    2.40000010
   11.90027714  170.04400635    2.13000011    2.40000010
   11.90361118  187.22399902    2.13000011    2.40000010
   11.90666676  170.52200317    2.11999989    2.42000008
   11.90999985  172.04299927    2.11999989    2.40000010
   11.91305542  170.80700684    2.09999990    2.42000008
   11.91638851  161.97700500    2.11999989    2.42000008
   11.91972256  171.01899719    2.11999989    2.42000008
   11.92277813  173.79200745    2.09999990    2.42000008
   11.92611122  171.78399658    2.09999990    2.42000008
   11.92944431  172.27600098    2.09999990    2.42000008
   11.93249989  164.16900635    2.09999990    2.42000008
   11.93305588  159.55999756    2.09999990    2.42000008
   11.93638897  157.20199585    2.07999992    2.44000006
   11.93944454  162.06599426    2.07999992    2.44000006
   11.94277763  161.21899414    2.07999992    2.44000006
   11.94583321  159.90600586    2.09999990    2.44000006
   11.94916630  163.91499329    2.09999990    2.44000006
   11.95249939  169.14199829    2.07999992    2.44000006
   11.95555496  165.90600586    2.07999992    2.44000006
   11.95888901  168.88099670    2.07999992    2.44000006
   11.96222210  162.62100220    2.09999990    2.44000006
   11.96527767  167.81599426    2.09999990    2.44000006
   11.96638870  171.27799988    2.09999990    2.44000006
   11.96888828  169.07600403    2.09999990    2.44000006
   11.97194386  170.29200745    2.09999990    2.44000006
   11.97527695  164.68600464    2.11999989    2.44000006
   11.97861099  171.38400269    2.11999989    2.44000006
   11.98166656  172.45700073    2.11999989    2.44000006
   11.98500061  171.54699707    2.11999989    2.44000006
   11.98805618  166.43099976    2.09999990    2.44000006
   11.99138927  168.09599304    2.11999989    2.44000006
   11.99472237  163.70100403    2.11999989    2.46000004
   11.99777794  166.17799377    2.11999989    2.44000006
   11.99972248  167.56900024    2.11999989    2.44000006
   12.00166702  170.30900574    2.11999989    2.46000004
   12.00472260  170.42500305    2.11999989    2.44000006
   12.00805569  174.52799988    2.11999989    2.44000006
   12.01138878  177.11099243    2.15000010    2.44000006
   12.01444435  180.11799622    2.15000010    2.44000006
   12.01777744  186.55900574    2.17000008    2.44000006
   12.02083302  175.33799744    2.15000010    2.44000006
   12.02416611  179.41299438    2.15000010    2.44000006
   12.02750015  169.05900574    2.13000011    2.46000004
   12.03055573  170.10499573    2.13000011    2.46000004
   12.03305531  166.01499939    2.13000011    2.46000004
   12.03444481  173.54499817    2.13000011    2.46000004
   12.03750038  166.64300537    2.11999989    2.46000004
   12.04083347  161.64500427    2.13000011    2.46000004
   12.04416752  172.35800171    2.09999990    2.46000004
   12.04722309  157.16200256    2.07999992    2.46000004
   12.05055618  178.31199646    2.07999992    2.46000004
   12.05388927  159.05499268    2.05999994    2.46000004
   12.05694485  163.42799377    2.03999996    2.46000004
   12.06027794  174.08900452    2.03999996    2.48000002
   12.06333351  167.65400696    2.03999996    2.48000002
   12.06638908  165.75900269    2.01999998    2.46000004
   12.06722260  166.38400269    2.01999998    2.48000002
   12.07027817  159.00100708    2.01999998    2.48000002
   12.07361126  170.73100281    2.00000000    2.48000002
   12.07694435  172.55599976    1.98000002    2.48000002
   12.07999992  167.60899353    1.98000002    2.48000002
   12.08333302  161.92300415    1.98000002    2.48000002
   12.08638859  166.16000366    1.96000004    2.48000002
   12.08972168  169.20399475    1.94000006    2.48000002
   12.09305477  159.69700623    1.94000006    2.48000002
   12.09611034  173.32200623    1.94000006    2.48000002
   12.09944439  165.23100281    1.94000006    2.48000002
   12.10000038  159.66600037    1.94000006    2.48000002
   12.10277843  159.04200745    1.91999996    2.50000000
   12.10611153  168.12600708    1.91999996    2.48000002
   12.10944462  166.95599365    1.91999996    2.48000002
   12.11250019  159.04499817    1.91999996    2.48000002
   12.11583328  174.08999634    1.88000000    2.48000002
   12.11888885  164.57699585    1.88000000    2.48000002
   12.12222195  169.37800598    1.86000001    2.50000000
   12.12555599  165.48399353    1.86000001    2.48000002
   12.12861156  163.53599548    1.86000001    2.50000000
   12.13194466  169.23699951    1.85000002    2.48000002
   12.13333321  154.63099670    1.85000002    2.50000000
   12.13555527  162.72599792    1.85000002    2.50000000
   12.13888836  167.05900574    1.85000002    2.50000000
   12.14222240  163.75000000    1.85000002    2.50000000
   12.14527798  172.38299561    1.83000004    2.50000000
   12.14861107  169.58700562    1.83000004    2.50000000
   12.15166664  159.80400085    1.85000002    2.50000000
   12.15499973  158.51300049    1.85000002    2.50000000
   12.15833282  163.52699280    1.85000002    2.51999998
   12.16138840  165.73599243    1.85000002    2.50000000
   12.16472149  161.07200623    1.85000002    2.50000000
   12.16666698  167.53300476    1.85000002    2.50000000
   12.16833401  170.49400330    1.85000002    2.50000000
   12.17166710  166.40199280    1.83000004    2.51999998
   12.17500019  169.38000488    1.83000004    2.51999998
   12.17805576  170.44999695    1.83000004    2.50000000
   12.18138885  158.13900757    1.83000004    2.51999998
   12.18472195  161.86900330    1.83000004    2.51999998
   12.18777752  163.17599487    1.80999994    2.51999998
   12.19111156  156.87300110    1.83000004    2.51999998
   12.19416714  158.75100708    1.83000004    2.51999998
   12.19750023  157.15600586    1.83000004    2.51999998
   12.19999981  163.09100342    1.83000004    2.51999998
   12.20111084  173.02200317    1.83000004    2.51999998
   12.20444393  163.76600647    1.83000004    2.51999998
   12.20777798  171.49400330    1.83000004    2.51999998
   12.21083355  155.44900513    1.85000002    2.51999998
   12.21416664  169.96400452    1.86000001    2.51999998
   12.21749973  164.88299561    1.86000001    2.51999998
   12.22055531  167.26800537    1.86000001    2.51999998
   12.22388840  161.32400513    1.86000001    2.51999998
   12.22694397  170.46299744    1.86000001    2.51999998
   12.23027706  155.22799683    1.85000002    2.51999998
   12.23333359  160.67999268    1.83000004    2.51999998
   12.23388958  167.33700562    1.83000004    2.51999998
   12.23722267  154.99400330    1.85000002    2.51999998
   12.24055576  163.89100647    1.85000002    2.51999998
   12.24361134  165.33299255    1.86000001    2.51999998
   12.24694443  159.02000427    1.86000001    2.51999998
   12.25000000  163.43400574    1.86000001    2.51999998
   12.25333309  167.21299744    1.86000001    2.51999998
   12.25666714  164.53900146    1.85000002    2.51999998
   12.25972176  170.50300598    1.83000004    2.51999998
   12.26305580  163.54299927    1.80999994    2.51999998
   12.26638889  165.95500183    1.78999996    2.53999996
   12.28333378  167.17399597    1.71000004    2.53999996
   12.28638935  164.14900208    1.71000004    2.53999996
   12.28972244  164.35699463    1.71000004    2.53999996
   12.29305553  164.30000305    1.71000004    2.53999996
   12.29611111  171.30200195    1.69000006    2.53999996
   12.29944515  180.56799316    1.66999996    2.53999996
   12.30277824  163.07800293    1.64999998    2.55999994
   12.30583382  169.44299316    1.64999998    2.55999994
   12.30916691  164.57899475    1.64999998    2.53999996
   12.31222248  168.69400024    1.63000000    2.55999994
   12.31555557  168.25199890    1.63000000    2.55999994
   12.31638908  166.85600281    1.63000000    2.55999994
   12.31916618  167.49499512    1.61000001    2.55999994
   12.32250023  165.14999390    1.61000001    2.55999994
   12.32555580  170.19799805    1.61000001    2.55999994
   12.32888889  161.39199829    1.60000002    2.55999994
   12.33222198  160.55400085    1.58000004    2.55999994
   12.33527756  170.43600464    1.55999994    2.55999994
   12.33861065  167.50799561    1.55999994    2.55999994
   12.34166622  162.38900757    1.58000004    2.55999994
   12.34499931  169.82699585    1.55999994    2.55999994
   12.34833336  152.87399292    1.55999994    2.55999994
   12.34972191  173.90400696    1.55999994    2.55999994
   12.35194492  164.11799622    1.55999994    2.55999994
   12.35527802  163.99200439    1.55999994    2.55999994
   12.35833359  171.27200317    1.55999994    2.55999994
   12.36166668  161.74499512    1.53999996    2.55999994
   12.36500072  170.80700684    1.53999996    2.55999994
   12.36805534  193.72399902    1.53999996    2.57999992
   12.37138939  175.08099365    1.53999996    2.57999992
   12.37500000  176.28900146    1.53999996    2.57999992
   12.37805557  174.89700317    1.53999996    2.55999994
   12.38138866  168.59800720    1.51999998    2.57999992
   12.38305569  171.82000732    1.51999998    2.57999992
   12.38500023  164.18499756    1.51999998    2.57999992
   12.38833332  165.24600220    1.53999996    2.57999992
   12.39138889  168.32000732    1.53999996    2.57999992
   12.39472198  160.48300171    1.53999996    2.57999992
   12.39805508  162.72399902    1.53999996    2.57999992
   12.40111065  160.57400513    1.53999996    2.57999992
   12.40444374  182.62399292    1.53999996    2.55999994
   12.40749931  165.17900085    1.53999996    2.55999994
   12.41083336  160.91200256    1.53999996    2.57999992
   12.41416645  162.60800171    1.53999996    2.57999992
   12.41638851  164.98199463    1.53999996    2.59999990
   12.41777802  164.75700378    1.53999996    2.59999990
   12.42111111  159.45300293    1.51999998    2.57999992
   12.42416668  163.00599670    1.51999998    2.57999992
   12.42750072  167.06300354    1.51999998    2.57999992
   12.43083382  158.18099976    1.50000000    2.57999992
   12.43388939  160.12600708    1.50000000    2.57999992
   12.43722248  167.31700134    1.48000002    2.59999990
   12.44027805  159.53700256    1.48000002    2.57999992
   12.44388866  162.87500000    1.48000002    2.59999990
   12.44694424  162.72200012    1.48000002    2.59999990
   12.44972229  171.25799561    1.48000002    2.59999990
   12.45055580  161.70399475    1.48000002    2.59999990
   12.45388889  165.63600159    1.46000004    2.59999990
   12.45694447  178.91700745    1.46000004    2.59999990
   12.46055508  165.78100586    1.46000004    2.59999990
   12.46388912  159.58599854    1.46000004    2.59999990
   12.46694374  167.61900330    1.44000006    2.59999990
   12.47027779  162.37899780    1.44000006    2.59999990
   12.47361088  167.83700562    1.41999996    2.59999990
   12.47666645  167.64199829    1.41999996    2.59999990
   12.47999954  160.08099365    1.41999996    2.59999990
   12.48333359  166.96299744    1.41999996    2.59999990
   12.48361111  161.73599243    1.41999996    2.59999990
   12.48694515  163.39199829    1.41999996    2.59999990
   12.49000072  181.36199951    1.41999996    2.59999990
   12.49333382  160.15800476    1.41999996    2.59999990
   12.49666691  166.00999451    1.41999996    2.59999990
   12.49972248  165.75100708    1.44000006    2.59999990
   12.50305557  168.33000183    1.41999996    2.59999990
   12.50638866  160.89999390    1.41999996    2.59999990
   12.50944424  156.64300537    1.41999996    2.59999990
   12.51277733  157.51300049    1.41999996    2.59999990
   12.51583290  154.55799866    1.39999998    2.59999990
   12.51666641  161.41000366    1.39999998    2.59999990
   12.51944447  159.35600281    1.39999998    2.59999990
   12.52277756  157.88099670    1.39999998    2.59999990
   12.52611065  158.03100586    1.38000000    2.61999989
   12.52916622  159.68499756    1.38000000    2.61999989
   12.53249931  158.51800537    1.36000001    2.59999990
   12.53583336  155.53799438    1.36000001    2.61999989
   12.53888893  158.36500549    1.36000001    2.59999990
   12.54222298  155.78100586    1.36000001    2.61999989
   12.54527855  154.71000671    1.36000001    2.61999989
   12.54861164  155.27600098    1.36000001    2.61999989
   12.55000019  157.04899597    1.36000001    2.61999989
   12.55222225  157.10800171    1.34000003    2.61999989
   12.55555534  160.74600220    1.34000003    2.61999989
   12.55861092  155.38499451    1.34000003    2.61999989
   12.66361046   -1.00000000   -1.00000000   -1.00000000
   12.76027775   -1.00000000   -1.00000000   -1.00000000
   12.86194515   -1.00000000   -1.00000000   -1.00000000
   12.95833302   -1.00000000   -1.00000000   -1.00000000
   13.05555534   -1.00000000   -1.00000000   -1.00000000
   13.18000031   -1.00000000   -1.00000000   -1.00000000
   13.27611065   -1.00000000   -1.00000000   -1.00000000
   13.37750053   -1.00000000   -1.00000000   -1.00000000
   13.47944355   -1.00000000   -1.00000000   -1.00000000
   13.51194477   88.98509979    1.07000005    2.75000000
   13.51527786  157.95599365    1.09000003    2.75000000
   13.51861095  160.39599609    1.09000003    2.75000000
   13.52166653  144.01100159    1.09000003    2.75000000
   13.52499962  145.84199524    1.07000005    2.75000000
   13.52833271  146.99400330    1.07000005    2.75000000
   13.53249931  146.99400330    1.05999994    2.75000000
   13.53638935  144.58799744    1.07000005    2.75000000
   13.53972244  151.03199768    1.07000005    2.76999998
   13.54305553  134.72300720    1.07000005    2.76999998
   13.54527855  148.52000427    1.09000003    2.75000000
   13.54666710  148.44599915    1.09000003    2.75000000
   13.54972267  145.49800110    1.09000003    2.75000000
   13.55305576  149.34599304    1.05999994    2.76999998
   13.55638885  148.60400391    1.07000005    2.75000000
   13.55944443  150.96800232    1.05999994    2.75000000
   13.56277752  146.90899658    1.05999994    2.75000000
   13.56583309  142.49299622    1.03999996    2.75000000
   13.56916618  143.11099243    1.01999998    2.75000000
   13.57527733  143.11099243    1.00000000    2.76999998
   13.57944393  151.24000549    1.01999998    2.76999998
   13.58277798  156.37300110    1.01999998    2.76999998
   13.58583260  151.74600220    1.01999998    2.76999998
   13.58916664  151.19400024    1.03999996    2.75000000
   13.59249973  152.54200745    1.07000005    2.75000000
   13.59555531  149.97200012    1.05999994    2.76999998
   13.59888840  148.41499329    1.07000005    2.75000000
   13.60222244  151.67300415    1.07000005    2.75000000
   13.60555553  149.60000610    1.03999996    2.75000000
   13.60861111  149.58599854    1.03999996    2.75000000
   13.61194515  144.89999390    1.01999998    2.76999998
   13.61222267  144.08599854    1.00000000    2.76999998
   13.61805534  144.08599854    1.00000000    2.75000000
   13.62222195  151.31399536    1.01999998    2.76999998
   13.62527752  153.90199280    1.01999998    2.76999998
   13.62861156  143.22900391    1.03999996    2.76999998
   13.63194466  139.97599792    1.05999994    2.76999998
   13.63500023  149.48699951    1.05999994    2.75000000
   13.63833332  148.78700256    1.05999994    2.75000000
   13.64138889  144.34800720    1.07000005    2.75000000
   13.64472198  142.25599670    1.07000005    2.76999998
   13.64555550  143.12399292    1.07000005    2.76999998
   13.64833355  139.95399475    1.05999994    2.76999998
   13.65166664  143.31100464    1.03999996    2.75000000
   13.65472221  135.49499512    1.03999996    2.76999998
   13.66083336  135.49499512    1.03999996    2.75000000
   13.66499996  142.17799377    1.03999996    2.76999998
   13.66833401  139.90800476    1.01999998    2.76999998
   13.67138958  154.38099670    1.01999998    2.76999998
   13.67472267  146.97500610    1.03999996    2.76999998
   13.67805576  150.97300720    1.03999996    2.76999998
   13.67888927  144.72599792    1.03999996    2.76999998
   13.68138885  145.13600159    1.05999994    2.76999998
   13.68472195  138.29400635    1.05999994    2.76999998
   13.68777752  143.61000061    1.05999994    2.76999998
   13.69111156  141.72700500    1.05999994    2.76999998
   13.69444466  133.92500305    1.03999996    2.78999996
   13.69750023  141.02499390    1.03999996    2.78999996
   13.70361137  141.02499390    1.05999994    2.76999998
   13.70777798  136.27600098    1.07000005    2.75000000
   13.71111107  140.89300537    1.07000005    2.76999998
   13.71222210  139.14300537    1.07000005    2.76999998
   13.71472168  135.89399719    1.05999994    2.76999998
   13.71805477  134.90299988    1.03999996    2.76999998
   13.72111034  131.71499634    1.03999996    2.76999998
   13.72472191  134.84800720    1.01999998    2.76999998
   13.72805500  142.37800598    1.00000000    2.75000000
   13.73111057  136.08500671    1.00000000    2.78999996
   13.73444462  148.02900696    1.00000000    2.78999996
   13.73777771  137.85400391    0.98000002    2.76999998
   13.74083328  149.18899536    0.95999998    2.78999996
   13.74666691  149.18899536    0.94000000    2.78999996
   13.75055599  137.02600098    0.94000000    2.78999996
   13.75388908  133.34899902    0.94000000    2.78999996
   13.75722218  139.29100037    0.95999998    2.78999996
   13.76027775  142.42599487    0.98000002    2.78999996
   13.76361084  130.93400574    1.00000000    2.76999998
   13.76694393  133.91200256    1.00000000    2.76999998
   13.76999950  148.79499817    0.95999998    2.78999996
   13.77333355  146.06700134    0.95999998    2.78999996
   13.77666664  143.15800476    0.98000002    2.78999996
   13.77888870  139.64799500    0.98000002    2.78999996
   13.77999973  130.54100037    0.98000002    2.78999996
   13.78333378  141.00799561    0.98000002    2.78999996
   13.78944492  141.00799561    0.98000002    2.76999998
   13.79361153  128.25399780    0.98000002    2.78999996
   13.79666710  146.40100098    0.98000002    2.78999996
   13.80000019  141.30599976    0.95999998    2.78999996
   13.80333328  142.81500244    0.92000002    2.78999996
   13.80638885  140.93499756    0.92000002    2.78999996
   13.80972195  140.13299561    0.92000002    2.78999996
   13.81250000  138.24899292    0.92000002    2.78999996
   13.81333351  136.85099792    0.92000002    2.78999996
   13.81666660  147.43899536    0.92000002    2.78999996
   13.81999969  147.67199707    0.89999998    2.78999996
   13.82305527  149.11700439    0.92000002    2.78999996
   13.82638836  141.22999573    0.92000002    2.78999996
   13.83222198  141.22999573    0.92000002    2.78999996
   13.83638859  142.34100342    0.94000000    2.78999996
   13.83972168  156.16000366    0.94000000    2.78999996
   13.84277725  154.13999939    0.95999998    2.78999996
   13.84583282  145.94999695    0.98000002    2.78999996
   13.84638882  143.24800110    0.98000002    2.78999996
   13.84972191  142.46800232    1.00000000    2.78999996
   13.85305595  141.63999939    1.00000000    2.78999996
   13.85611153  150.11399841    1.00000000    2.78999996
   13.85944462  145.40699768    1.00000000    2.78999996
   13.86250019  140.33299255    1.00000000    2.78999996
   13.86583328  141.24299622    1.00000000    2.78999996
   13.86916637  145.77000427    1.00000000    2.78999996
   13.87500000  145.77000427    0.98000002    2.78999996
   13.87916660  143.49800110    1.00000000    2.78999996
   13.88249969  143.69099426    1.00000000    2.78999996
   13.88583279  148.86599731    1.00000000    2.78999996
   13.88888836  142.50900269    1.00000000    2.78999996
   13.89222240  139.67300415    1.00000000    2.78999996
   13.89527798  140.20399475    0.98000002    2.78999996
   13.89861107  151.31799316    0.98000002    2.78999996
   13.90194416  146.33099365    0.95999998    2.78999996
   13.90499973  137.32699585    0.95999998    2.78999996
   13.90833282  136.79499817    0.95999998    2.78999996
   13.91138840  139.68200684    0.95999998    2.78999996
   13.91249943  141.37199402    0.94000000    2.78999996
   13.91805553  141.37199402    0.92000002    2.78999996
   13.92194462  145.16900635    0.92000002    2.78999996
   13.92527771  144.43099976    0.92000002    2.78999996
   13.92861176  147.79400635    0.89999998    2.78999996
   13.93166733  143.04499817    0.89999998    2.78999996
   13.93500042  140.34199524    0.89999998    2.78999996
   13.93833351  140.61399841    0.89999998    2.78999996
   13.94166660  148.22500610    0.86000001    2.80999994
   13.94472218  144.91000366    0.86000001    2.78999996
   13.94583321  137.60899353    0.86000001    2.78999996
   13.94833374  147.94500732    0.88000000    2.78999996
   13.95166683  141.47900391    0.88000000    2.78999996
   13.95472240  139.54400635    0.92000002    2.78999996
   13.96083355  139.54400635    0.89999998    2.80999994
   13.96500015  145.11999512    0.89999998    2.80999994
   13.96805477  139.97399902    0.89999998    2.80999994
   13.97138882  140.34899902    0.89999998    2.78999996
   13.97472191  143.72300720    0.94000000    2.78999996
   13.97777748  138.09500122    0.98000002    2.78999996
   13.97916603  134.81900024    0.98000002    2.78999996
   13.98138809  140.15699768    1.01999998    2.78999996
   13.98472214  139.44799805    1.03999996    2.78999996
   13.98805618  141.59500122    1.03999996    2.80999994
   13.99111176  142.46899414    1.03999996    2.78999996
   13.99444485  143.25399780    1.03999996    2.78999996
   13.99750042  142.54400635    1.05999994    2.80999994
   14.00388908  142.54400635    1.03999996    2.78999996
   14.00777817  144.48699951    1.03999996    2.78999996
   14.01111126  143.00300598    1.01999998    2.78999996
   14.01249981  148.27699280    1.01999998    2.78999996
   14.01472187  150.04800415    1.00000000    2.78999996
   14.01805496  147.86700439    1.00000000    2.78999996
   14.02138901  144.17700195    0.98000002    2.80999994
   14.02444458  145.75000000    0.98000002    2.80999994
   14.02777767  142.16099548    0.95999998    2.78999996
   14.03083324  141.69200134    0.95999998    2.78999996
   14.03416729  142.56799316    0.95999998    2.78999996
   14.03750038  148.74400330    0.94000000    2.80999994
   14.04055595  140.36999512    0.92000002    2.78999996
   14.04666710  140.36999512    0.88000000    2.80999994
   14.05083370  142.67900085    0.88000000    2.80999994
   14.05416679  140.06599426    0.86000001    2.80999994
   14.05722237  146.20500183    0.86000001    2.78999996
   14.06055546  147.53399658    0.86000001    2.78999996
   14.06388950  134.04600525    0.86000001    2.78999996
   14.06694412  136.72000122    0.88000000    2.80999994
   14.07027817  139.14199829    0.88000000    2.78999996
   14.07333374  137.52900696    0.88000000    2.80999994
   14.07666683  136.64999390    0.89999998    2.78999996
   14.07916641  139.07800293    0.89999998    2.78999996
   14.08027744  141.04899597    0.89999998    2.78999996
   14.08388901  134.91700745    0.89999998    2.78999996
   14.08944416  134.91700745    0.92000002    2.80999994
   14.09361076  135.31500244    0.92000002    2.80999994
   14.09666634  138.72500610    0.92000002    2.78999996
   14.10000038  136.42599487    0.92000002    2.80999994
   14.10305595  137.97000122    0.89999998    2.80999994
   14.10638905  134.98300171    0.92000002    2.80999994
   14.10972214  132.58200073    0.89999998    2.78999996
   14.11250019  152.20599365    0.89999998    2.78999996
   14.11305618  140.12600708    0.89999998    2.80999994
   14.11638927  133.58000183    0.89999998    2.80999994
   14.11972237  141.25700378    0.89999998    2.80999994
   14.12277794  140.71499634    0.89999998    2.80999994
   14.12611103  141.75900269    0.89999998    2.80999994
   14.13222218  141.75900269    0.92000002    2.80999994
   14.13638878  136.36300659    0.92000002    2.80999994
   14.13972187  141.08900452    0.92000002    2.80999994
   14.14277744  143.76100159    0.92000002    2.80999994
   14.14583302  143.70799255    0.94000000    2.80999994
   14.14638901  140.05400085    0.94000000    2.80999994
   14.14972210  135.52299500    0.94000000    2.80999994
   14.15305519  142.03599548    0.94000000    2.78999996
   14.15611076  141.10600281    0.94000000    2.80999994
   14.15944386  138.66200256    0.94000000    2.80999994
   14.16249943  136.90499878    0.95999998    2.80999994
   14.16583252  148.69700623    0.95999998    2.80999994
   14.16916656  141.03300476    0.98000002    2.80999994
   14.17500019  141.03300476    0.98000002    2.80999994
   14.17916679  136.48199463    1.00000000    2.80999994
   14.18249989  130.18800354    1.00000000    2.80999994
   14.18555546  133.61799622    1.00000000    2.78999996
   14.18888855  138.77299500    1.00000000    2.80999994
   14.19222260  138.61500549    1.00000000    2.78999996
   14.19555569  134.43099976    1.00000000    2.80999994
   14.19861126  134.46600342    1.00000000    2.80999994
   14.20194435  137.21299744    1.00000000    2.80999994
   14.20499992  134.91999817    1.00000000    2.78999996
   14.20833302  130.79400635    1.00000000    2.78999996
   14.21166611  143.44200134    1.00000000    2.80999994
   14.21249962  136.60800171    1.00000000    2.80999994
   14.21805477  136.60800171    0.98000002    2.80999994
   14.22194386  143.61999512    0.98000002    2.80999994
   14.22527695  142.44099426    0.95999998    2.80999994
   14.22861099  140.43099976    0.95999998    2.80999994
   14.23166656  136.03300476    0.94000000    2.82999992
   14.23500061  151.15499878    0.94000000    2.82999992
   14.23833370  140.09399414    0.94000000    2.80999994
   14.24138927  138.84599304    0.94000000    2.82999992
   14.24472237  135.49699402    0.92000002    2.80999994
   14.24583340  135.27900696    0.92000002    2.80999994
   14.24805546  138.17500305    0.92000002    2.80999994
   14.25138855  139.02499390    0.98000002    2.82999992
   14.25472260  140.05400085    1.03999996    2.82999992
   14.26083374  140.05400085    1.00000000    2.82999992
   14.26500034  132.67300415    1.00000000    2.80999994
   14.26805496  133.19599915    1.00000000    2.82999992
   14.27138901  130.01300049    1.00000000    2.82999992
   14.27472210  137.55999756    1.00000000    2.82999992
   14.27777767  133.22000122    1.00000000    2.80999994
   14.27916622  143.54699707    1.00000000    2.80999994
   14.28138828  135.77600098    1.01999998    2.80999994
   14.28472233  141.86000061    1.00000000    2.80999994
   14.28805637  144.80599976    1.00000000    2.80999994
   14.29111195  134.93299866    1.00000000    2.80999994
   14.29444504  140.13499451    1.00000000    2.82999992
   14.29777813  136.61900330    0.98000002    2.80999994
   14.30361176  136.61900330    0.95999998    2.82999992
   14.30777836  140.19900513    0.95999998    2.82999992
   14.31083393  139.76800537    0.95999998    2.80999994
   14.31250000  130.48599243    0.95999998    2.80999994
   14.31444454  131.20300293    0.95999998    2.82999992
   14.31777763  142.09800720    0.95999998    2.82999992
   14.32111073  139.08099365    0.94000000    2.82999992
   14.32416630  139.46600342    0.92000002    2.84999990
   14.32750034  133.91000366    0.89999998    2.80999994
   14.33083344  127.22699738    0.89999998    2.80999994
   14.33388901  139.84199524    0.89999998    2.82999992
   14.33722210  141.93299866    0.89999998    2.82999992
   14.34027767  136.13800049    0.89999998    2.80999994
   14.34638882  136.13800049    0.89999998    2.82999992
   14.35055637  142.81799316    0.92000002    2.82999992
   14.35388947  133.09700012    0.92000002    2.82999992
   14.35722256  143.50199890    0.92000002    2.80999994
   14.36027813  127.86699677    0.92000002    2.80999994
   14.36361122  138.10699463    0.89999998    2.82999992
   14.36666679  134.44200134    0.89999998    2.84999990
   14.36999989  145.38900757    0.89999998    2.82999992
   14.37333393  133.31900024    0.89999998    2.82999992
   14.37638855  135.45899963    0.89999998    2.82999992
   14.37916660  131.70700073    0.89999998    2.82999992
   14.38000011  133.33500671    0.89999998    2.82999992
   14.38333321  134.60400391    0.89999998    2.82999992
   14.38944435  134.60400391    0.88000000    2.82999992
   14.39333344  143.21499634    0.88000000    2.82999992
   14.39666653  138.14999390    0.88000000    2.82999992
   14.39999962  139.16799927    0.88000000    2.82999992
   14.40305519  140.02699280    0.88000000    2.82999992
   14.40638828  141.64100647    0.88000000    2.82999992
   14.40972137  135.27400208    0.88000000    2.82999992
   14.41249943  136.41799927    0.89999998    2.82999992
   14.41305542  140.90899658    0.89999998    2.82999992
   14.41638851  145.86000061    0.89999998    2.82999992
   14.41972256  142.77400208    0.89999998    2.82999992
   14.42277813  139.56599426    0.92000002    2.82999992
   14.42611122  142.09800720    0.94000000    2.82999992
   14.43222237  142.09800720    0.94000000    2.82999992
   14.43638897  144.10899353    0.95999998    2.82999992
   14.43944454  142.71699524    0.98000002    2.80999994
   14.44277763  141.11300659    0.98000002    2.82999992
   14.44583321  136.91200256    0.95999998    2.82999992
   14.44611073  142.87800598    0.95999998    2.82999992
   14.44944477  135.74000549    0.95999998    2.82999992
   14.45277786  138.87500000    0.98000002    2.82999992
   14.45583344  136.61599731    0.98000002    2.82999992
   14.45916653  148.53399658    0.98000002    2.82999992
   14.46249962  137.19099426    0.95999998    2.80999994
   14.46555519  137.35600281    0.95999998    2.80999994
   14.46888828  143.49000549    0.98000002    2.82999992
   14.47499943  143.49000549    0.98000002    2.82999992
   14.47916603  136.81399536    0.98000002    2.82999992
   14.47944355  141.31599426    0.98000002    2.82999992
   14.48277760  139.59599304    0.98000002    2.82999992
   14.48611164  145.24200439    0.98000002    2.82999992
   14.48916721  149.71899414    0.98000002    2.82999992
   14.49250031  147.91299438    0.95999998    2.82999992
   14.49583340  136.02400208    0.94000000    2.82999992
   14.49888897  136.84399414    0.94000000    2.82999992
   14.50222206  145.34599304    0.94000000    2.82999992
   14.50527763  149.36399841    0.95999998    2.82999992
   14.50861073  143.95300293    0.95999998    2.82999992
   14.51194477  146.11099243    0.98000002    2.82999992
   14.51249981  147.81199646    0.98000002    2.82999992
   14.53305531  147.81199646    0.98000002    2.82999992
   14.53722286  139.93400574    1.00000000    2.82999992
   14.54055595  151.35800171    1.00000000    2.82999992
   14.54361153  137.30299377    1.00000000    2.82999992
   14.54583359  132.28500366    1.00000000    2.82999992
   14.54750061  138.77600098    1.00000000    2.82999992
   14.55055618  139.22399902    1.00000000    2.82999992
   14.55388927  142.46400452    1.00000000    2.82999992
   14.55694485  146.28199768    0.95999998    2.82999992
   14.56027794  137.53999329    0.95999998    2.82999992
   14.56361103  148.96699524    0.95999998    2.82999992
   14.56666660  133.49000549    0.98000002    2.80999994
   14.56999969  141.41900635    0.98000002    2.82999992
   14.57583332  141.41900635    0.98000002    2.82999992
   14.57999992  133.83599854    0.98000002    2.82999992
   14.58333302  136.11199951    1.00000000    2.82999992
   14.58638859  141.41799927    1.00000000    2.82999992
   14.58972168  140.71000671    1.00000000    2.82999992
   14.59305477  139.40800476    1.00000000    2.82999992
   14.59638882  137.71800232    1.00000000    2.82999992
   14.59972191  140.68299866    1.00000000    2.80999994
   14.60277843  141.51600647    1.00000000    2.82999992
   14.60611153  140.19599915    1.00000000    2.82999992
   14.60916710  141.38200378    0.98000002    2.82999992
   14.61250019  142.19299316    0.98000002    2.82999992
   14.61305618  143.61999512    0.98000002    2.82999992
   14.61861134  143.61999512    0.98000002    2.84999990
   14.62277794  133.46800232    1.03999996    2.82999992
   14.62611103  138.18699646    1.03999996    2.82999992
   14.62916660  143.93299866    1.00000000    2.82999992
   14.63249969  134.76100159    0.98000002    2.84999990
   14.63583279  130.43899536    0.98000002    2.84999990
   14.63888836  141.19799805    0.98000002    2.84999990
   14.64222240  138.99800110    0.98000002    2.82999992
   14.64527798  137.09399414    0.98000002    2.82999992
   14.64583302  140.94900513    0.98000002    2.82999992
   14.64888859  147.60499573    0.98000002    2.82999992
   14.65194416  143.19700623    0.94000000    2.82999992
   14.65527725  141.60299683    0.94000000    2.84999990
   14.66166592  141.60299683    0.92000002    2.82999992
   14.66555500  136.73199463    0.89999998    2.84999990
   14.66888905  139.44000244    0.89999998    2.82999992
   14.67222214  145.82299805    0.89999998    2.82999992
   14.67527771  136.54600525    0.88000000    2.84999990
   14.67861176  142.80599976    0.88000000    2.84999990
   14.67916679  139.81700134    0.88000000    2.84999990
   14.68222237  139.95799255    0.88000000    2.82999992
   14.68555546  154.26100159    0.86000001    2.84999990
   14.68861103  148.97500610    0.86000001    2.84999990
   14.69194412  145.80799866    0.86000001    2.84999990
   14.69499969  147.51600647    0.86000001    2.84999990
   14.69833374  144.35499573    0.83999997    2.84999990
   14.70444393  144.35499573    0.83999997    2.82999992
   14.70861053  144.45300293    0.83999997    2.82999992
   14.71166611  147.81199646    0.83999997    2.84999990
   14.71249962  147.67399597    0.83999997    2.84999990
   14.71527767  140.77499390    0.83999997    2.84999990
   14.71833324  151.30400085    0.86000001    2.82999992
   14.72166634  147.44299316    0.86000001    2.84999990
   14.72499943  147.53599548    0.83999997    2.84999990
   14.72805500  137.14199829    0.83999997    2.84999990
   14.73138809  143.58200073    0.81999999    2.84999990
   14.73472214  143.27699280    0.81999999    2.84999990
   14.73777771  144.05599976    0.81999999    2.84999990
   14.74111176  142.96200562    0.83999997    2.84999990
   14.74722290  142.96200562    0.83999997    2.82999992
   14.75138855  144.04400635    0.83999997    2.82999992
   14.75472260  142.20899963    0.83999997    2.82999992
   14.75777817  146.79400635    0.83999997    2.82999992
   14.76111126  143.91999817    0.86000001    2.82999992
   14.76444435  142.55299377    0.83999997    2.82999992
   14.76749992  140.50399780    0.83999997    2.82999992
   14.77083302  144.38400269    0.83999997    2.84999990
   14.77416611  148.01699829    0.83999997    2.82999992
   14.77722168  150.57699585    0.83999997    2.82999992
   14.77916622  144.08599854    0.83999997    2.82999992
   14.78083324  147.00300598    0.83999997    2.82999992
   14.78416729  146.34599304    0.81999999    2.82999992
   14.79000092  146.34599304    0.81999999    2.82999992
   14.79416752  137.49000549    0.81999999    2.84999990
   14.79750061  150.00199890    0.81999999    2.82999992
   14.80083370  147.35099792    0.81999999    2.84999990
   14.80388927  140.59800720    0.80000001    2.84999990
   14.80722237  148.58700562    0.80000001    2.82999992
   14.81027794  139.40299988    0.80000001    2.82999992
   14.81250000  143.33999634    0.79000002    2.84999990
   14.81388950  140.55499268    0.79000002    2.84999990
   14.81722260  145.83700562    0.80000001    2.82999992
   14.82027817  132.84500122    0.80000001    2.84999990
   14.82361126  140.78500366    0.81999999    2.84999990
   14.82694435  140.98599243    0.81999999    2.84999990
   14.83305550  140.98599243    0.80000001    2.84999990
   14.83694458  144.74200439    0.80000001    2.82999992
   14.84027767  134.97200012    0.80000001    2.82999992
   14.84361076  140.92999268    0.80000001    2.86999989
   14.84583282  145.12899780    0.80000001    2.84999990
   14.84722233  135.73199463    0.80000001    2.84999990
   14.85055637  143.38800049    0.79000002    2.84999990
   14.85361195  136.88400269    0.79000002    2.84999990
   14.85694504  139.98699951    0.79000002    2.84999990
   14.86027813  136.67100525    0.79000002    2.84999990
   14.86333370  145.43899536    0.79000002    2.84999990
   14.86666679  153.29699707    0.79000002    2.84999990
   14.86999989  136.94400024    0.76999998    2.84999990
   14.87583351  136.94400024    0.75000000    2.84999990
   14.88000011  138.63400269    0.75000000    2.84999990
   14.88305569  143.52799988    0.75000000    2.84999990
   14.88638878  143.69999695    0.73000002    2.86999989
   14.88972187  142.92399597    0.73000002    2.84999990
   14.89277744  158.21800232    0.73000002    2.86999989
   14.89611053  140.63999939    0.70999998    2.86999989
   14.89916611  128.58399963    0.70999998    2.86999989
   14.90249920  141.47099304    0.70999998    2.86999989
   14.90583324  138.78700256    0.70999998    2.84999990
   14.90888882  142.01100159    0.70999998    2.86999989
   14.91222191  136.63900757    0.70999998    2.84999990
   14.91277695  150.34899902    0.70999998    2.84999990
   14.91861153  150.34899902    0.70999998    2.86999989
   14.92277813  143.75300598    0.70999998    2.84999990
   14.92611122  141.20799255    0.70999998    2.86999989
   14.92916679  139.44900513    0.70999998    2.86999989
   14.93249989  135.99099731    0.70999998    2.86999989
   14.93555546  146.74099731    0.70999998    2.84999990
   14.93888855  136.75900269    0.70999998    2.84999990
   14.94222260  137.99899292    0.70999998    2.84999990
   14.94527817  143.42399597    0.70999998    2.84999990
   14.94611073  114.44200134    0.70999998    2.84999990
   14.94888878  137.31300354    0.70999998    2.84999990
   14.95222187  144.13699341    0.70999998    2.84999990
   14.95555496  138.74699402    0.70999998    2.84999990
   14.96138859  138.74699402    0.70999998    2.86999989
   14.96555519  141.91999817    0.70999998    2.84999990
   14.96888828  139.61999512    0.70999998    2.84999990
   14.97194386  145.38800049    0.69000000    2.86999989
   14.97527695  144.02200317    0.69000000    2.86999989
   14.97861099  144.11399841    0.69000000    2.84999990
   14.97944355  142.80999756    0.69000000    2.84999990
   14.98194408  146.45399475    0.69000000    2.86999989
   14.98527813  146.98800659    0.69000000    2.86999989
   14.98861122  140.02299500    0.69000000    2.86999989
   14.99194431  149.48399353    0.69000000    2.86999989
   14.99527836  135.37600708    0.70999998    2.86999989
   14.99833393  139.84599304    0.70999998    2.86999989
   15.00444412  139.84599304    0.73000002    2.86999989
   15.00833321  140.93600464    0.75000000    2.84999990
   15.01166630  137.04699707    0.76999998    2.84999990
   15.01277733  133.03199768    0.76999998    2.84999990
   15.01500034  137.20500183    0.79000002    2.84999990
   15.01833344  135.13800049    0.81999999    2.84999990
   15.02166653  137.40100098    0.83999997    2.86999989
   15.02472210  135.16999817    0.83999997    2.86999989
   15.02805519  143.65499878    0.88000000    2.86999989
   15.03138828  138.09899902    0.88000000    2.86999989
   15.03444481  137.76800537    0.86000001    2.86999989
   15.03777790  140.03199768    0.86000001    2.86999989
   15.04111195  148.78199768    0.86000001    2.84999990
   15.04722309  148.78199768    0.86000001    2.84999990
   15.05138874  135.63499451    0.83999997    2.86999989
   15.05444431  142.36900330    0.83999997    2.86999989
   15.05777836  136.32000732    0.83999997    2.86999989
   15.06083393  131.46800232    0.83999997    2.84999990
   15.06416702  127.02200317    0.83999997    2.84999990
   15.06750011  141.86399841    0.86000001    2.86999989
   15.07055569  136.64500427    0.86000001    2.86999989
   15.07388878  137.81900024    0.86000001    2.86999989
   15.07694435  139.31100464    0.80000001    2.86999989
   15.07944393  139.87199402    0.80000001    2.86999989
   15.08055592  139.49699402    0.80000001    2.86999989
   15.08388901  145.73100281    0.80000001    2.86999989
   15.09000015  145.73100281    0.79000002    2.86999989
   15.09416676  140.98300171    0.79000002    2.86999989
   15.09749985  140.51600647    0.76999998    2.86999989
   15.10055637  133.98399353    0.79000002    2.86999989
   15.10388947  142.35099792    0.76999998    2.86999989
   15.10694504  142.00799561    0.76999998    2.86999989
   15.11027813  146.45700073    0.76999998    2.86999989
   15.11277771  140.20700073    0.76999998    2.86999989
   15.11361122  152.18800354    0.76999998    2.86999989
   15.11694431  141.64300537    0.76999998    2.86999989
   15.12027836  143.13900757    0.76999998    2.84999990
   15.12333393  142.81900024    0.79000002    2.86999989
   15.12666702  147.87500000    0.79000002    2.86999989
   15.13277817  147.87500000    0.79000002    2.86999989
   15.13694477  144.43099976    0.80000001    2.86999989
   15.14027786  149.49099731    0.81999999    2.86999989
   15.14333344  149.43699646    0.83999997    2.84999990
   15.14611053  145.43099976    0.83999997    2.86999989
   15.14694405  145.08900452    0.83999997    2.86999989
   15.15055561  143.02400208    0.83999997    2.84999990
   15.15361118  151.05099487    0.83999997    2.86999989
   15.15694427  150.70899963    0.83999997    2.86999989
   15.16027737  148.22900391    0.83999997    2.86999989
   15.16333294  142.61599731    0.83999997    2.86999989
   15.16666698  150.30900574    0.83999997    2.86999989
   15.16972256  146.40199280    0.81999999    2.86999989
   15.17583370  146.40199280    0.80000001    2.86999989
   15.18000031  145.86700439    0.79000002    2.84999990
   15.18305588  148.45300293    0.76999998    2.86999989
   15.18638897  138.71099854    0.76999998    2.86999989
   15.18944454  143.78999329    0.76999998    2.86999989
   15.19277763  139.44299316    0.76999998    2.86999989
   15.19611073  141.29100037    0.76999998    2.86999989
   15.19916630  144.57400513    0.76999998    2.84999990
   15.20249939  141.02299500    0.76999998    2.86999989
   15.20583344  147.68099976    0.76999998    2.86999989
   15.20888901  153.61900330    0.75000000    2.86999989
   15.21222210  151.95700073    0.75000000    2.86999989
   15.21277714  137.03900146    0.75000000    2.86999989
   15.21861076  137.03900146    0.70999998    2.86999989
   15.22277737  138.22500610    0.70999998    2.86999989
   15.22583294  150.98300171    0.69000000    2.86999989
   15.22916603  149.68099976    0.69000000    2.86999989
   15.23249912  140.14599609    0.64999998    2.86999989
   15.23555565  140.90299988    0.64999998    2.86999989
   15.23888874  159.51400757    0.64999998    2.86999989
   15.24194431  140.00000000    0.64999998    2.86999989
   15.24527836  142.31199646    0.67000002    2.89000010
   15.24611092  149.20899963    0.67000002    2.89000010
   15.24888897  135.56399536    0.63000000    2.86999989
   15.25194454  147.85099792    0.63000000    2.86999989
   15.25527763  147.00599670    0.61000001    2.86999989
   15.26138878  147.00599670    0.58999997    2.89000010
   15.26555538  140.95399475    0.56999999    2.86999989
   15.26861095  152.19599915    0.56999999    2.86999989
   15.27194405  140.07800293    0.56999999    2.89000010
   15.27527714  152.84199524    0.58999997    2.89000010
   15.27833271  150.43299866    0.56999999    2.86999989
   15.27944374  149.02000427    0.56999999    2.86999989
   15.28222179  142.92999268    0.56999999    2.89000010
   15.28527832  149.51699829    0.55000001    2.89000010
   15.28861141  138.19799805    0.55000001    2.86999989
   15.29194450  160.15800476    0.55000001    2.86999989
   15.29500008  151.41200256    0.55000001    2.86999989
   15.29833412  148.52400208    0.55000001    2.86999989
   15.30416679  148.52400208    0.52999997    2.86999989
   15.30833340  153.61599731    0.55000001    2.89000010
   15.31166649  151.23599243    0.52999997    2.86999989
   15.31277752  156.13000488    0.52999997    2.86999989
   15.31527805  165.48399353    0.55000001    2.89000010
   15.31833363  195.02699280    0.55000001    2.89000010
   15.32166672  182.15600586    0.55000001    2.86999989
   15.32499981  180.15600586    0.55000001    2.86999989
   15.32805538  181.09399414    0.56999999    2.86999989
   15.33138847  185.03900146    0.56999999    2.86999989
   15.33444405  173.41200256    0.58999997    2.86999989
   15.33777714  192.14199829    0.58999997    2.86999989
   15.34111118  177.17700195    0.58999997    2.86999989
   15.34722233  177.17700195    0.61000001    2.89000010
   15.35138893  172.22000122    0.61000001    2.89000010
   15.35444450  171.51199341    0.61000001    2.86999989
   15.35777855  187.98899841    0.63000000    2.86999989
   15.36083412  148.47300720    0.63000000    2.86999989
   15.36416721  176.91499329    0.63000000    2.86999989
   15.36750031  175.38999939    0.61000001    2.86999989
   15.37083340  166.94900513    0.61000001    2.86999989
   15.37388897  147.32800293    0.61000001    2.86999989
   15.37722206  158.50199890    0.61000001    2.86999989
   15.37944412  152.87399292    0.61000001    2.86999989
   15.38083363  154.38600159    0.61000001    2.86999989
   15.38388920  169.85899353    0.58999997    2.86999989
   15.39000034  169.85899353    0.56999999    2.86999989
   15.39416695  147.83700562    0.56999999    2.86999989
   15.39722252  150.92700195    0.55000001    2.86999989
   15.40055561  159.57899475    0.55000001    2.86999989
   15.40388870  150.51400757    0.55000001    2.86999989
   15.40694427  138.34199524    0.55000001    2.86999989
   15.41027737  156.86099243    0.52999997    2.86999989
   15.41277695  150.55000305    0.52999997    2.89000010
   15.41388893  147.70300293    0.52999997    2.89000010
   15.41694450  148.91700745    0.52999997    2.86999989
   15.42027855  145.86799622    0.52999997    2.89000010
   15.42333412  165.85699463    0.52999997    2.89000010
   15.42666721  144.58399963    0.52999997    2.86999989
   15.43277836  144.58399963    0.56999999    2.89000010
   15.43694496  163.37699890    0.58999997    2.86999989
   15.44027805  165.29100037    0.61000001    2.89000010
   15.44333363  166.32299805    0.61000001    2.86999989
   15.44611073  163.66000366    0.61000001    2.86999989
   15.44722271  161.58500671    0.61000001    2.86999989
   15.45055580  147.14100647    0.61000001    2.89000010
   15.45361137  163.22700500    0.61000001    2.86999989
   15.45694447  189.19500732    0.61000001    2.86999989
   15.46027756  160.42599487    0.61000001    2.89000010
   15.46333313  158.54899597    0.61000001    2.86999989
   15.46666622  167.76400757    0.61000001    2.89000010
   15.46999931  171.29499817    0.61000001    2.86999989
   15.47555542  171.29499817    0.63000000    2.86999989
   15.47972202  160.13000488    0.63000000    2.86999989
   15.48305511  167.62199402    0.63000000    2.89000010
   15.48611164  178.25399780    0.63000000    2.86999989
   15.48944473  172.66799927    0.63000000    2.86999989
   15.49277782  162.23399353    0.61000001    2.86999989
   15.49583340  170.27900696    0.61000001    2.86999989
   15.49916649  173.84399414    0.61000001    2.86999989
   15.50249958  176.25700378    0.61000001    2.86999989
   15.50555515  189.62300110    0.58999997    2.86999989
   15.50888920  205.68400574    0.58999997    2.86999989
   15.51194477  201.44999695    0.58999997    2.86999989
   15.51277733  206.46000671    0.58999997    2.86999989
   15.51861095  206.46000671    0.56999999    2.86999989
   15.52250004  202.74400330    0.56999999    2.86999989
   15.52583313  194.80099487    0.56999999    2.86999989
   15.52916622  198.25000000    0.56999999    2.89000010
   15.54666710  190.44000244    0.56999999    2.86999989
   15.54916668  181.62600708    0.56999999    2.86999989
   15.55222225  193.88299561    0.55000001    2.89000010
   15.55555534  186.20500183    0.55000001    2.89000010
   15.56138897  186.20500183    0.51999998    2.86999989
   15.56555557  176.92599487    0.50000000    2.89000010
   15.56888866  183.43299866    0.50000000    2.89000010
   15.57194424  171.67199707    0.52999997    2.89000010
   15.57527733  165.06599426    0.52999997    2.89000010
   15.57861137  195.72200012    0.52999997    2.89000010
   15.57999992  191.21800232    0.52999997    2.86999989
   15.58194447  198.87100220    0.52999997    2.86999989
   15.58527756  186.12300110    0.52999997    2.89000010
   15.58861065  219.21299744    0.51999998    2.89000010
   15.59166622  188.85000610    0.51999998    2.89000010
   15.59499931  208.34399414    0.51999998    2.89000010
   15.59805489  178.38200378    0.51999998    2.89000010
   15.60444450  178.38200378    0.51999998    2.89000010
   15.60833359  201.99600220    0.51999998    2.89000010
   15.61166668  184.51600647    0.51999998    2.89000010
   15.61333370  180.23399353    0.51999998    2.89000010
   15.61527824  196.23300171    0.51999998    2.86999989
   15.61861134  222.61999512    0.50000000    2.89000010
   15.62194443  168.02900696    0.50000000    2.89000010
   15.62500000  197.76699829    0.50000000    2.89000010
   15.62833309  188.35800171    0.50000000    2.91000009
   15.63166714  201.63900757    0.51999998    2.89000010
   15.63472176  178.36000061    0.51999998    2.89000010
   15.63805580  181.23199463    0.52999997    2.89000010
   15.64138889  185.58000183    0.52999997    2.89000010
   15.64722252  185.58000183    0.55000001    2.86999989
   15.65138817  216.52099609    0.55000001    2.86999989
   15.65472221  212.32200623    0.56999999    2.89000010
   15.65805531  182.67900085    0.56999999    2.89000010
   15.66111088  190.58200073    0.55000001    2.89000010
   15.66444397  202.68099976    0.52999997    2.91000009
   15.66777802  191.21299744    0.52999997    2.89000010
   15.67083359  191.26100159    0.51999998    2.89000010
   15.67416668  201.23100281    0.51999998    2.89000010
   15.67722225  185.13200378    0.51999998    2.89000010
   15.68000031  199.71000671    0.52999997    2.89000010
   15.68083382  204.18600464    0.52999997    2.89000010
   15.68416691  206.49299622    0.52999997    2.89000010
   15.69000053  206.49299622    0.51999998    2.89000010
   15.69416714  188.07200623    0.51999998    2.89000010
   15.69750023  215.11300659    0.50000000    2.89000010
   15.70055580  210.15499878    0.51999998    2.89000010
   15.70388889  177.08200073    0.50000000    2.89000010
   15.70722198  178.52699280    0.50000000    2.89000010
   15.71027756  185.59300232    0.47999999    2.86999989
   15.71333313  197.29800415    0.46000001    2.91000009
   15.71388912  199.39399719    0.46000001    2.91000009
   15.71722221  188.45300293    0.47999999    2.89000010
   15.72027779  215.24299622    0.47999999    2.91000009
   15.72361088  204.84899902    0.47999999    2.89000010
   15.72694397  205.10600281    0.47999999    2.89000010
   15.73277760  205.10600281    0.50000000    2.89000010
   15.73694515  179.85699463    0.50000000    2.89000010
   15.74027824  174.97599792    0.50000000    2.91000009
   15.74333382  180.66799927    0.51999998    2.89000010
   15.74666691  209.78599548    0.52999997    2.89000010
   15.74694443  188.61000061    0.52999997    2.89000010
   15.75027752  194.61900330    0.52999997    2.89000010
   15.75361156  170.85600281    0.52999997    2.89000010
   15.75666714  184.44200134    0.55000001    2.89000010
   15.76000023  185.85299683    0.55000001    2.89000010
   15.76305580  171.57099915    0.56999999    2.89000010
   15.76638889  194.11599731    0.56999999    2.89000010
   15.76972198  172.62600708    0.55000001    2.89000010
   15.77555561  172.62600708    0.52999997    2.91000009
   15.77972221  184.26899719    0.52999997    2.91000009
   15.78027725  176.41600037    0.52999997    2.91000009
   15.78361130  178.91499329    0.51999998    2.89000010
   15.78666687  183.37699890    0.51999998    2.89000010
   15.79000092  190.04200745    0.55000001    2.89000010
   15.79333401  198.07000732    0.58999997    2.89000010
   15.79638958  186.24299622    0.58999997    2.89000010
   15.79972267  183.74099731    0.58999997    2.91000009
   15.80305576  186.69000244    0.58999997    2.89000010
   15.80638885  170.74600220    0.61000001    2.89000010
   15.80944443  178.50199890    0.61000001    2.89000010
   15.81277752  173.65600586    0.61000001    2.89000010
   15.81361103  174.94500732    0.61000001    2.91000009
   15.81861115  174.94500732    0.61000001    2.89000010
   15.82277775  182.02400208    0.61000001    2.89000010
   15.82583332  173.23199463    0.63000000    2.89000010
   15.82916641  176.64799500    0.63000000    2.89000010
   15.83249950  170.68400574    0.63000000    2.89000010
   15.83555508  178.70599365    0.61000001    2.89000010
   15.83888817  176.90199280    0.58999997    2.91000009
   15.84194374  179.77499390    0.58999997    2.89000010
   15.84527779  174.93499756    0.56999999    2.89000010
   15.84694386  168.31399536    0.56999999    2.89000010
   15.84888840  165.02600098    0.56999999    2.89000010
   15.85222244  168.31599426    0.56999999    2.89000010
   15.85527802  177.22500610    0.58999997    2.89000010
   15.86138916  177.22500610    0.58999997    2.89000010
   15.86555576  167.90800476    0.56999999    2.89000010
   15.86888885  166.52299500    0.56999999    2.89000010
   15.87194443  168.82400513    0.56999999    2.89000010
   15.87527752  162.55499268    0.56999999    2.89000010
   15.87861156  159.92700195    0.55000001    2.89000010
   15.88027763  160.06900024    0.55000001    2.89000010
   15.88222218  161.59399414    0.52999997    2.91000009
   15.88555527  162.90499878    0.52999997    2.91000009
   15.88861084  166.74200439    0.52999997    2.91000009
   15.89194393  169.64900208    0.52999997    2.89000010
   15.89499950  161.02499390    0.52999997    2.89000010
   15.89833355  161.10400391    0.56999999    2.91000009
   15.90416622  161.10400391    0.56999999    2.91000009
   15.90833282  154.35400391    0.52999997    2.91000009
   15.91166592  156.67100525    0.51999998    2.91000009
   15.91361046  156.31199646    0.47999999    2.89000010
   15.91527748  164.71000671    0.47999999    2.89000010
   15.91861153  152.96000671    0.47999999    2.89000010
   15.92166710  161.29200745    0.47999999    2.91000009
   15.92500019  156.21600342    0.47999999    2.89000010
   15.92805576  159.96899414    0.47999999    2.91000009
   15.93138885  155.61900330    0.47999999    2.91000009
   15.93472195  152.42700195    0.47999999    2.89000010
   15.93777752  158.20100403    0.47999999    2.89000010
   15.94111156  158.28500366    0.47999999    2.91000009
   15.94722271  158.28500366    0.51999998    2.89000010
   15.95138836  142.95399475    0.55000001    2.89000010
   15.95444393  168.17500305    0.52999997    2.89000010
   15.95777798  151.57699585    0.52999997    2.91000009
   15.96083355  173.88099670    0.52999997    2.91000009
   15.96416664  170.44400024    0.52999997    2.89000010
   15.96749973  163.20500183    0.52999997    2.91000009
   15.97083282  158.94900513    0.55000001    2.91000009
   15.97388840  143.29899597    0.55000001    2.89000010
   15.97722149  151.98899841    0.55000001    2.91000009
   15.98027706  148.71699524    0.55000001    2.91000009
   15.98083305  170.38200378    0.55000001    2.89000010
   15.98416710  171.02900696    0.55000001    2.89000010
   15.99000072  171.02900696    0.55000001    2.91000009
   15.99416733  153.24200439    0.55000001    2.89000010
   15.99722290  150.54100037    0.55000001    2.89000010
   16.00055504  139.84199524    0.58999997    2.89000010
   16.00388908  149.54400635    0.58999997    2.89000010
   16.00694466  167.68400574    0.63000000    2.89000010
   16.01027870  137.42599487    0.61000001    2.91000009
   16.01361084  160.22099304    0.61000001    2.89000010
   16.01388931  141.23100281    0.61000001    2.89000010
   16.01722145  138.45199585    0.58999997    2.89000010
   16.02055550  149.31700134    0.58999997    2.91000009
   16.02361107  148.14900208    0.58999997    2.91000009
   16.02694511  159.31700134    0.58999997    2.91000009
   16.03277779  159.31700134    0.63000000    2.86999989
   16.03694344  155.00000000    0.61000001    2.89000010
   16.04027748  151.33599854    0.61000001    2.91000009
   16.04333305  142.68699646    0.61000001    2.89000010
   16.04666710  148.07699585    0.64999998    2.91000009
   16.04722214  143.52600098    0.64999998    2.91000009
   16.05027771  149.27499390    0.67000002    2.89000010
   16.05360985  144.39500427    0.67000002    2.89000010
   16.05666542  160.72399902    0.67000002    2.89000010
   16.05999947  155.73800659    0.67000002    2.91000009
   16.06333351  134.62600708    0.64999998    2.91000009
   16.06638718  142.42399597    0.64999998    2.89000010
   16.06972313  158.63099670    0.64999998    2.89000010
   16.07555580  158.63099670    0.64999998    2.89000010
   16.07972336  154.39199829    0.64999998    2.89000010
   16.08055687  157.18400574    0.64999998    2.89000010
   16.08333397  150.23699951    0.67000002    2.91000009
   16.08666801  150.41900635    0.67000002    2.89000010
   16.08972359  142.81300354    0.69000000    2.89000010
   16.09305573  143.47099304    0.73000002    2.89000010
   16.09638977  159.19700623    0.75000000    2.89000010
   16.09944534  144.33099365    0.75000000    2.89000010
   16.10277748  140.59599304    0.79000002    2.91000009
   16.10611153  149.75599670    0.79000002    2.89000010
   16.10916710  148.88600159    0.80000001    2.86999989
   16.11250114  143.95100403    0.80000001    2.89000010
   16.11388969  159.53599548    0.80000001    2.89000010
   16.11861038  159.53599548    0.83999997    2.91000009
   16.12333298  154.33799744    0.86000001    2.89000010
   16.12638855  153.67799377    0.83999997    2.86999989
   16.12972260  155.88400269    0.83999997    2.89000010
   16.13305473  150.07299805    0.83999997    2.89000010
   16.13611031  152.76699829    0.83999997    2.89000010
   16.13944435  161.48699951    0.81999999    2.89000010
   16.14249992  157.68699646    0.76999998    2.89000010
   16.14583397  153.42399597    0.73000002    2.89000010
   16.14722252  157.64100647    0.73000002    2.89000010
   16.14944458  158.50599670    0.69000000    2.89000010
   16.15277672  151.38000488    0.69000000    2.91000009
   16.15583229  150.96099854    0.67000002    2.89000010
   16.16138840  150.96099854    0.67000002    2.91000009
   16.16555595  155.91099548    0.64999998    2.91000009
   16.16860962  142.04499817    0.67000002    2.91000009
   16.17194366  147.79699707    0.69000000    2.89000010
   16.17527771  150.34899902    0.70999998    2.89000010
   16.17833328  162.42199707    0.69000000    2.91000009
   16.18055534  158.91799927    0.69000000    2.91000009
   16.18194389  147.56100464    0.69000000    2.91000009
   16.18527603  154.84199524    0.70999998    2.89000010
   16.18833160  145.00900269    0.70999998    2.89000010
   16.19166565  149.32200623    0.70999998    2.89000010
   16.19499969  154.62300110    0.73000002    2.89000010
   16.19805527  158.78799438    0.76999998    2.86999989
   16.20444489  158.78799438    0.76999998    2.89000010
   16.20861244  149.73599243    0.75000000    2.89000010
   16.21166801  158.10200500    0.75000000    2.91000009
   16.21389008  154.49200439    0.75000000    2.91000009
   16.21527863  147.79200745    0.75000000    2.89000010
   16.21861076  158.12699890    0.75000000    2.89000010
   16.22166634  140.28599548    0.79000002    2.89000010
   16.22500038  153.02799988    0.75000000    2.89000010
   16.22833443  144.66299438    0.70999998    2.89000010
   16.23139000  143.66200256    0.70999998    2.91000009
   16.23472214  144.38400269    0.70999998    2.89000010
   16.23777771  142.27600098    0.70999998    2.89000010
   16.24111176  155.20100403    0.70999998    2.89000010
   16.24694443  155.20100403    0.70999998    2.91000009
   16.25111198  150.76699829    0.70999998    2.89000010
   16.25444412  150.08399963    0.70999998    2.89000010
   16.25777817  139.65199280    0.69000000    2.86999989
   16.26083374  159.10600281    0.67000002    2.89000010
   16.26416588  154.59300232    0.67000002    2.89000010
   16.26722145  147.07800293    0.64999998    2.91000009
   16.27083397  158.94700623    0.64999998    2.91000009
   16.27388954  149.07200623    0.64999998    2.91000009
   16.27722168  143.41799927    0.63000000    2.89000010
   16.28055573  155.27499390    0.63000000    2.89000010
   16.28194427  142.68400574    0.67000002    2.89000010
   16.28388786  157.77699280    0.67000002    2.89000010
   16.28999901  157.77699280    0.75000000    2.89000010
   16.29416656  149.62300110    0.76999998    2.89000010
   16.29722214  148.75900269    0.79000002    2.89000010
   16.30055428  153.01300049    0.80000001    2.89000010
   16.30388832  143.68699646    0.76999998    2.91000009
   16.30694389  148.80400085    0.76999998    2.91000009
   16.31027794  144.98399353    0.76999998    2.89000010
   16.31333351  146.60800171    0.76999998    2.86999989
   16.31527710  144.41299438    0.75000000    2.86999989
   16.31694603  146.74200439    0.75000000    2.86999989
   16.32027817  147.87800598    0.70999998    2.89000010
   16.32333374  154.25300598    0.69000000    2.91000009
   16.32666779  160.04600525    0.67000002    2.89000010
   16.33277893  160.04600525    0.64999998    2.91000009
   16.33694458  140.63999939    0.61000001    2.91000009
   16.34000015  141.73199463    0.61000001    2.91000009
   16.34333420  135.62300110    0.58999997    2.91000009
   16.34666824  150.90400696    0.58999997    2.91000009
   16.34889030  153.33900452    0.56999999    2.91000009
   16.35027885  153.75000000    0.56999999    2.91000009
   16.35333443  144.14199829    0.56999999    2.89000010
   16.35666656  147.10800171    0.56999999    2.91000009
   16.36000061  137.32699585    0.56999999    2.91000009
   16.36305618  150.97900391    0.56999999    2.91000009
   16.36638832  132.17599487    0.55000001    2.91000009
   16.36972237  141.11500549    0.55000001    2.91000009
   16.37555504  141.11500549    0.56999999    2.91000009
   16.37972260  140.74200439    0.56999999    2.91000009
   16.38222313  142.28700256    0.56999999    2.91000009
   16.38333321  145.33900452    0.56999999    2.91000009
   16.38638878  146.60400391    0.56999999    2.91000009
   16.38972282  140.44700623    0.56999999    2.91000009
   16.39305496  143.55200195    0.55000001    2.91000009
   16.39611053  192.75500488    0.52999997    2.91000009
   16.39944458  145.25000000    0.52999997    2.91000009
   16.40277672  140.12899780    0.52999997    2.91000009
   16.40583229  154.95899963    0.52999997    2.91000009
   16.40916634  163.39199829    0.52999997    2.91000009
   16.41250038  144.81399536    0.52999997    2.91000009
   16.41833305  144.81399536    0.56999999    2.91000009
   16.42249870  135.61500549    0.58999997    2.91000009
   16.42583275  132.71800232    0.61000001    2.91000009
   16.42888832  146.25399780    0.63000000    2.91000009
   16.43222237  153.54899597    0.64999998    2.91000009
   16.43555450  136.41600037    0.64999998    2.89000010
   16.43861008  135.94200134    0.64999998    2.89000010
   16.44194412  155.04400635    0.67000002    2.86999989
   16.44527626  143.92900085    0.69000000    2.91000009
   16.44833183  147.75599670    0.69000000    2.91000009
   16.44944382  146.24299622    0.69000000    2.91000009
   16.45194435  150.61599731    0.69000000    2.91000009
   16.45527840  140.74200439    0.69000000    2.91000009
   16.46138954  140.74200439    0.70999998    2.91000009
   16.46527863  137.69299316    0.70999998    2.89000010
   16.46861076  147.33200073    0.73000002    2.89000010
   16.47194481  140.13099670    0.73000002    2.89000010
   16.47527885  150.11300659    0.73000002    2.89000010
   16.47833443  148.21000671    0.75000000    2.91000009
   16.48166656  146.27499390    0.70999998    2.91000009
   16.48277855  143.42900085    0.70999998    2.91000009
   16.48500061  154.93099976    0.70999998    2.89000010
   16.48833275  150.19500732    0.70999998    2.91000009
   16.49166679  144.85400391    0.70999998    2.91000009
   16.49472237  143.58599854    0.70999998    2.91000009
   16.49805641  146.98300171    0.69000000    2.91000009
   16.50416756  146.98300171    0.67000002    2.89000010
   16.50833321  151.10699463    0.67000002    2.91000009
   16.51138878  147.20399475    0.64999998    2.91000009
   16.51472282  142.87699890    0.64999998    2.91000009
   16.51611137  146.33500671    0.64999998    2.91000009
   16.51833344  147.41799927    0.67000002    2.89000010
   16.52166557  142.84100342    0.67000002    2.89000010
   16.52472115  147.14599609    0.67000002    2.91000009
   16.52805519  139.58599854    0.67000002    2.91000009
   16.53138924  141.24299622    0.64999998    2.89000010
   16.53444481  145.18200684    0.63000000    2.89000010
   16.53777695  141.78799438    0.61000001    2.91000009
   16.54083252  144.95599365    0.61000001    2.89000010
   16.54694366  144.95599365    0.58999997    2.91000009
   16.56527710  160.77400208    0.56999999    2.91000009
   16.56861115  151.23399353    0.56999999    2.91000009
   16.57194519  147.60400391    0.58999997    2.91000009
   16.57500076  149.00599670    0.58999997    2.91000009
   16.57833481  146.74400330    0.58999997    2.91000009
   16.58139038  146.15100098    0.61000001    2.91000009
   16.58472252  132.14999390    0.61000001    2.89000010
   16.59000015  132.14999390    0.61000001    2.89000010
   16.59416771  154.12899780    0.61000001    2.91000009
   16.59749985  145.57800293    0.61000001    2.91000009
   16.59833336  132.30000305    0.61000001    2.91000009
   16.60111237  139.25500488    0.61000001    2.91000009
   16.60416794  141.50999451    0.58999997    2.91000009
   16.60750008  140.24899292    0.56999999    2.91000009
   16.61083412  149.46499634    0.56999999    2.91000009
   16.61388969  151.49499512    0.56999999    2.91000009
   16.61722183  144.70300293    0.56999999    2.91000009
   16.62027740  143.14700317    0.55000001    2.91000009
   16.62361145  141.39100647    0.55000001    2.91000009
   16.62694550  149.58599854    0.52999997    2.91000009
   16.63277817  149.58599854    0.51999998    2.91000009
   16.63694382  145.16600037    0.51999998    2.93000007
   16.64027786  146.19000244    0.51999998    2.93000007
   16.64333344  152.31700134    0.51999998    2.91000009
   16.64666748  142.49600220    0.50000000    2.91000009
   16.64999962  154.79600525    0.50000000    2.91000009
   16.65333366  153.47099304    0.50000000    2.91000009
   16.65638924  150.41499329    0.50000000    2.91000009
   16.65972137  144.17300415    0.50000000    2.91000009
   16.66305542  145.92199707    0.50000000    2.91000009
   16.66499901  149.21200562    0.50000000    2.91000009
   16.66666603  138.91400146    0.51999998    2.91000009
   16.66972160  140.80000305    0.51999998    2.91000009
   16.67583275  140.80000305    0.52999997    2.91000009
   16.67972183  142.30700684    0.52999997    2.91000009
   16.68305397  139.95199585    0.55000001    2.91000009
   16.68638802  136.55900574    0.55000001    2.91000009
   16.68944359  140.32000732    0.55000001    2.91000009
   16.69277763  142.01600647    0.55000001    2.91000009
   16.69610977  143.57400513    0.55000001    2.91000009
   16.69833183  138.49000549    0.55000001    2.91000009
   16.69972038  137.75399780    0.55000001    2.91000009
   16.70277786  144.76800537    0.55000001    2.91000009
   16.70611191  148.08399963    0.55000001    2.91000009
   16.70944595  148.48199463    0.52999997    2.91000009
   16.71250153  151.22099304    0.55000001    2.91000009
   16.71861076  151.22099304    0.55000001    2.91000009
   16.72277832  139.20199585    0.55000001    2.91000009
   16.72583389  143.14700317    0.55000001    2.91000009
   16.72916794  136.11099243    0.55000001    2.91000009
   16.73166656  144.29200745    0.56999999    2.91000009
   16.73277855  145.18299866    0.56999999    2.91000009
   16.73611069  140.97099304    0.58999997    2.91000009
   16.73916626  142.62600708    0.58999997    2.91000009
   16.74250031  141.36700439    0.61000001    2.91000009
   16.74583435  141.20100403    0.63000000    2.91000009
   16.74888992  131.84800720    0.61000001    2.91000009
   16.75222206  135.46400452    0.61000001    2.91000009
   16.75527763  144.77799988    0.58999997    2.91000009
   16.76138878  144.77799988    0.61000001    2.91000009
   16.76555634  142.80400085    0.61000001    2.89000010
   16.76888847  141.96699524    0.61000001    2.91000009
   16.77194405  144.24499512    0.61000001    2.91000009
   16.77527809  140.53100586    0.61000001    2.91000009
   16.77861023  146.64500427    0.61000001    2.91000009
   16.78166580  138.77999878    0.63000000    2.91000009
   16.78499985  142.14900208    0.64999998    2.91000009
   16.78805542  138.98300171    0.64999998    2.91000009
   16.79138756  147.49099731    0.64999998    2.91000009
   16.79472160  146.67999268    0.67000002    2.91000009
   16.79777718  144.60299683    0.70999998    2.91000009
   16.79833221  140.27200317    0.70999998    2.91000009
   16.80416679  140.27200317    0.69000000    2.91000009
   16.80833244  143.96800232    0.69000000    2.91000009
   16.81166649  134.94999695    0.69000000    2.91000009
   16.81499863  133.27000427    0.69000000    2.91000009
   16.81805611  148.38099670    0.69000000    2.91000009
   16.82139015  144.25300598    0.67000002    2.91000009
   16.82444572  150.56700134    0.67000002    2.91000009
   16.82777786  135.77000427    0.67000002    2.91000009
   16.83111191  142.19700623    0.69000000    2.91000009
   16.83166695  140.01199341    0.69000000    2.91000009
   16.83472252  138.07600403    0.70999998    2.91000009
   16.83777809  141.87300110    0.73000002    2.91000009
   16.84111214  146.40699768    0.75000000    2.91000009
   16.84722328  146.40699768    0.76999998    2.91000009
   16.85111237  142.78500366    0.76999998    2.91000009
   16.85444450  142.46000671    0.76999998    2.91000009
   16.85777855  141.01899719    0.76999998    2.91000009
   16.86083412  140.56599426    0.79000002    2.91000009
   16.86416626  139.19700623    0.79000002    2.89000010
   16.86499977  149.81500244    0.79000002    2.89000010
   16.86777878  133.56199646    0.80000001    2.91000009
   16.87083435  152.39199829    0.80000001    2.91000009
   16.87416649  144.40899658    0.81999999    2.89000010
   16.87750053  141.23300171    0.80000001    2.91000009
   16.88055611  150.82699585    0.80000001    2.91000009
   16.88388824  146.35499573    0.80000001    2.91000009
   16.88999939  146.35499573    0.79000002    2.91000009
   16.89416695  138.97500610    0.79000002    2.91000009
   16.89722252  145.29200745    0.79000002    2.91000009
   16.89861107  137.99299622    0.79000002    2.91000009
   16.90111160  137.67300415    0.79000002    2.91000009
   16.90416718  137.28999329    0.76999998    2.89000010
   16.90749931  136.27999878    0.76999998    2.91000009
   16.91055489  134.84300232    0.75000000    2.91000009
   16.91388893  130.42999268    0.75000000    2.91000009
   16.91722107  133.65199280    0.76999998    2.91000009
   16.92027664  138.07000732    0.79000002    2.91000009
   16.92361069  135.03100586    0.79000002    2.91000009
   16.92694473  136.37300110    0.79000002    2.91000009
   16.93277740  136.37300110    0.79000002    2.91000009
   16.93694305  136.79899597    0.75000000    2.91000009
   16.94027710  138.57800293    0.75000000    2.91000009
   16.94333267  135.42199707    0.69000000    2.91000009
   16.94666672  133.23699951    0.69000000    2.91000009
   16.94972038  127.27999878    0.67000002    2.91000009
   16.95305634  144.53100586    0.69000000    2.91000009
   16.95639038  151.16400146    0.70999998    2.91000009
   16.95944595  141.08200073    0.73000002    2.91000009
   16.96277809  142.67700195    0.73000002    2.91000009
   16.96500015  142.19099426    0.73000002    2.91000009
   16.96638870  142.02299500    0.73000002    2.91000009
   16.96972275  140.55000305    0.73000002    2.91000009
   16.97555542  140.55000305    0.70999998    2.89000010
   16.97972298  137.50399780    0.70999998    2.91000009
   16.98305511  145.83999634    0.70999998    2.91000009
   16.98611069  139.73500061    0.70999998    2.91000009
   16.98944473  146.83500671    0.70999998    2.91000009
   16.99277878  141.53799438    0.70999998    2.91000009
   16.99583435  143.68800354    0.69000000    2.91000009
   16.99833298  143.59899902    0.67000002    2.91000009
   16.99944496  142.19599915    0.67000002    2.91000009
   17.00277710  149.43499756    0.64999998    2.91000009
   17.00583267  143.21000671    0.64999998    2.91000009
   17.00916672  141.71099854    0.64999998    2.91000009
   17.01222229  145.78999329    0.67000002    2.91000009
   17.01861000  145.78999329    0.67000002    2.91000009
   17.02249908  144.53199768    0.67000002    2.91000009
   17.02583313  138.23599243    0.67000002    2.91000009
   17.02916718  141.01300049    0.67000002    2.91000009
   17.03166580  135.21499634    0.69000000    2.91000009
   17.03277779  135.39300537    0.69000000    2.91000009
   17.03610992  134.72200012    0.70999998    2.91000009
   17.03916550  142.63499451    0.70999998    2.89000010
   17.04249954  139.63200378    0.73000002    2.91000009
   17.04555511  145.70500183    0.73000002    2.91000009
   17.04888916  141.31399536    0.70999998    2.91000009
   17.05222130  142.28300476    0.70999998    2.91000009
   17.05527687  143.58900452    0.70999998    2.91000009
   17.06138802  143.58900452    0.70999998    2.91000009
   17.06555557  141.57699585    0.73000002    2.91000009
   17.06861115  142.52000427    0.70999998    2.91000009
   17.07194519  139.46000671    0.70999998    2.91000009
   17.07527924  149.92900085    0.70999998    2.91000009
   17.07833481  147.54899597    0.73000002    2.91000009
   17.08166695  147.46200562    0.73000002    2.91000009
   17.08500099  147.37899780    0.75000000    2.89000010
   17.08805656  148.20199585    0.76999998    2.91000009
   17.09138870  142.28999329    0.76999998    2.91000009
   17.09472275  147.05999756    0.75000000    2.91000009
   17.09777832  144.37500000    0.73000002    2.91000009
   17.09833336  149.56199646    0.73000002    2.91000009
   17.10416794  149.56199646    0.75000000    2.91000009
   17.10833359  138.96800232    0.75000000    2.91000009
   17.11166763  140.18699646    0.75000000    2.89000010
   17.11472321  146.44599915    0.75000000    2.89000010
   17.11805534  149.50000000    0.75000000    2.89000010
   17.12111092  144.93699646    0.75000000    2.91000009
   17.12444496  147.75300598    0.75000000    2.91000009
   17.12777710  156.66799927    0.75000000    2.91000009
   17.13083267  144.90100098    0.73000002    2.91000009
   17.13166618  144.69900513    0.73000002    2.91000009
   17.13444519  153.93600464    0.73000002    2.91000009
   17.13777733  144.98899841    0.73000002    2.91000009
   17.14083290  150.87699890    0.70999998    2.91000009
   17.14694405  150.87699890    0.73000002    2.91000009
   17.15111160  144.52099609    0.73000002    2.91000009
   17.15444374  144.48100281    0.73000002    2.91000009
   17.15749931  147.68699646    0.75000000    2.89000010
   17.16083336  152.51199341    0.75000000    2.91000009
   17.16416550  150.40600586    0.76999998    2.89000010
   17.16499901  143.25700378    0.76999998    2.89000010
   17.16777802  143.27299500    0.76999998    2.89000010
   17.17111015  143.33399963    0.79000002    2.91000009
   17.17416573  149.51300049    0.79000002    2.91000009
   17.17749977  150.53100586    0.80000001    2.91000009
   17.18055534  144.90299988    0.80000001    2.89000010
   17.18388748  137.77600098    0.80000001    2.91000009
   17.18972206  137.77600098    0.79000002    2.91000009
   17.19388771  145.16099548    0.81999999    2.91000009
   17.19722176  149.76800537    0.81999999    2.89000010
   17.19833183  147.77799988    0.81999999    2.89000010
   17.20083427  151.24899292    0.81999999    2.91000009
   17.20416832  149.60000610    0.81999999    2.91000009
   17.20722389  151.84300232    0.81999999    2.91000009
   17.21055603  151.66099548    0.81999999    2.91000009
   17.21361160  154.07699585    0.81999999    2.91000009
   17.21694565  148.66600037    0.79000002    2.89000010
   17.22027779  146.16999817    0.79000002    2.91000009
   17.22333336  150.41200256    0.79000002    2.89000010
   17.22666740  151.06599426    0.79000002    2.91000009
   17.23277855  151.06599426    0.79000002    2.89000010
   17.23694420  147.55599976    0.79000002    2.89000010
   17.23999977  145.08000183    0.76999998    2.91000009
   17.24333382  147.80499268    0.76999998    2.91000009
   17.24666786  145.03599548    0.79000002    2.89000010
   17.24972153  146.60800171    0.79000002    2.89000010
   17.25305557  144.82000732    0.76999998    2.91000009
   17.25611115  142.43200684    0.76999998    2.91000009
   17.25944519  146.31799316    0.76999998    2.91000009
   17.26277733  147.26100159    0.79000002    2.91000009
   17.26499939  144.14599609    0.79000002    2.91000009
   17.26638794  140.94999695    0.79000002    2.91000009
   17.26972198  130.19799805    0.79000002    2.89000010
   17.27555466  130.19799805    0.81999999    2.91000009
   17.27972221  140.14900208    0.81999999    2.89000010
   17.28305435  143.95199585    0.81999999    2.89000010
   17.28610992  141.95799255    0.80000001    2.91000009
   17.28944397  146.76199341    0.80000001    2.91000009
   17.29277802  143.27000427    0.80000001    2.91000009
   17.29583359  150.42500305    0.80000001    2.91000009
   17.29833221  141.47599792    0.79000002    2.91000009
   17.29944420  139.65699768    0.79000002    2.91000009
   17.30277634  147.26199341    0.79000002    2.91000009
   17.30583191  147.08299255    0.79000002    2.91000009
   17.30916595  142.25900269    0.79000002    2.91000009
   17.31222153  137.67100525    0.83999997    2.89000010
   17.31833458  137.67100525    0.89999998    2.91000009
   17.32250023  147.69299316    0.88000000    2.89000010
   17.32583427  142.76899719    0.86000001    2.89000010
   17.32888985  139.40400696    0.83999997    2.89000010
   17.33166695  137.66600037    0.83999997    2.89000010
   17.33250046  140.14999390    0.83999997    2.89000010
   17.33583450  138.92799377    0.86000001    2.89000010
   17.33889008  146.69299316    0.88000000    2.91000009
   17.34222221  150.99800110    0.86000001    2.89000010
   17.34527779  154.82299805    0.83999997    2.89000010
   17.34861183  143.93299866    0.83999997    2.91000009
   17.35194397  146.73300171    0.81999999    2.91000009
   17.35499954  152.29100037    0.81999999    2.91000009
   17.36111069  152.29100037    0.81999999    2.89000010
   17.36527824  141.19500732    0.81999999    2.91000009
   17.36861038  145.24800110    0.80000001    2.89000010
   17.37194443  147.83500671    0.80000001    2.89000010
   17.37500000  151.69500732    0.80000001    2.89000010
   17.37833405  136.93899536    0.80000001    2.91000009
   17.38138962  145.82699585    0.80000001    2.89000010
   17.38472176  152.21299744    0.81999999    2.89000010
   17.38805580  144.86199951    0.81999999    2.89000010
   17.39111137  137.11000061    0.80000001    2.91000009
   17.39444351  139.23500061    0.80000001    2.86999989
   17.39777756  143.56100464    0.81999999    2.91000009
   17.39833260  138.60800171    0.81999999    2.91000009
   17.40416718  138.60800171    0.81999999    2.89000010
   17.40833282  145.66999817    0.81999999    2.91000009
   17.41138840  148.78199768    0.81999999    2.91000009
   17.41472244  145.55499268    0.83999997    2.91000009
   17.41805458  138.95899963    0.83999997    2.89000010
   17.42111015  142.64500427    0.81999999    2.91000009
   17.42444420  147.13400269    0.80000001    2.91000009
   17.42777634  140.65699768    0.80000001    2.91000009
   17.43083191  143.76400757    0.80000001    2.91000009
   17.43166542  148.41400146    0.80000001    2.89000010
   17.43444443  143.65100098    0.81999999    2.89000010
   17.43777657  141.39399719    0.81999999    2.91000009
   17.44083214  139.99499512    0.83999997    2.91000009
   17.44694328  139.99499512    1.01999998    2.91000009
   17.45111275  133.03399658    0.94000000    2.91000009
   17.45416832  144.06399536    0.88000000    2.91000009
   17.45750046  147.77699280    0.89999998    2.91000009
   17.46083450  142.72300720    0.88000000    2.89000010
   17.46389008  136.97700500    0.88000000    2.89000010
   17.46500015  136.22099304    0.88000000    2.89000010
   17.46750069  140.16000366    0.86000001    2.91000009
   17.47083473  142.85200500    0.88000000    2.91000009
   17.47389030  138.35400391    0.83999997    2.91000009
   17.47722244  138.00999451    0.83999997    2.91000009
   17.48055649  142.30400085    0.81999999    2.91000009
   17.48361206  139.94299316    0.80000001    2.89000010
   17.48972321  139.94299316    0.80000001    2.91000009
   17.49388885  147.11999512    0.80000001    2.91000009
   17.49722290  146.30400085    0.80000001    2.91000009
   17.49833298  143.86999512    0.80000001    2.91000009
   17.50083351  145.31799316    0.80000001    2.89000010
   17.50416756  145.81100464    0.80000001    2.91000009
   17.50722313  135.09300232    0.81999999    2.91000009
   17.51055527  144.90800476    0.81999999    2.91000009
   17.51388931  142.30900574    0.81999999    2.91000009
   17.51694489  136.38099670    0.80000001    2.89000010
   17.52027702  147.00799561    0.80000001    2.91000009
   17.52333260  149.51400757    0.80000001    2.89000010
   17.52666664  146.30099487    0.80000001    2.91000009
   17.53249931  146.30099487    0.81999999    2.91000009
   17.53666687  143.47099304    0.81999999    2.91000009
   17.53999901  144.30200195    0.81999999    2.91000009
   17.54333305  147.90100098    0.81999999    2.91000009
   17.54638863  148.82699585    0.83999997    2.91000009
   17.54972076  139.44000244    0.83999997    2.89000010
   17.55277634  148.94400024    0.83999997    2.89000010
   17.55611038  140.28999329    0.83999997    2.91000009
   17.55944443  145.69799805    0.83999997    2.91000009
   17.56250000  141.71400452    0.83999997    2.91000009
   17.56527710  152.68699646    0.83999997    2.91000009
   17.58583450  152.68699646    0.83999997    2.91000009
   17.59000015  145.03199768    0.83999997    2.91000009
   17.59305573  143.63600159    0.83999997    2.91000009
   17.59638977  144.86399841    0.83999997    2.91000009
   17.59861183  144.08399963    0.83999997    2.91000009
   17.60000038  145.71099854    0.83999997    2.91000009
   17.60333443  140.02699280    0.83999997    2.89000010
   17.60666656  138.97799683    0.83999997    2.91000009
   17.60972214  145.25700378    0.83999997    2.89000010
   17.61305618  143.97200012    0.83999997    2.91000009
   17.61638832  144.63999939    0.83999997    2.89000010
   17.61944389  146.77200317    0.83999997    2.91000009
   17.62277794  138.59599304    0.86000001    2.91000009
   17.62861061  138.59599304    0.86000001    2.91000009
   17.63249969  145.01800537    0.86000001    2.89000010
   17.63583374  142.80099487    0.86000001    2.91000009
   17.63916588  143.69099426    0.86000001    2.91000009
   17.64222145  144.10400391    0.86000001    2.91000009
   17.64555550  144.59500122    0.86000001    2.91000009
   17.64888954  147.23500061    0.86000001    2.91000009
   17.65194321  139.75199890    0.86000001    2.91000009
   17.65527725  148.75500488    0.86000001    2.91000009
   17.65833282  149.17199707    0.88000000    2.91000009
   17.66166687  142.94299316    0.88000000    2.91000009
   17.66499901  143.59899902    0.89999998    2.91000009
   17.66527748  142.89900208    0.88000000    2.91000009
   17.67138863  142.89900208    0.88000000    2.91000009
   17.67555428  137.42700195    0.88000000    2.91000009
   17.67860985  141.13299561    0.89999998    2.91000009
   17.68194389  146.18299866    0.88000000    2.91000009
   17.68527603  137.01300049    0.89999998    2.91000009
   17.68833160  141.89599609    0.89999998    2.91000009
   17.69166565  143.39199829    0.92000002    2.91000009
   17.69472122  139.57000732    0.92000002    2.91000009
   17.69805527  136.97999573    0.92000002    2.93000007
   17.69861031  143.40800476    0.92000002    2.89000010
   17.70166779  136.46899414    0.92000002    2.91000009
   17.70499992  138.32600403    0.92000002    2.91000009
   17.70805550  146.60699463    0.92000002    2.89000010
   17.71416664  146.60699463    0.94000000    2.91000009
   17.71833420  142.40499878    0.95999998    2.91000009
   17.72138977  143.91400146    0.95999998    2.89000010
   17.72472191  150.68400574    0.95999998    2.89000010
   17.72805595  140.03399658    0.95999998    2.89000010
   17.73111153  137.90800476    0.95999998    2.91000009
   17.73194504  147.94799805    0.95999998    2.89000010
   17.73472214  142.13299561    0.94000000    2.89000010
   17.73805618  145.92999268    0.94000000    2.89000010
   17.74111176  144.30900574    0.95999998    2.91000009
   17.74444389  139.87600708    0.95999998    2.89000010
   17.74749947  138.31799316    0.95999998    2.91000009
   17.75083351  143.97000122    0.95999998    2.91000009
   17.75694466  143.97000122    1.01999998    2.89000010
   17.76111031  130.88900757    1.00000000    2.89000010
   17.76444435  141.28700256    1.00000000    2.89000010
   17.76527786  136.79699707    1.00000000    2.89000010
   17.76805496  137.47200012    1.00000000    2.86999989
   17.77138901  143.35699463    1.00000000    2.89000010
   17.77444458  146.96800232    1.00000000    2.91000009
   17.77777672  146.98100281    1.00000000    2.91000009
   17.78111076  153.23899841    1.00000000    2.91000009
   17.78416634  153.52699280    1.00000000    2.91000009
   17.78750038  158.05599976    1.00000000    2.91000009
   17.79055595  164.45399475    1.00000000    2.89000010
   17.79388809  153.08999634    1.00000000    2.89000010
   17.79972076  153.08999634    0.98000002    2.89000010
   17.80388832  152.35299683    0.98000002    2.89000010
   17.80722237  147.06100464    0.98000002    2.89000010
   17.81055450  149.82299805    1.00000000    2.89000010
   17.81361008  148.41600037    1.00000000    2.89000010
   17.81694603  149.34800720    1.00000000    2.89000010
   17.82000160  155.22700500    1.00000000    2.89000010
   17.82333374  149.55499268    1.01999998    2.89000010
   17.82666779  147.88699341    1.00000000    2.91000009
   17.82972336  159.47000122    1.00000000    2.89000010
   17.83194542  147.99099731    1.00000000    2.89000010
   17.83333397  150.73199463    1.00000000    2.89000010
   17.83666801  148.69400024    1.01999998    2.89000010
   17.84277916  148.69400024    1.01999998    2.89000010
   17.84694481  147.36999512    1.01999998    2.89000010
   17.85000038  154.64700317    1.03999996    2.89000010
   17.85333443  144.76899719    1.05999994    2.91000009
   17.85639000  144.34599304    1.05999994    2.89000010
   17.85972214  154.29299927    1.05999994    2.91000009
   17.86305618  144.17100525    1.05999994    2.89000010
   17.86527824  153.75000000    1.05999994    2.89000010
   17.86666679  138.98300171    1.05999994    2.89000010
   17.87000084  159.87100220    1.07000005    2.89000010
   17.87305641  149.94599915    1.07000005    2.86999989
   17.87638855  143.22999573    1.14999998    2.86999989
   17.87972260  149.30599976    1.14999998    2.89000010
   17.88555527  149.30599976    1.09000003    2.89000010
   17.88972282  152.85299683    1.09000003    2.89000010
   17.89277840  154.94999695    1.05999994    2.89000010
   17.89611053  150.11900330    1.05999994    2.89000010
   17.89861107  151.62500000    1.05999994    2.89000010
   17.89972115  141.86900330    1.05999994    2.86999989
   17.90305519  149.16200256    1.05999994    2.89000010
   17.90611076  140.75100708    1.03999996    2.89000010
   17.90944481  142.08700562    1.03999996    2.86999989
   17.91277695  139.43200684    1.03999996    2.91000009
   17.91583252  154.93600464    1.03999996    2.89000010
   17.91916656  149.96400452    1.03999996    2.89000010
   17.92222214  147.15699768    1.03999996    2.86999989
   17.92833328  147.15699768    1.03999996    2.89000010
   17.93249893  165.09700012    1.01999998    2.89000010
   17.93583298  155.81300354    1.03999996    2.86999989
   17.93888855  160.44599915    1.03999996    2.89000010
   17.94222069  155.96299744    1.03999996    2.89000010
   17.94555473  152.50000000    1.05999994    2.89000010
   17.94861031  149.66700745    1.05999994    2.89000010
   17.95194435  151.39799500    1.05999994    2.86999989
   17.95499992  139.94999695    1.09000003    2.91000009
   17.95833397  137.84700012    1.09000003    2.89000010
   17.96166801  153.63900757    1.09000003    2.89000010
   17.96472359  143.16400146    1.11000001    2.89000010
   17.96555710  143.79899597    1.11000001    2.89000010
   17.97111130  143.79899597    1.11000001    2.86999989
   17.97527885  148.34100342    1.11000001    2.86999989
   17.97861099  136.75700378    1.11000001    2.86999989
   17.98194504  137.28900146    1.14999998    2.86999989
   17.98500061  142.75500488    1.14999998    2.86999989
   17.98833275  143.43800354    1.13000000    2.89000010
   17.99138832  136.16600037    1.14999998    2.86999989
   17.99472237  134.43899536    1.13000000    2.89000010
   17.99805641  137.45899963    1.14999998    2.89000010
   17.99861145  134.99400330    1.14999998    2.89000010
   18.00138855  138.45599365    1.11000001    2.86999989
   18.00472260  137.42799377    1.11000001    2.89000010
   18.00777817  144.00100708    1.11000001    2.89000010
   18.01416588  144.00100708    1.11000001    2.86999989
   18.01833344  141.84800720    1.13000000    2.86999989
   18.02138901  133.95899963    1.13000000    2.89000010
   18.02472115  138.11999512    1.13000000    2.86999989
   18.02777672  146.77000427    1.11000001    2.89000010
   18.03111076  142.68099976    1.11000001    2.89000010
   18.03194427  139.67599487    1.11000001    2.89000010
   18.03472137  134.25799561    1.13000000    2.89000010
   18.03805542  138.36599731    1.13000000    2.89000010
   18.04111099  146.37800598    1.13000000    2.89000010
   18.04444313  141.11500549    1.13000000    2.89000010
   18.04777718  147.56100464    1.14999998    2.89000010
   18.05083275  136.13800049    1.14999998    2.86999989
   18.05694389  136.13800049    1.14999998    2.89000010
   18.06110954  133.57400513    1.14999998    2.89000010
   18.06416512  141.76800537    1.14999998    2.89000010
   18.06527710  140.19599915    1.14999998    2.86999989
   18.06777954  137.11399841    1.14999998    2.89000010
   18.07111168  138.24299622    1.14999998    2.89000010
   18.07416725  137.71099854    1.14999998    2.86999989
   18.07750130  140.25799561    1.16999996    2.89000010
   18.08083344  130.77799988    1.19000006    2.86999989
   18.08388901  136.62199402    1.21000004    2.86999989
   18.08722305  142.64599609    1.21000004    2.86999989
   18.09055710  132.35800171    1.19000006    2.86999989
   18.09361267  145.10499573    1.21000004    2.86999989
   18.09972191  145.10499573    1.16999996    2.89000010
   18.10388947  139.16999817    1.16999996    2.89000010
   18.10722351  140.65100098    1.16999996    2.89000010
   18.11027908  139.56100464    1.16999996    2.86999989
   18.11361122  142.75799561    1.16999996    2.86999989
   18.11694527  151.88200378    1.19000006    2.86999989
   18.12000084  145.05900574    1.16999996    2.86999989
   18.12333298  141.33099365    1.19000006    2.89000010
   18.12638855  144.69900513    1.19000006    2.86999989
   18.12972260  146.35000610    1.19000006    2.89000010
   18.13194466  147.97099304    1.16999996    2.89000010
   18.13333321  145.15400696    1.19000006    2.89000010
   18.13666725  140.86300659    1.19000006    2.89000010
   18.14249992  140.86300659    1.19000006    2.86999989
   18.14666748  146.85000610    1.19000006    2.86999989
   18.14999962  133.65699768    1.19000006    2.89000010
   18.15305519  139.47000122    1.21000004    2.86999989
   18.15638924  144.82099915    1.21000004    2.86999989
   18.15972137  140.35099792    1.21000004    2.86999989
   18.16277695  142.02099609    1.21000004    2.89000010
   18.16527748  145.34500122    1.21000004    2.86999989
   18.16638756  135.33999634    1.21000004    2.86999989
   18.16972160  147.18099976    1.21000004    2.86999989
   18.17277718  140.32899475    1.19000006    2.89000010
   18.17611122  138.56199646    1.19000006    2.86999989
   18.17944336  145.74200439    1.19000006    2.86999989
   18.18555450  145.74200439    1.21000004    2.86999989
   18.18944359  153.69099426    1.19000006    2.86999989
   18.19277763  160.28999329    1.21000004    2.86999989
   18.19610977  138.86700439    1.21000004    2.86999989
   18.19861031  135.26800537    1.21000004    2.86999989
   18.19972038  145.74899292    1.21000004    2.89000010
   18.20305634  137.27000427    1.21000004    2.89000010
   18.20611191  137.88499451    1.21000004    2.89000010
   18.20944595  134.01100159    1.21000004    2.86999989
   18.21277809  137.32200623    1.21000004    2.89000010
   18.21583366  141.98100281    1.23000002    2.89000010
   18.21916771  137.82400513    1.23000002    2.86999989
   18.22222328  132.90699768    1.23000002    2.86999989
   18.22833443  132.90699768    1.23000002    2.86999989
   18.23250008  132.33799744    1.23000002    2.86999989
   18.23555565  171.10299683    1.23000002    2.86999989
   18.23888969  145.72999573    1.23000002    2.86999989
   18.24222183  131.74400330    1.23000002    2.89000010
   18.24527740  142.49499512    1.23000002    2.89000010
   18.24861145  134.96499634    1.23000002    2.89000010
   18.25166702  142.15600586    1.25000000    2.89000010
   18.25499916  140.71099854    1.25000000    2.86999989
   18.25833321  146.26899719    1.25000000    2.86999989
   18.26138878  131.52099609    1.23000002    2.86999989
   18.26472282  138.17100525    1.25000000    2.89000010
   18.26527786  139.13099670    1.23000002    2.86999989
   18.27111053  139.13099670    1.25000000    2.86999989
   18.27527809  129.91099548    1.23000002    2.86999989
   18.27861023  135.00700378    1.23000002    2.89000010
   18.28166580  141.73199463    1.23000002    2.86999989
   18.28499985  138.83599854    1.23000002    2.86999989
   18.28833199  138.94599915    1.23000002    2.86999989
   18.29138756  135.77200317    1.23000002    2.86999989
   18.29472160  139.24899292    1.23000002    2.86999989
   18.29805565  140.69599915    1.23000002    2.86999989
   18.29888916  141.92599487    1.23000002    2.86999989
   18.30138779  140.00500488    1.21000004    2.86999989
   18.30472183  133.46600342    1.21000004    2.89000010
   18.30805397  142.68400574    1.21000004    2.89000010
   18.31388855  142.68400574    1.21000004    2.86999989
   18.31805611  136.41799927    1.21000004    2.89000010
   18.32139015  141.34399414    1.21000004    2.86999989
   18.32472229  138.65699768    1.21000004    2.86999989
   18.32777786  139.14500427    1.21000004    2.86999989
   18.33111191  139.72000122    1.21000004    2.86999989
   18.33222389  142.79600525    1.21000004    2.86999989
   18.33444595  139.34700012    1.23000002    2.86999989
   18.33777809  143.57099915    1.23000002    2.86999989
   18.34111214  142.81599426    1.23000002    2.89000010
   18.34416771  142.03500366    1.21000004    2.86999989
   18.34749985  137.37699890    1.23000002    2.86999989
   18.35055542  145.09199524    1.23000002    2.86999989
   18.35694504  145.09199524    1.25000000    2.86999989
   18.36111069  144.01300049    1.25000000    2.89000010
   18.36416626  138.61300659    1.26999998    2.86999989
   18.36555672  141.33900452    1.26999998    2.86999989
   18.36777878  141.93400574    1.26999998    2.86999989
   18.37111092  136.26300049    1.26999998    2.86999989
   18.37444496  134.31399536    1.26999998    2.86999989
   18.37750053  126.52500153    1.28999996    2.86999989
   18.38083267  146.02699280    1.28999996    2.86999989
   18.38416672  136.60400391    1.30999994    2.89000010
   18.38722229  132.41600037    1.30999994    2.89000010
   18.39055634  132.58399963    1.30999994    2.86999989
   18.39388847  130.18499756    1.30999994    2.86999989
   18.39972115  130.18499756    1.28999996    2.86999989
   18.40388870  139.16400146    1.26999998    2.86999989
   18.40694427  142.17799377    1.26999998    2.86999989
   18.41027832  134.35400391    1.26999998    2.89000010
   18.41361046  140.69900513    1.30999994    2.86999989
   18.41666603  132.58999634    1.30999994    2.86999989
   18.42000008  137.02400208    1.36000001    2.89000010
   18.42333221  141.21200562    1.28999996    2.86999989
   18.42638779  142.28900146    1.28999996    2.86999989
   18.42972183  133.57800293    1.28999996    2.86999989
   18.43222237  135.39500427    1.30999994    2.86999989
   18.43305397  145.40699768    1.30999994    2.86999989
   18.43638802  150.96299744    1.30999994    2.86999989
   18.44249916  150.96299744    1.28999996    2.86999989
   18.44666672  139.84700012    1.26999998    2.89000010
   18.45000076  148.19099426    1.25000000    2.89000010
   18.45305634  142.94900513    1.25000000    2.89000010
   18.45639038  139.25700378    1.23000002    2.86999989
   18.45972252  142.70799255    1.23000002    2.86999989
   18.46277809  140.23300171    1.23000002    2.86999989
   18.46555710  137.17500305    1.23000002    2.89000010
   18.46638870  135.52200317    1.23000002    2.86999989
   18.46972275  143.10299683    1.23000002    2.86999989
   18.47277832  135.14799500    1.23000002    2.86999989
   18.47611237  135.04800415    1.25000000    2.89000010
   18.47944450  132.13499451    1.23000002    2.86999989
   18.48527718  132.13499451    1.21000004    2.86999989
   18.48944473  141.77200317    1.21000004    2.89000010
   18.49277878  143.44000244    1.21000004    2.86999989
   18.49583435  146.72900391    1.23000002    2.86999989
   18.49888992  141.91499329    1.23000002    2.86999989
   18.49944496  138.31900024    1.23000002    2.86999989
   18.50277710  145.85299683    1.23000002    2.86999989
   18.50583267  135.75399780    1.23000002    2.86999989
   18.50916672  142.01199341    1.23000002    2.86999989
   18.51250076  142.29400635    1.25000000    2.86999989
   18.51555634  142.97500610    1.25000000    2.86999989
   18.51888847  138.24800110    1.26999998    2.86999989
   18.52222252  137.70700073    1.25000000    2.86999989
   18.52833366  137.70700073    1.26999998    2.86999989
   18.53222275  141.30799866    1.28999996    2.86999989
   18.53555489  138.29699707    1.28999996    2.86999989
   18.53888893  144.60200500    1.28999996    2.86999989
   18.54194450  145.65400696    1.28999996    2.86999989
   18.54527664  149.99200439    1.28999996    2.86999989
   18.54861069  138.30200195    1.28999996    2.86999989
   18.55166626  146.11399841    1.28999996    2.89000010
   18.55499840  137.60299683    1.28999996    2.89000010
   18.55833244  133.02400208    1.28999996    2.86999989
   18.56138802  131.53199768    1.28999996    2.86999989
   18.56472206  141.47700500    1.28999996    2.86999989
   18.56555557  126.33899689    1.28999996    2.86999989
   18.57111168  126.33899689    1.28999996    2.86999989
   18.57527924  137.39399719    1.30999994    2.86999989
   18.57833481  138.09300232    1.30999994    2.86999989
   18.58166695  136.76300049    1.33000004    2.86999989
   18.59916687  135.60400391    1.36000001    2.86999989
   18.60166740  134.83599854    1.36000001    2.86999989
   18.60472298  142.12300110    1.36000001    2.86999989
   18.60805511  127.13099670    1.38000000    2.86999989
   18.61416626  127.13099670    1.66999996    2.86999989
   18.61805534  136.82200623    1.55999994    2.86999989
   18.62138939  134.90100098    1.50000000    2.86999989
   18.62472153  130.54800415    1.34000003    2.86999989
   18.62777710  135.72799683    1.33000004    2.86999989
   18.63111115  135.10600281    1.33000004    2.86999989
   18.63249969  138.70399475    1.33000004    2.86999989
   18.63500023  136.66799927    1.33000004    2.86999989
   18.63805580  134.72500610    1.34000003    2.86999989
   18.64138794  140.10299683    1.36000001    2.86999989
   18.64472198  135.99299622    1.36000001    2.86999989
   18.64777756  133.98500061    1.38000000    2.86999989
   18.65111160  133.97200012    1.41999996    2.86999989
   18.65694427  133.97200012    1.46000004    2.86999989
   18.66110992  135.22000122    1.46000004    2.86999989
   18.66416550  138.64799500    1.46000004    2.86999989
   18.66583252  134.92199707    1.48000002    2.86999989
   18.66805458  140.64599609    1.48000002    2.86999989
   18.67111015  136.13200378    1.46000004    2.86999989
   18.67444420  135.14700317    1.46000004    2.86999989
   18.67777634  138.07200623    1.44000006    2.86999989
   18.68083191  141.35099792    1.41999996    2.86999989
   18.68416595  139.10600281    1.41999996    2.86999989
   18.68722153  133.36700439    1.46000004    2.86999989
   18.69055557  137.56799316    1.46000004    2.86999989
   18.69388771  132.86300659    1.46000004    2.86999989
   18.69972038  132.86300659    1.46000004    2.89000010
   18.70388985  136.31399536    1.46000004    2.86999989
   18.70722389  131.90400696    1.46000004    2.86999989
   18.71027946  138.61900330    1.48000002    2.86999989
   18.71361160  128.19999695    1.51999998    2.86999989
   18.71694565  127.43099976    1.46000004    2.86999989
   18.72000122  136.36799622    1.46000004    2.86999989
   18.72333336  134.16900635    1.48000002    2.86999989
   18.72638893  142.34599304    1.48000002    2.86999989
   18.72972298  138.87100220    1.48000002    2.86999989
   18.73250008  140.38099670    1.50000000    2.86999989
   18.73333359  139.68800354    1.50000000    2.86999989
   18.73638916  128.54899597    1.50000000    2.86999989
   18.74250031  128.54899597    1.51999998    2.84999990
   18.74666786  140.00999451    1.50000000    2.86999989
   18.75000000  139.35899353    1.50000000    2.84999990
   18.75305557  141.93099976    1.50000000    2.86999989
   18.75638962  133.47999573    1.50000000    2.84999990
   18.75972176  139.97399902    1.50000000    2.86999989
   18.76277733  135.61000061    1.50000000    2.86999989
   18.76583290  134.05200195    1.50000000    2.84999990
   18.76666641  133.33999634    1.50000000    2.84999990
   18.76972198  135.06700134    1.51999998    2.86999989
   18.77305603  138.42100525    1.53999996    2.84999990
   18.77611160  134.66900635    1.53999996    2.84999990
   18.77944374  135.14500427    1.51999998    2.86999989
   18.78555489  135.14500427    1.58000004    2.84999990
   18.78944397  134.85000610    1.55999994    2.84999990
   18.79277802  136.15100098    1.60000002    2.84999990
   18.79611015  142.48899841    1.66999996    2.86999989
   18.79916573  146.21400452    1.61000001    2.84999990
   18.79972076  137.35600281    1.58000004    2.86999989
   18.80277634  143.43099976    1.53999996    2.86999989
   18.80611038  139.52099609    1.58000004    2.84999990
   18.80944443  138.71499634    1.61000001    2.84999990
   18.81250000  138.53199768    1.58000004    2.84999990
   18.81583214  143.35800171    1.53999996    2.84999990
   18.81916809  134.50999451    1.58000004    2.84999990
   18.82222366  135.85200500    1.58000004    2.84999990
   18.82833481  135.85200500    1.55999994    2.84999990
   18.83250046  139.62500000    1.53999996    2.84999990
   18.83277893  136.78100586    1.53999996    2.86999989
   18.83611107  134.83000183    1.51999998    2.84999990
   18.83944511  142.83200073    1.51999998    2.84999990
   18.84250069  139.92900085    1.51999998    2.86999989
   18.84583473  142.88699341    1.51999998    2.84999990
   18.84916687  140.10499573    1.51999998    2.84999990
   18.85222244  141.79200745    1.50000000    2.84999990
   18.85555649  140.85299683    1.50000000    2.84999990
   18.85861206  145.24099731    1.50000000    2.86999989
   18.86194420  143.06399536    1.48000002    2.84999990
   18.86527824  140.28999329    1.48000002    2.84999990
   18.86611176  147.84300232    1.46000004    2.84999990
   18.87111092  147.84300232    1.46000004    2.86999989
   18.87527847  146.85899353    1.41999996    2.86999989
   18.87861061  149.64599609    1.44000006    2.84999990
   18.88166618  149.75300598    1.46000004    2.84999990
   18.88500023  148.57699585    1.46000004    2.86999989
   18.88805580  155.00199890    1.46000004    2.84999990
   18.89138794  155.91900635    1.46000004    2.84999990
   18.89472198  151.81599426    1.46000004    2.86999989
   18.89777756  157.49800110    1.46000004    2.84999990
   18.89944458  146.79299927    1.46000004    2.86999989
   18.90138817  154.69200134    1.46000004    2.86999989
   18.90472221  148.76899719    1.46000004    2.84999990
   18.90777779  145.85400391    1.48000002    2.84999990
   18.91388893  145.85400391    1.46000004    2.84999990
   18.91805458  149.54499817    1.46000004    2.84999990
   18.92138863  149.40800476    1.46000004    2.84999990
   18.92444420  148.83999634    1.48000002    2.86999989
   18.92777634  146.13499451    1.48000002    2.84999990
   18.93111038  147.76400757    1.50000000    2.86999989
   18.93277740  141.04200745    1.51999998    2.84999990
   18.93472099  133.11700439    1.51999998    2.84999990
   18.93805504  133.44000244    1.51999998    2.82999992
   18.94111061  140.25500488    1.51999998    2.82999992
   18.94444275  131.16299438    1.53999996    2.84999990
   18.94777679  137.45799255    1.55999994    2.84999990
   18.95083427  140.47099304    1.55999994    2.84999990
   18.95694542  140.47099304    1.58000004    2.84999990
   18.96083450  147.78399658    1.58000004    2.84999990
   18.96416664  143.52799988    1.58000004    2.82999992
   18.96611214  150.40800476    1.60000002    2.84999990
   18.96777916  141.07200623    1.60000002    2.84999990
   18.97111130  145.04600525    1.58000004    2.84999990
   18.97416687  157.08500671    1.58000004    2.84999990
   18.97750092  136.54100037    1.58000004    2.82999992
   18.98083305  148.18299866    1.58000004    2.82999992
   18.98388863  148.35600281    1.55999994    2.84999990
   18.98722267  151.18800354    1.55999994    2.84999990
   18.99055672  144.57099915    1.51999998    2.86999989
   18.99361229  142.80700684    1.51999998    2.84999990
   18.99972153  142.80700684    1.51999998    2.84999990
   19.00388908  144.71200562    1.51999998    2.84999990
   19.00749969  151.65800476    1.53999996    2.84999990
   19.01055527  144.08799744    1.51999998    2.84999990
   19.01388931  140.76199341    1.53999996    2.84999990
   19.01694489  141.74800110    1.53999996    2.84999990
   19.02027702  141.20799255    1.53999996    2.84999990
   19.02361107  146.50700378    1.53999996    2.84999990
   19.02666664  148.32000732    1.53999996    2.82999992
   19.03000069  151.64799500    1.53999996    2.84999990
   19.03305435  153.00300598    1.53999996    2.84999990
   19.03361130  152.73199463    1.53999996    2.84999990
   19.03694344  148.21200562    1.53999996    2.84999990
   19.04249954  148.21200562    1.53999996    2.84999990
   19.04666710  148.41900635    1.53999996    2.84999990
   19.04999924  140.58799744    1.53999996    2.84999990
   19.05305481  143.15899658    1.55999994    2.84999990
   19.05638885  140.40299988    1.55999994    2.84999990
   19.05944443  147.06300354    1.58000004    2.84999990
   19.06277657  152.56399536    1.60000002    2.82999992
   19.06611061  152.98500061    1.61000001    2.84999990
   19.06638718  144.78799438    1.61000001    2.84999990
   19.06972313  153.12800598    1.63000000    2.82999992
   19.07305717  153.07899475    1.63000000    2.84999990
   19.07611275  160.75799561    1.63000000    2.84999990
   19.07944489  160.58299255    1.66999996    2.82999992
   19.08527756  160.58299255    1.64999998    2.84999990
   19.08944511  166.37899780    1.64999998    2.84999990
   19.09277916  164.82699585    1.64999998    2.84999990
   19.09583473  161.81799316    1.64999998    2.82999992
   19.09916687  160.24099731    1.64999998    2.82999992
   19.09972191  161.68099976    1.64999998    2.82999992
   19.10277748  157.36900330    1.64999998    2.84999990
   19.10611153  162.79600525    1.64999998    2.84999990
   19.10916710  154.47399902    1.64999998    2.84999990
   19.11250114  157.25300598    1.66999996    2.84999990
   19.11583328  159.43200684    1.66999996    2.82999992
   19.11888885  164.84199524    1.66999996    2.84999990
   19.12222290  152.94999695    1.66999996    2.84999990
   19.12833405  152.94999695    1.75000000    2.84999990
   19.13222313  151.02799988    1.73000002    2.84999990
   19.13305473  149.30799866    1.73000002    2.84999990
   19.13583374  158.00500488    1.73000002    2.84999990
   19.13916588  159.06599426    1.71000004    2.82999992
   19.14249992  151.38900757    1.71000004    2.84999990
   19.14583397  147.69900513    1.71000004    2.84999990
   19.14916611  149.69900513    1.71000004    2.84999990
   19.15222168  153.24600220    1.69000006    2.84999990
   19.15555573  157.81199646    1.66999996    2.84999990
   19.15861130  152.61500549    1.66999996    2.84999990
   19.16194344  157.48300171    1.69000006    2.84999990
   19.16527748  154.12800598    1.69000006    2.84999990
   19.16666603  151.12800598    1.69000006    2.82999992
   19.17111015  151.12800598    1.71000004    2.82999992
   19.17527771  152.94000244    1.71000004    2.84999990
   19.17833328  152.37300110    1.71000004    2.82999992
   19.18166542  156.29699707    1.71000004    2.84999990
   19.18499947  151.42900085    1.71000004    2.84999990
   19.18805504  149.50999451    1.69000006    2.84999990
   19.19138718  152.04699707    1.69000006    2.84999990
   19.19444275  152.35400391    1.71000004    2.84999990
   19.19777679  165.74499512    1.71000004    2.82999992
   19.20000076  157.99899292    1.71000004    2.82999992
   19.20138931  154.24000549    1.71000004    2.84999990
   19.20472336  159.52099609    1.73000002    2.82999992
   19.20805550  169.17599487    1.73000002    2.82999992
   19.21389008  169.17599487    1.75000000    2.82999992
   19.21805573  160.47000122    1.75000000    2.84999990
   19.22138977  152.92599487    1.76999998    2.84999990
   19.22444534  162.59399414    1.76999998    2.82999992
   19.22777748  169.97300720    1.78999996    2.82999992
   19.23083305  162.60299683    1.78999996    2.82999992
   19.23333359  160.22399902    1.80999994    2.82999992
   19.23444557  162.02600098    1.80999994    2.82999992
   19.23777771  169.63099670    1.80999994    2.82999992
   19.24083328  158.96400452    1.80999994    2.82999992
   19.24416733  164.28399658    1.80999994    2.84999990
   19.24749947  156.52600098    1.80999994    2.82999992
   19.25055504  165.75700378    1.80999994    2.82999992
   19.25666618  165.75700378    1.78999996    2.84999990
   19.26083374  162.85299683    1.78999996    2.84999990
   19.26416588  162.61500549    1.78999996    2.84999990
   19.26666641  169.10899353    1.78999996    2.84999990
   19.26777840  168.16400146    1.78999996    2.84999990
   19.27111053  169.22200012    1.83000004    2.84999990
   19.27416611  154.53500366    1.94000006    2.84999990
   19.27750015  162.72000122    2.05999994    2.84999990
   19.28083229  157.76800537    2.00000000    2.82999992
   19.28388786  157.57699585    2.01999998    2.82999992
   19.28722191  166.72300720    1.91999996    2.82999992
   19.29055595  169.26199341    1.91999996    2.82999992
   19.29361153  157.94500732    1.91999996    2.84999990
   19.29972076  157.94500732    1.89999998    2.82999992
   19.30360985  168.55099487    1.86000001    2.84999990
   19.30694389  165.21600342    1.88000000    2.82999992
   19.31027794  156.16000366    1.86000001    2.82999992
   19.31333351  159.56700134    1.85000002    2.82999992
   19.31666756  161.09100342    4.90999985    2.91000009
   19.32000160  153.53599548    0.17000000    0.79000002
   19.32305717  161.48599243    0.09000000    0.41999999
   19.32638931  163.30000305    0.09000000    0.41999999
   19.32944489  156.15800476    0.09000000    0.41999999
   19.33277893  155.22999573    0.09000000    0.41999999
   19.33472252  160.43299866    0.09000000    0.41999999
   19.33638954  157.49400330    0.09000000    0.41999999
   19.34250069  157.49400330    0.09000000    0.41999999
   19.34666824  151.50399780    0.09000000    0.41999999
   19.34972191  162.44599915    0.09000000    0.41999999
   19.35305595  148.78500366    0.09000000    0.41999999
   19.35639000  151.09800720    0.09000000    0.41999999
   19.35944557  149.19299316    0.09000000    0.41999999
   19.36277771  151.27099609    0.09000000    0.41999999
   19.36583328  159.90699768    0.09000000    0.41999999
   19.36805534  150.79200745    0.09000000    0.41999999
   19.36944389  157.57000732    0.09000000    0.41999999
   19.37277794  154.98199463    0.09000000    0.41999999
   19.37611198  152.33000183    0.09000000    0.41999999
   19.37916756  158.72500610    0.09000000    0.41999999
   19.38527679  158.72500610    0.09000000    0.41999999
   19.38944435  149.23699951    0.09000000    0.41999999
   19.39277840  152.80200195    0.09000000    0.41999999
   19.39583397  153.19500732    0.09000000    0.41999999
   19.39916611  156.25700378    0.09000000    0.41999999
   19.40138817  155.70899963    0.09000000    0.41999999
   19.40277672  155.61000061    0.09000000    0.41999999
   19.40611076  151.19099426    0.09000000    0.41999999
   19.40916634  161.75300598    0.09000000    0.41999999
   19.41250038  152.36099243    0.09000000    0.41999999
   19.41555595  162.92799377    0.09000000    0.41999999
   19.41888809  152.79100037    0.09000000    0.41999999
   19.42222214  159.51400757    0.09000000    0.41999999
   19.42805481  159.51400757    0.09000000    0.41999999
   19.43222237  152.61500549    0.09000000    0.41999999
   19.43472099  151.13299561    0.09000000    0.41999999
   19.43583298  160.27999878    0.09000000    0.41999999
   19.43916512  152.62399292    0.09000000    0.41999999
   19.44222069  159.41299438    0.09000000    0.41999999
   19.44555473  152.56599426    0.09000000    0.41999999
   19.44861031  158.39199829    0.09000000    0.41999999
   19.45194435  162.06500244    0.09000000    0.41999999
   19.45527840  158.53999329    0.09000000    0.41999999
   19.45833397  157.88699341    0.09000000    0.41999999
   19.46166801  155.00399780    0.09000000    0.41999999
   19.46500015  160.25999451    0.09000000    0.41999999
   19.47111130  160.25999451    0.09000000    0.41999999
   19.47527885  153.47200012    0.09000000    0.41999999
   19.47833443  151.72200012    0.09000000    0.41999999
   19.48166656  145.68899536    0.09000000    0.41999999
   19.48472214  145.00300598    0.09000000    0.41999999
   19.48805618  146.36000061    0.09000000    0.41999999
   19.49138832  156.48500061    0.09000000    0.41999999
   19.49472237  147.33599854    0.09000000    0.41999999
   19.49777794  150.96800232    0.09000000    0.41999999
   19.50111198  150.60800171    0.09000000    0.41999999
   19.50194359  150.58200073    0.09000000    0.41999999
   19.50472260  152.93099976    0.09000000    0.41999999
   19.50777817  155.57899475    0.09000000    0.41999999
   19.51388931  155.57899475    0.09000000    0.41999999
   19.51805496  149.47099304    0.09000000    0.41999999
   19.52111053  151.24200439    0.09000000    0.41999999
   19.52444458  152.08200073    0.09000000    0.41999999
   19.52777672  155.48100281    0.09000000    0.41999999
   19.53083229  153.60400391    0.09000000    0.41999999
   19.53416634  146.46099854    0.09000000    0.41999999
   19.53527641  152.08700562    0.09000000    0.41999999
   19.53777695  146.14500427    0.09000000    0.41999999
   19.54083252  153.76600647    0.09000000    0.41999999
   19.54416656  145.08299255    0.09000000    0.41999999
   19.54722214  145.62300110    0.09000000    0.41999999
   19.55055428  146.63999939    0.09000000    0.41999999
   19.55666542  146.63999939    0.09000000    0.41999999
   19.56083298  148.87800598    0.09000000    0.41999999
   19.56416512  150.16000366    0.09000000    0.41999999
   19.56722260  147.29200745    0.09000000    0.41999999
   19.56888962  143.49499512    0.09000000    0.41999999
   19.57083511  147.75700378    0.09000000    0.41999999
   19.57416725  145.48899841    0.09000000    0.41999999
   19.57750130  145.79100037    0.09000000    0.41999999
   19.58055687  143.91400146    0.09000000    0.41999999
   19.58388901  150.64900208    0.09000000    0.41999999
   19.58722305  148.85800171    0.09000000    0.41999999
   19.59027863  145.10400391    0.09000000    0.41999999
   19.59361267  148.49499512    0.09000000    0.41999999
   19.59944534  148.49499512    0.09000000    0.41999999
   19.61805534  167.97700500    0.09000000    0.41999999
   19.62111092  169.43800354    0.09000000    0.41999999
   19.62444496  177.58999634    0.09000000    0.41999999
   19.62750053  176.22500610    0.09000000    0.41999999
   19.63083267  197.49800110    0.09000000    0.41999999
   19.63444519  199.33799744    0.09000000    0.41999999
   19.63750076  183.99099731    0.09000000    0.41999999
   19.64249992  183.99099731    0.09000000    0.41999999
   19.64666748  191.24299622    0.09000000    0.41999999
   19.64999962  187.69500732    0.09000000    0.41999999
   19.65083313  193.70500183    0.09000000    0.41999999
   19.65361023  185.75799561    0.09000000    0.41999999
   19.65694427  188.23500061    0.09000000    0.41999999
   19.65999985  180.00799561    0.09000000    0.41999999
   19.66333389  182.30799866    0.09000000    0.41999999
   19.66666603  169.96099854    0.09000000    0.41999999
   19.66972160  171.83299255    0.09000000    0.41999999
   19.67305565  167.26600647    0.09000000    0.41999999
   19.67611122  162.75599670    0.09000000    0.41999999
   19.67944336  160.03500366    0.09000000    0.41999999
   19.68555450  160.03500366    0.09000000    0.41999999
   19.68999863  160.73199463    0.09000000    0.41999999
   19.69305420  159.15600586    0.09000000    0.41999999
   19.69638824  155.01400757    0.09000000    0.41999999
   19.69944382  161.40699768    0.09000000    0.41999999
   19.70277786  157.88999939    0.09000000    0.41999999
   19.70611191  157.39700317    0.09000000    0.41999999
   19.70916748  152.38600159    0.09000000    0.41999999
   19.71250153  148.86500549    0.09000000    0.41999999
   19.71583366  148.67300415    0.09000000    0.41999999
   19.71750069  148.92300415    0.09000000    0.41999999
   19.71916771  156.26499939    0.09000000    0.41999999
   19.72249985  146.04299927    0.09000000    0.41999999
   19.72833443  146.04299927    0.09000000    0.41999999
   19.73250008  150.56399536    0.09000000    0.41999999
   19.73555565  151.36799622    0.09000000    0.41999999
   19.73888969  156.08799744    0.09000000    0.41999999
   19.74222183  150.85200500    0.09000000    0.41999999
   19.74527740  156.56399536    0.09000000    0.41999999
   19.74861145  154.66999817    0.09000000    0.41999999
   19.75083351  149.41299438    0.09000000    0.41999999
   19.75222206  149.15199280    0.09000000    0.41999999
   19.75555611  149.52699280    0.09000000    0.41999999
   19.75861168  148.30799866    0.09000000    0.41999999
   19.76194382  155.50399780    0.09000000    0.41999999
   19.76527786  154.92399597    0.09000000    0.41999999
   19.77111053  154.92399597    0.09000000    0.41999999
   19.77527809  150.72399902    0.09000000    0.41999999
   19.77861023  154.88099670    0.09000000    0.41999999
   19.78166580  151.64399719    0.09000000    0.41999999
   19.78416634  146.36500549    0.09000000    0.41999999
   19.78527641  152.29499817    0.09000000    0.41999999
   19.78861046  147.93899536    0.09000000    0.41999999
   19.79166603  150.00500488    0.09000000    0.41999999
   19.79500008  150.06300354    0.09000000    0.41999999
   19.79833221  150.61000061    0.09000000    0.41999999
   19.80138779  154.39700317    0.09000000    0.41999999
   19.80472183  151.00300598    0.09000000    0.41999999
   19.80777740  144.82299805    0.09000000    0.41999999
   19.81388855  144.82299805    0.09000000    0.41999999
   19.81805611  153.74699402    0.09000000    0.41999999
   19.82139015  146.00700378    0.09000000    0.41999999
   19.82444572  154.39399719    0.09000000    0.41999999
   19.82777786  157.20700073    0.09000000    0.41999999
   19.83111191  155.80400085    0.09000000    0.41999999
   19.83416748  141.69000244    0.09000000    0.41999999
   19.83750153  155.36799622    0.09000000    0.41999999
   19.84083366  152.39199829    0.09000000    0.41999999
   19.84388924  163.01300049    0.09000000    0.41999999
   19.84722328  163.45100403    0.09000000    0.41999999
   19.85055542  151.22500610    0.09000000    0.41999999
   19.85111237  159.36500549    0.09000000    0.41999999
   19.85694504  159.36500549    0.09000000    0.41999999
   19.86083412  150.05799866    0.09000000    0.41999999
   19.86416626  156.45500183    0.09000000    0.41999999
   19.86750031  155.99899292    0.09000000    0.41999999
   19.87055588  149.55599976    0.09000000    0.41999999
   19.87388992  161.47300720    0.09000000    0.41999999
   19.87694550  153.62399292    0.09000000    0.41999999
   19.88027763  150.05599976    0.09000000    0.41999999
   19.88361168  149.71099854    0.09000000    0.41999999
   19.88444519  165.19700623    0.09000000    0.41999999
   19.88694382  158.52099609    0.09000000    0.41999999
   19.89027786  146.56900024    0.09000000    0.41999999
   19.89361191  157.60699463    0.09000000    0.41999999
   19.89972115  157.60699463    0.09000000    0.41999999
   19.90388870  155.19099426    0.09000000    0.41999999
   19.90694427  149.26100159    0.09000000    0.41999999
   19.91027832  154.17999268    0.09000000    0.41999999
   19.91361046  146.34399414    0.09000000    0.41999999
   19.91666603  147.18899536    0.09000000    0.41999999
   19.91777802  152.85600281    0.09000000    0.41999999
   19.92027664  149.81100464    0.09000000    0.41999999
   19.92361069  154.67900085    0.09000000    0.41999999
   19.92694473  156.99299622    0.09000000    0.41999999
   19.93000031  165.86500549    0.09000000    0.41999999
   19.93333244  172.92300415    0.09000000    0.41999999
   19.93666649  162.20300293    0.09000000    0.41999999
   19.94249916  162.20300293    0.09000000    0.41999999
   19.94666672  154.18800354    0.09000000    0.41999999
   19.94972038  155.84300232    0.09000000    0.41999999
   19.95111275  152.84300232    0.09000000    0.41999999
   19.95333481  147.92799377    0.09000000    0.41999999
   19.95666695  157.88499451    0.09000000    0.41999999
   19.96000099  147.19200134    0.09000000    0.41999999
   19.96305656  147.05700684    0.09000000    0.41999999
   19.96638870  152.55000305    0.09000000    0.41999999
   19.96944427  147.72599792    0.09000000    0.41999999
   19.97277832  158.07499695    0.09000000    0.41999999
   19.97611237  147.20199585    0.09000000    0.41999999
   19.97916794  156.46200562    0.09000000    0.41999999
   19.98527718  156.46200562    0.09000000    0.41999999
   19.98944473  147.41999817    0.09000000    0.41999999
   19.99277878  145.03399658    0.09000000    0.41999999
   19.99583435  149.59599304    0.09000000    0.41999999
   19.99916649  153.21600342    0.09000000    0.41999999
   20.00250053  138.88900757    0.09000000    0.41999999
   20.00555611  149.37800598    0.09000000    0.41999999
   20.00888824  147.64999390    0.09000000    0.41999999
   20.01222229  141.66799927    0.09000000    0.41999999
   20.01527786  145.99800110    0.09000000    0.41999999
   20.01777840  147.53100586    0.09000000    0.41999999
   20.01888847  145.13900757    0.09000000    0.41999999
   20.02222252  144.60299683    0.09000000    0.41999999
   20.02833366  144.60299683    0.09000000    0.41999999
   20.03222275  151.55599976    0.09000000    0.41999999
   20.03555489  144.32299805    0.09000000    0.41999999
   20.03888893  146.42799377    0.09000000    0.41999999
   20.04194450  145.00500488    0.09000000    0.41999999
   20.04527664  144.51100159    0.09000000    0.41999999
   20.04861069  146.96299744    0.09000000    0.41999999
   20.05111122  147.25100708    0.09000000    0.41999999
   20.05194283  148.86599731    0.09000000    0.41999999
   20.05527687  152.60800171    0.09000000    0.41999999
   20.05861092  149.23899841    0.09000000    0.41999999
   20.06166649  143.57099915    0.09000000    0.41999999
   20.06499863  142.78199768    0.09000000    0.41999999
   20.07111168  142.78199768    0.09000000    0.41999999
   20.07527924  143.11399841    0.09000000    0.41999999
   20.07833481  151.48699951    0.09000000    0.41999999
   20.08166695  145.56900024    0.09000000    0.41999999
   20.08444595  141.61199951    0.09000000    0.41999999
   20.08500099  147.89799500    0.09000000    0.41999999
   20.08833313  146.46400452    0.09000000    0.41999999
   20.09166718  142.78199768    0.09000000    0.41999999
   20.09472275  149.32600403    0.09000000    0.41999999
   20.09805679  146.82800293    0.09000000    0.41999999
   20.10138893  147.47000122    0.09000000    0.41999999
   20.10444450  154.33999634    0.09000000    0.41999999
   20.10777855  142.98199463    0.09000000    0.41999999
   20.11388969  142.98199463    0.09000000    0.41999999
   20.11805534  148.17700195    0.09000000    0.41999999
   20.12138939  147.37800598    0.09000000    0.41999999
   20.12444496  145.71200562    0.09000000    0.41999999
   20.12777710  150.71699524    0.09000000    0.41999999
   20.13083267  148.65100098    0.09000000    0.41999999
   20.13416672  192.83099365    0.09000000    0.41999999
