    HOUR (UT)   FLARE FACTOR    SKY TESTER    SUN TESTER
   11.69361115   -1.00000000   -1.00000000   -1.00000000
   11.73138809   86.75499725    4.90999985    2.44000006
   11.73472214   94.21549988    4.90999985    2.44000006
   11.73777771  114.12000275    4.90999985    2.44000006
   11.74111176  110.41000366    4.90999985    2.46000004
   11.74444485  114.51599884    4.90999985    2.46000004
   11.74888897  117.19300079    4.90999985    2.48000002
   11.75361156  113.91000366    4.90999985    2.48000002
   11.75666714  109.99700165    4.90999985    2.48000002
   11.76000023  120.57299805    4.90999985    2.51999998
   11.76333332  108.84899902    4.90999985    2.51999998
   11.76472187  110.18900299    4.90999985    2.51999998
   11.76666641  119.59400177    4.90999985    2.51999998
   11.76999950  111.71199799    4.90999985    2.51999998
   11.77333355  109.81900024    4.90999985    2.53999996
   11.77638817  113.66400146    4.90999985    2.53999996
   11.77972221  118.29799652    4.90999985    2.53999996
   11.78305531  114.64600372    4.90999985    2.55999994
   11.78611183  114.72599792    4.19999981    2.53999996
   11.78944492  120.85099792    3.28999996    2.55999994
   11.79250050  121.57800293    2.57999992    2.55999994
   11.79583359  121.80400085    1.88000000    2.57999992
   11.79805565  111.88700104    1.55999994    2.53999996
   11.79944515  116.61699677    1.41999996    2.55999994
   11.80277824  113.52400208    1.09000003    2.55999994
   11.80611134  106.04499817    0.89999998    2.55999994
   11.80916691  117.19100189    0.80000001    2.55999994
   11.81250000  112.80899811    0.73000002    2.55999994
   11.81555557  117.55999756    0.70999998    2.55999994
   11.81888866  113.41400146    0.69000000    2.55999994
   11.82222176  112.99500275    0.63000000    2.55999994
   11.82527733  111.02200317    0.61000001    2.55999994
   11.82861137  110.81099701    0.58999997    2.53999996
   11.83138847  115.64900208    0.56999999    2.53999996
   11.83222198  116.72899628    0.56999999    2.51999998
   11.83555508  112.10900116    0.55000001    2.50000000
   11.83888817  112.98200226    0.55000001    2.48000002
   11.84194374  111.40899658    0.55000001    2.42000008
   11.84527779  112.23000336    0.51999998    2.36999989
   11.84833336  109.17700195    0.51999998    2.26999998
   11.85194492  112.49500275    0.51999998    2.15000010
   11.85527802  112.02700043    0.51999998    2.13000011
   11.85833359  109.05899811    0.50000000    1.91999996
   11.86166668  108.20700073    0.50000000    1.86000001
   11.86472225  109.94899750    0.50000000    1.61000001
   11.86527824  113.06400299    0.50000000    1.58000004
   11.86861134  115.36399841    0.47999999    1.44000006
   11.87194443  110.51799774    0.47999999    1.26999998
   11.87500000  115.76200104    0.47999999    1.13000000
   11.87833309  117.73000336    0.46000001    1.03999996
   11.88166714  113.12100220    0.46000001    0.83999997
   11.88472176  112.75199890    0.46000001    0.76999998
   11.88805580  111.92299652    0.46000001    0.73000002
   11.89138889  106.98200226    0.44000000    0.67000002
   11.89444447  106.81600189    0.44000000    0.63000000
   11.89777756  109.30799866    0.44000000    0.61000001
   11.89833355  114.47000122    0.44000000    0.61000001
   11.90138817  110.25000000    0.44000000    0.64999998
   11.90472221  104.73899841    4.90999985    2.48000002
   11.90805531  109.83999634    4.90999985    2.50000000
   11.91111088  104.52100372    4.90999985    2.50000000
   11.91444397  109.39800262    4.90999985    2.50000000
   11.91750050  104.60900116    4.90999985    2.50000000
   11.92083359  103.53399658    2.84999990    2.50000000
   11.92416668  112.62000275    1.71000004    2.50000000
   11.92722225  111.15000153    1.23000002    2.50000000
   11.93055630  110.90000153    1.00000000    2.50000000
   11.93166733  110.96199799    0.94000000    2.50000000
   11.93388939  111.64099884    0.89999998    2.50000000
   11.93722248  111.13099670    0.88000000    2.50000000
   11.94055557  107.20400238    0.88000000    2.50000000
   11.94361115  108.45899963    0.86000001    2.50000000
   11.94694424  119.53800201    0.86000001    2.50000000
   11.94999981  109.94100189    0.86000001    2.51999998
   11.95333290  116.80400085    0.86000001    2.50000000
   11.95666695  110.16999817    0.88000000    2.50000000
   11.95972157  110.79599762    0.88000000    2.50000000
   11.96305561  116.19300079    0.89999998    2.50000000
   11.96500015  108.43499756    0.89999998    2.50000000
   11.96666622  110.62899780    0.89999998    2.50000000
   11.96999931  112.61599731    0.92000002    2.50000000
   11.97333336  109.28800201    0.95999998    2.50000000
   11.97638798  104.79399872    1.01999998    2.51999998
   11.97972202  121.97000122    1.09000003    2.51999998
   11.98277760  105.48899841    1.25000000    2.51999998
   11.98611164  109.66699982    1.50000000    2.51999998
   11.98944473  105.27600098    1.63000000    2.51999998
   11.99250031  113.13300323    1.85000002    2.51999998
   11.99583340  108.71900177    2.21000004    2.53999996
   11.99833393  102.72799683    2.48000002    2.53999996
   11.99944496  103.91699982    2.73000002    2.53999996
   12.00277805  106.08399963    3.23000002    2.53999996
   12.00611115  105.52700043    4.03999996    2.53999996
   12.00916672  111.01999664    4.90999985    2.55999994
   12.01249981  115.14099884    4.90999985    2.55999994
   12.01555538  109.98400116    4.90999985    2.55999994
   12.01888847  114.82499695    4.90999985    2.55999994
   12.02222157  104.94200134    4.90999985    2.55999994
   12.02527714  110.62100220    4.90999985    2.55999994
   12.02861118  109.60099792    4.90999985    2.55999994
   12.03166676  109.03800201    4.90999985    2.55999994
   12.03194427  109.28299713    4.90999985    2.55999994
   12.03527832  112.42900085    4.90999985    2.55999994
   12.03861141  111.02100372    4.90999985    2.57999992
   12.04166698  112.39299774    4.90999985    2.57999992
   12.04500008  113.78900146    4.90999985    2.57999992
   12.04805565  112.65399933    4.90999985    2.57999992
   12.05138874  110.21800232    4.90999985    2.59999990
   12.05472279  103.59799957    4.90999985    2.57999992
   12.05777836  108.69499969    4.90999985    2.59999990
   12.06111145  106.01799774    4.90999985    2.61999989
   12.06416702  104.92600250    4.90999985    2.59999990
   12.06500053  107.89299774    4.90999985    2.61999989
   12.06777763  110.73699951    4.90999985    2.61999989
   12.07111073  106.23999786    4.90999985    2.61999989
   12.07444477  104.94799805    4.90999985    2.64000010
   12.07750034  102.78700256    4.90999985    2.64000010
   12.08083344  102.37200165    4.90999985    2.64000010
   12.08388901  114.40399933    4.90999985    2.64000010
   12.08722210  109.09899902    4.90999985    2.64000010
   12.09055519  106.85700226    4.90999985    2.64000010
   12.09361076  114.42299652    4.90999985    2.61999989
   12.09694386  104.05400085    4.90999985    2.64000010
   12.09833336  108.16200256    4.90999985    2.61999989
   12.10055637  104.52799988    4.90999985    2.61999989
   12.10388947  109.61199951    4.90999985    2.61999989
   12.10722256  105.75399780    4.90999985    2.61999989
   12.11027813  109.28500366    4.90999985    2.57999992
   12.11361122  109.51499939    4.90999985    2.57999992
   12.11666679  109.34200287    4.90999985    2.57999992
   12.11999989  108.01100159    4.90999985    2.57999992
   12.12333393  112.67099762    4.90999985    2.55999994
   12.12638855  110.60299683    4.90999985    2.57999992
   12.12972260  107.90799713    4.90999985    2.57999992
   12.13166714  114.83399963    4.90999985    2.57999992
   12.13333321  119.18199921    4.90999985    2.57999992
   12.13666630  113.82800293    4.90999985    2.57999992
   12.14000034  108.33899689    4.90999985    2.59999990
   12.14305496  112.29699707    4.90999985    2.59999990
   12.14638901  109.00199890    4.90999985    2.61999989
   12.14972210  109.17700195    4.90999985    2.64000010
   12.15277767  108.37200165    4.90999985    2.66000009
   12.15611076  114.48400116    4.90999985    2.66000009
   12.15916634  110.04100037    4.90999985    2.67000008
   12.16249943  114.52700043    4.90999985    2.67000008
   12.16499996  115.51300049    4.90999985    2.67000008
   12.16611099  113.49299622    4.90999985    2.67000008
   12.16944504  111.01799774    4.90999985    2.66000009
   12.17277813  114.45500183    4.90999985    2.67000008
   12.17583370  115.58300018    4.90999985    2.69000006
   12.17916679  110.35800171    4.36999989    2.69000006
   12.18249989  109.97899628    3.41000009    2.69000006
   12.18555546  112.96600342    2.61999989    2.69000006
   12.18888855  113.12999725    1.86000001    2.69000006
   12.19194412  106.67400360    1.46000004    2.69000006
   12.19527817  115.34500122    1.05999994    2.69000006
   12.19833374  112.30200195    0.86000001    2.69000006
   12.19888878  112.77300262    0.81999999    2.69000006
   12.20222187  111.13800049    0.64999998    2.69000006
   12.20555496  114.95999908    0.56999999    2.69000006
   12.20861053  111.75800323    0.51999998    2.69000006
   12.21194458  110.34500122    0.50000000    2.69000006
   12.21527767  110.89800262    0.47999999    2.69000006
   12.21833324  110.43299866    0.46000001    2.69000006
   12.22166634  115.79000092    0.46000001    2.69000006
   12.22499943  119.77200317    0.44000000    2.67000008
   12.22805500  108.36299896    0.41999999    2.66000009
   12.23138809  110.15399933    0.40000001    2.61999989
   12.23194408  112.97599792    0.40000001    2.61999989
   12.23500061  110.03199768    0.38000000    2.55999994
   12.23833370  105.54699707    0.38000000    2.51999998
   12.24166679  111.64600372    0.36000001    2.42000008
   12.24472237  107.05799866    0.36000001    2.32999992
   12.24805546  112.17500305    0.36000001    2.23000002
   12.25111103  106.77799988    0.34000000    2.07999992
   12.25444412  102.00299835    0.31999999    1.94000006
   12.25777817  112.36499786    0.31999999    1.78999996
   12.26083374  111.65599823    0.31999999    1.73000002
   12.26416683  109.95999908    0.31999999    1.55999994
   12.26527786  113.18599701    0.31999999    1.50000000
   12.26749992  110.90299988    0.31999999    1.26999998
   12.27083302  118.83999634    0.30000001    1.09000003
   12.27416611  108.58599854    0.30000001    0.95999998
   12.27722168  116.32399750    0.30000001    0.83999997
   12.28055573  118.64600372    0.30000001    0.76999998
   12.28361130  114.82199860    0.30000001    0.70999998
   12.28694534  113.41300201    0.28000000    0.64999998
   12.29027843  108.80100250    0.28000000    0.67000002
   12.29333401  112.73600006    0.28000000    0.64999998
   12.29666710  108.82499695    0.28000000    0.64999998
   12.29861164  111.24700165    0.28000000    0.67000002
   12.30027771  112.54199982    0.28000000    0.67000002
   12.30361176  110.05100250    0.28000000    0.70999998
   12.30694485  110.26999664    0.28000000    0.73000002
   12.31000042  108.93099976    0.28000000    0.75000000
   12.31333351  117.17900085    0.28000000    0.76999998
   12.31638908  107.40200043    0.28000000    0.76999998
   12.31972218  116.82399750    0.28000000    0.79000002
   12.32305527  116.36000061    0.25999999    0.79000002
   12.32611084  113.94699860    0.25999999    0.79000002
   12.32944393  106.65399933    0.25999999    0.79000002
   12.33194447  105.82599640    0.25999999    0.79000002
   12.33305550  104.57299805    0.25999999    0.79000002
   12.33638859  116.44000244    0.25999999    0.79000002
   12.33972168  110.33499908    0.25999999    0.79000002
   12.34277725  113.71399689    0.25999999    0.79000002
   12.34611034  110.55000305    0.25999999    0.79000002
   12.34916592  111.80200195    0.25999999    0.79000002
   12.35249996  108.65499878    0.25999999    0.76999998
   12.35583401  110.94300079    0.25000000    0.76999998
   12.35888958  110.26699829    0.25000000    0.76999998
   12.36222267  114.66600037    0.25000000    0.79000002
   12.36527824  110.42299652    0.25000000    0.79000002
   12.36555576  116.55999756    0.25000000    0.79000002
   12.36888885  111.50800323    0.25000000    0.79000002
   12.37222195  114.76000214    0.25000000    0.76999998
   12.37527752  109.41899872    4.90999985    2.66000009
   12.37861156  107.33999634    0.73000002    2.64000010
   12.38194466  118.17900085    0.69000000    2.64000010
   12.38500023  113.04499817    0.67000002    2.61999989
   12.38833332  112.20899963    0.69000000    2.61999989
   12.39166641  111.41200256    0.69000000    2.61999989
   12.39472198  108.15899658    0.70999998    2.61999989
   12.39805508  107.04699707    0.70999998    2.61999989
   12.39861107  107.98500061    0.70999998    2.61999989
   12.40138817  109.32199860    0.70999998    2.61999989
   12.40472221  112.93299866    0.70999998    2.59999990
   12.40805531  108.00299835    0.73000002    2.59999990
   12.41111088  111.19000244    0.73000002    2.59999990
   12.41444397  106.08399963    0.73000002    2.57999992
   12.41777802  104.19999695    0.75000000    2.59999990
   12.42083359  107.77899933    0.80000001    2.57999992
   12.42416668  109.44000244    0.80000001    2.59999990
   12.42722225  112.93499756    0.83999997    2.59999990
   12.43055630  112.22699738    1.05999994    2.59999990
   12.43194485  115.03700256    1.05999994    2.59999990
   12.43416691  111.45300293    1.69000006    2.61999989
   12.43750000  109.60099792    1.89999998    2.61999989
   12.44083309  114.59500122    2.07999992    2.64000010
   12.44388866  113.80999756    2.44000006    2.64000010
   12.44722271  111.91300201    3.59999990    2.66000009
   12.45055580  115.02200317    4.71999979    2.66000009
   12.45361137  115.56099701    4.90999985    2.66000009
   12.45694447  110.97100067    4.90999985    2.66000009
   12.46000004  115.00900269    4.90999985    2.67000008
   12.46333313  115.80300140    4.90999985    2.67000008
   12.46527767  111.69200134    4.90999985    2.67000008
   12.46694374  115.86299896    4.90999985    2.66000009
   12.47027779  117.62699890    4.90999985    2.67000008
   12.47361088  113.05200195    4.90999985    2.66000009
   12.47666645  104.76699829    4.90999985    2.66000009
   12.47999954  110.96499634    4.90999985    2.66000009
   12.48333359  110.74500275    4.90999985    2.66000009
   12.48638916  107.45899963    4.90999985    2.64000010
   12.48972225  114.34899902    4.90999985    2.64000010
   12.49277782  112.18800354    4.90999985    2.66000009
   12.49611092  114.73600006    4.90999985    2.66000009
   12.49861145  115.37999725    4.90999985    2.67000008
   12.49972248  114.00700378    4.90999985    2.67000008
   12.50305557  113.89600372    4.90999985    2.67000008
   12.50638866  118.30999756    4.90999985    2.67000008
   12.50944424  111.95300293    4.90999985    2.69000006
   12.51277733  116.26699829    4.90999985    2.71000004
   12.51611137  114.84799957    4.90999985    2.71000004
   12.51916599  117.26599884    4.90999985    2.71000004
   12.52250004  112.76699829    4.90999985    2.71000004
   12.52555561  116.62500000    4.90999985    2.73000002
   12.52888870  113.15499878    4.90999985    2.73000002
   12.53194427  109.99600220    4.90999985    2.73000002
   12.53249931  117.23000336    4.90999985    2.73000002
   12.53583336  113.88600159    4.90999985    2.73000002
   12.53916740  116.62100220    4.90999985    2.73000002
   12.54222298  113.32700348    4.90999985    2.73000002
   12.54555607  105.70999908    4.90999985    2.71000004
   12.54888916  110.13800049    4.90999985    2.69000006
   12.55194473  110.75299835    4.90999985    2.69000006
   12.55527782  109.16699982    4.90999985    2.69000006
   12.55833340  106.14700317    4.90999985    2.67000008
   12.56166649  112.55300140    4.90999985    2.66000009
   12.56500053  111.00000000    4.90999985    2.66000009
   12.56527805  103.17900085    4.90999985    2.66000009
   12.56861115  115.74400330    4.90999985    2.67000008
   12.57194424  112.37799835    4.90999985    2.67000008
   12.57499981  118.24199677    4.90999985    2.67000008
   12.57833290  113.82299805    4.90999985    2.67000008
   12.58138847  110.78199768    4.90999985    2.67000008
   12.58472157  116.13500214    4.90999985    2.69000006
   12.58805561  112.27700043    4.90999985    2.69000006
   12.59111118  118.10399628    4.90999985    2.71000004
   12.59444427  114.10600281    4.90999985    2.71000004
   12.59777737  120.96600342    4.90999985    2.73000002
   12.59861088  111.74500275    4.90999985    2.75000000
   12.60111141  113.40000153    4.90999985    2.73000002
   12.60444450  111.98600006    4.90999985    2.75000000
   12.60750008  110.40399933    4.90999985    2.75000000
   12.61083412  113.75700378    4.90999985    2.76999998
   12.61416721  113.08000183    4.90999985    2.76999998
   12.61722279  110.98400116    4.90999985    2.76999998
   12.62055588  112.40000153    4.90999985    2.76999998
   12.62361145  112.61799622    4.90999985    2.76999998
   12.62694454  109.83000183    4.07999992    2.76999998
   12.63027763  111.07099915    3.16000009    2.78999996
   12.63194466  114.68299866    2.64000010    2.76999998
   12.63388920  111.30699921    2.40000010    2.76999998
   12.63722229  111.70500183    1.58000004    2.78999996
   12.64027786  115.09600067    1.41999996    2.78999996
   12.64361095  114.11100006    1.07000005    2.78999996
   12.64694405  108.94899750    0.79000002    2.78999996
   12.64999962  113.98200226    0.63000000    2.78999996
   12.65333271  110.00000000    0.56999999    2.76999998
   12.65638828  114.98000336    0.50000000    2.78999996
   12.65972137  113.88999939    0.47999999    2.78999996
   12.66305542  116.57700348    0.46000001    2.76999998
   12.66527748  113.25599670    0.44000000    2.76999998
   12.66666698  116.47499847    0.44000000    2.75000000
   12.67000008  114.01100159    0.44000000    2.75000000
   12.67305565  113.32900238    0.41999999    2.73000002
   12.67638874  115.36499786    0.40000001    2.71000004
   12.67972279  117.36399841    0.40000001    2.71000004
   12.68277836  117.64800262    0.38000000    2.67000008
   12.68611145  117.76699829    0.38000000    2.61999989
   12.68944454  115.24299622    0.36000001    2.55999994
   12.69250011  113.77700043    0.38000000    2.50000000
   12.69583321  114.64700317    0.36000001    2.46000004
   12.69861126  113.33300018    0.34000000    2.32999992
   12.69944477  114.68900299    0.34000000    2.21000004
   12.70277786  110.46299744    0.34000000    2.07999992
   12.70583344  120.66000366    0.31999999    1.88000000
   12.70916653  113.66799927    0.31999999    1.76999998
   12.71249962  112.20400238    0.31999999    1.55999994
   12.71555519  111.86799622    0.30000001    1.38000000
   12.71888828  114.64399719    0.30000001    1.23000002
   12.72194386  115.33999634    0.30000001    1.09000003
   12.72527695  114.80899811    0.28000000    0.92000002
   12.72861099  112.07099915    0.28000000    0.81999999
   12.74805546  114.35299683    0.25999999    0.69000000
   12.74833393  113.46099854    0.25999999    0.69000000
   12.75166702  112.20999908    0.25999999    0.70999998
   12.75500011  109.41999817    0.25999999    0.75000000
   12.75805569  107.05000305    0.25999999    0.75000000
   12.76138878  114.64600372    0.25999999    0.76999998
   12.76444435  114.90299988    0.25000000    0.79000002
   12.76777744  118.59799957    0.25000000    0.80000001
   12.77111053  116.69499969    0.25000000    0.80000001
   12.77416611  113.98600006    0.25000000    0.80000001
   12.77750015  117.23699951    0.25000000    0.80000001
   12.78777790  114.19599915    0.00000000    0.00000000
   12.78888893  113.35299683    0.00000000    0.00000000
   12.79250050  114.83899689    0.00000000    0.00000000
   12.79638958  119.51799774    0.00000000    0.00000000
   12.80027771  111.10500336    0.00000000    0.00000000
   12.80388927  112.24600220    0.00000000    0.00000000
   12.80777836  112.70899963    0.00000000    0.00000000
   12.81166649  109.64499664    0.00000000    0.00000000
   12.81500053  112.91999817    0.25000000    0.80000001
   12.81833363  116.41699982    0.25000000    0.80000001
   12.82138920  111.67400360    0.25000000    0.80000001
   12.82250023  116.51300049    0.25000000    0.80000001
   12.82555580  109.50499725    0.25000000    0.80000001
   12.82888889  114.66899872    0.25000000    0.80000001
   12.83222198  112.49700165    0.25000000    0.80000001
   12.83527756  109.48999786    0.25000000    0.80000001
   12.83861065  110.04399872    0.25000000    0.80000001
   12.84194374  115.00900269    0.25000000    0.80000001
   12.84499931  111.74199677    0.25000000    0.80000001
   12.84833336  110.12000275    0.25000000    0.80000001
   12.85138893  112.33599854    0.25000000    0.80000001
   12.85472298  110.74900055    0.25000000    0.80000001
   12.85527802  112.54799652    0.25000000    0.80000001
   12.85833359  113.61900330    0.25000000    0.80000001
   12.86138916  115.19999695    0.25000000    0.80000001
   12.86472225  112.90499878    0.25000000    0.80000001
   12.86777782  119.84700012    0.25000000    0.80000001
   12.87111092  112.65699768    0.25000000    0.80000001
   12.87444496  120.26200104    0.25000000    0.80000001
   12.87777805  114.08899689    0.25000000    0.80000001
   12.98472214   -1.00000000   -1.00000000   -1.00000000
   13.08361053   -1.00000000   -1.00000000   -1.00000000
   13.18527794   -1.00000000   -1.00000000   -1.00000000
   13.24777794   71.17839813    4.90999985    2.75000000
   13.25111103  112.04900360    4.90999985    2.75000000
   13.25416660  113.79799652    4.90999985    2.75000000
   13.25749969  115.51000214    4.90999985    2.73000002
   13.26083374  112.57900238    4.90999985    2.73000002
   13.26388931  110.76699829    4.90999985    2.75000000
   13.26805496  110.76699829    4.90999985    2.75000000
   13.27222157  112.98300171    4.90999985    2.76999998
   13.27555561  113.91100311    4.90999985    2.76999998
   13.27861118  114.47200012    4.90999985    2.76999998
   13.28111076  109.53299713    4.90999985    2.76999998
   13.28222179  116.54799652    4.90999985    2.76999998
   13.28555584  115.96900177    4.90999985    2.76999998
   13.28861141  113.93499756    4.90999985    2.78999996
   13.29194450  119.76799774    4.90999985    2.78999996
   13.29527855  121.91699982    4.90999985    2.80999994
   13.29833412  120.42600250    4.90999985    2.78999996
   13.30166721  122.63099670    4.90999985    2.80999994
   13.30500031  114.44499969    4.90999985    2.80999994
   13.31083393  114.44499969    4.90999985    2.80999994
   13.31500053  114.93000031    4.90999985    2.82999992
   13.31833363   93.78869629    4.90999985    2.80999994
   13.32138920  111.18499756    4.90999985    2.80999994
   13.32472229  105.93499756    4.90999985    2.82999992
   13.32805538  112.20600128    4.90999985    2.82999992
   13.33111095  107.88999939    4.90999985    2.80999994
   13.33444405  109.79499817    4.90999985    2.82999992
   13.33749962  105.97499847    4.90999985    2.82999992
   13.34083271  110.85199738    4.90999985    2.84999990
   13.34416676  110.79799652    4.90999985    2.82999992
   13.34749985  104.31199646    4.90999985    2.84999990
   13.34777737  115.69200134    4.90999985    2.84999990
   13.35361195  115.69200134    4.90999985    2.84999990
   13.35777855  106.68699646    4.90999985    2.84999990
   13.36111164  110.26499939    4.90999985    2.84999990
   13.36444473  114.68199921    4.90999985    2.86999989
   13.36750031  110.62899780    4.90999985    2.84999990
   13.37083340  120.97699738    4.90999985    2.84999990
   13.37388897  113.20300293    4.90999985    2.86999989
   13.37722206  112.33499908    4.90999985    2.86999989
   13.38055611  115.31600189    4.90999985    2.86999989
   13.38111115  111.90499878    4.90999985    2.86999989
   13.38388920  107.38800049    4.90999985    2.86999989
   13.38722229  117.22399902    4.90999985    2.89000010
   13.39027786  114.91000366    4.90999985    2.86999989
   13.39666653  114.91000366    4.90999985    2.89000010
   13.40083313  110.18699646    4.90999985    2.86999989
   13.40388870  111.45099640    4.90999985    2.89000010
   13.40722179  108.09999847    4.90999985    2.86999989
   13.41027737  111.55799866    4.90999985    2.89000010
   13.41361046  109.84799957    4.26000023    2.86999989
   13.41444397  111.16500092    3.89000010    2.89000010
   13.41722298  111.12100220    2.94000006    2.86999989
   13.42055607  111.76499939    2.23000002    2.86999989
   13.42361164  110.74700165    1.64999998    2.86999989
   13.42694473  112.16000366    1.13000000    2.86999989
   13.43027782  109.58699799    1.13000000    2.86999989
   13.43333340  112.53099823    1.09000003    2.86999989
   13.43944454  112.53099823    0.55000001    2.84999990
   13.44361115  115.83000183    0.47999999    2.84999990
   13.44666672  109.97699738    0.40000001    2.82999992
   13.44777775  111.89099884    0.40000001    2.84999990
   13.45027733  116.78600311    0.38000000    2.84999990
   13.45361137  122.74400330    0.34000000    2.82999992
   13.45666695  112.55400085    0.34000000    2.82999992
   13.46000004  118.71800232    0.34000000    2.82999992
   13.46333313  109.44000244    0.31999999    2.80999994
   13.46638870  117.97599792    0.34000000    2.78999996
   13.46972179  117.14600372    0.31999999    2.78999996
   13.47277737  113.51100159    0.31999999    2.78999996
   13.47611046  118.41200256    0.31999999    2.76999998
   13.48222160  118.41200256    0.31999999    2.71000004
   13.48638916  111.06300354    0.30000001    2.57999992
   13.48972225  107.89900208    0.30000001    2.53999996
   13.49277782  111.65200043    0.28000000    2.34999990
   13.49611092  109.38099670    0.30000001    2.23000002
   13.49944496  111.15399933    0.28000000    2.09999990
   13.50249958  105.83799744    0.28000000    1.88000000
   13.50583363  102.85299683    0.28000000    1.71000004
   13.50888920  112.41500092    0.28000000    1.53999996
   13.51222229  107.06999969    0.28000000    1.46000004
   13.51472187  108.51899719    0.25999999    1.23000002
   13.51583290  104.18099976    0.25999999    1.19000006
   13.51916599  113.66300201    0.25999999    1.14999998
   13.52499962  113.66300201    0.25000000    0.81999999
   13.52916622  115.34100342    0.25000000    0.75000000
   13.53249931  111.98300171    0.25000000    0.70999998
   13.53583336  120.81900024    0.23000000    0.69000000
   13.53888893  109.18699646    0.23000000    0.69000000
   13.54222298  111.13500214    0.23000000    0.70999998
   13.54527855  103.87400055    0.23000000    0.75000000
   13.54805565  102.15899658    0.20999999    0.76999998
   13.54888916  108.27700043    0.20999999    0.79000002
   13.55222225  106.60700226    0.20999999    0.80000001
   13.55527782  106.38200378    0.20999999    0.83999997
   13.55861092  107.44699860    0.20999999    0.86000001
   13.56194496  103.71499634    0.20999999    0.86000001
   13.56805515  103.71499634    0.19000000    0.88000000
   13.57222176  105.32099915    0.19000000    0.88000000
   13.57527733   99.63130188    0.19000000    0.88000000
   13.57861137  108.21800232    0.17000000    0.88000000
   13.58138847  112.79599762    0.17000000    0.88000000
   13.58222198  107.06999969    0.17000000    0.86000001
   13.58555508  101.02600098    0.19000000    0.86000001
   13.58861065  110.29599762    0.17000000    0.86000001
   13.59194374   98.51380157    0.17000000    0.83999997
   13.59527779  106.62000275    0.17000000    0.83999997
   13.59833336  106.87400055    0.17000000    0.81999999
   13.60166740  106.84300232    0.17000000    0.81999999
   13.60500050  108.86599731    0.17000000    0.80000001
   13.61083412  108.86599731    0.17000000    0.80000001
   13.61500072  109.35199738    0.17000000    0.79000002
   13.61805534  108.60399628    0.17000000    0.79000002
   13.62138939  106.77500153    0.17000000    0.76999998
   13.62472248  106.36699677    0.15000001    0.76999998
   13.62777805  104.43399811    0.15000001    0.76999998
   13.63111115  107.28299713    0.15000001    0.76999998
   13.63444424  108.37100220    0.15000001    0.76999998
   13.63749981  110.26300049    0.15000001    0.76999998
   13.64083290  105.86499786    0.15000001    0.76999998
   13.64388847  103.82199860    0.15000001    0.75000000
   13.64722252  104.47899628    0.15000001    0.75000000
   13.64805508  112.89600372    0.15000001    0.75000000
   13.65361118  112.89600372    0.15000001    0.75000000
   13.65777779   99.99169922    0.15000001    0.75000000
   13.66111088  107.55200195    0.15000001    0.73000002
   13.66416645  104.89299774    0.15000001    0.73000002
   13.66750050  105.25000000    0.13000000    0.73000002
   13.67083359  102.36100006    0.13000000    0.70999998
   13.67388916  102.75499725    0.13000000    0.70999998
   13.67722225  110.51300049    0.13000000    0.70999998
   13.68055630  103.31600189    0.13000000    0.69000000
   13.68138885  105.55500031    0.13000000    0.69000000
   13.68388939  104.64399719    0.13000000    0.69000000
   13.68722248  108.59700012    0.13000000    0.69000000
   13.69055557  105.57399750    0.13000000    0.67000002
   13.69638920  105.57399750    0.13000000    0.64999998
   13.70055580  106.58799744    0.13000000    0.64999998
   13.70388889  108.45800018    0.13000000    0.63000000
   13.70722198  108.21499634    0.13000000    0.63000000
   13.71055508  103.18099976    0.13000000    0.61000001
   13.71361065  105.41400146    0.13000000    0.61000001
   13.71472168   99.28579712    0.13000000    0.61000001
   13.71722221  105.27600098    0.13000000    0.58999997
   13.72055531  107.25700378    0.13000000    0.58999997
   13.72388840  109.27500153    0.13000000    0.56999999
   13.72694397  103.37300110    0.11000000    0.56999999
   13.73027706  110.64700317    0.13000000    0.56999999
   13.73333359  111.20400238    0.13000000    0.56999999
   13.73944473  111.20400238    0.13000000    0.55000001
   13.74361134  113.11900330    0.11000000    0.55000001
   13.74666691  109.01899719    0.13000000    0.55000001
   13.74833393  117.29599762    0.11000000    0.52999997
   13.75055599  108.96700287    0.11000000    0.52999997
   13.75388908  104.60900116    0.11000000    0.52999997
   13.75722218  110.88700104    0.11000000    0.52999997
   13.76027775  106.65299988    4.90999985    2.78999996
   13.76361084  108.78600311    4.90999985    2.78999996
   13.76694393  109.23000336    4.90999985    2.86999989
   13.76999950  109.73699951    4.90999985    2.78999996
   13.77333355  106.10199738    4.90999985    2.80999994
   13.77638817  110.77100372    3.25000000    2.78999996
   13.78222179  110.77100372    1.00000000    2.80999994
   13.78638935  112.97200012    0.76999998    2.78999996
   13.78944492  109.37400055    0.64999998    2.78999996
   13.79277802  112.12100220    0.55000001    2.78999996
   13.79611111  111.09700012    0.55000001    2.80999994
   13.79916668  109.34100342    0.55000001    2.78999996
   13.80249977  108.09300232    0.55000001    2.78999996
   13.80583382  100.41300201    0.55000001    2.78999996
   13.80888939  108.47399902    0.55000001    2.76999998
   13.81222248  108.80000305    0.55000001    2.78999996
   13.81472206  102.77500153    0.55000001    2.78999996
   13.81555557  101.14900208    0.52999997    2.78999996
   13.81888866   94.30950165    0.52999997    2.78999996
   13.82499981   94.30950165    0.55000001    2.78999996
   13.82916641  100.83000183    0.55000001    2.78999996
   13.83249950  105.08200073    0.55000001    2.78999996
   13.83555508  105.81199646    0.52999997    2.78999996
   13.83888817  105.81300354    0.55000001    2.78999996
   13.84222221   97.10839844    0.55000001    2.78999996
   13.84527779  101.97299957    0.55000001    2.78999996
   13.84805489  112.49800110    0.55000001    2.78999996
   13.84888840  107.70999908    0.55000001    2.78999996
   13.85222244  107.04299927    0.52999997    2.78999996
   13.85527802  105.88400269    0.52999997    2.78999996
   13.85861111  107.94999695    0.52999997    2.80999994
   13.86194515  105.43499756    0.52999997    2.80999994
   13.86777782  105.43499756    0.52999997    2.78999996
   13.87194443  107.44799805    0.52999997    2.76999998
   13.87527752  109.10900116    0.52999997    2.78999996
   13.87861156  106.89600372    0.52999997    2.78999996
   13.88138866  115.13999939    0.52999997    2.76999998
   13.88194466  109.71600342    0.52999997    2.76999998
   13.88527775  108.37799835    0.51999998    2.78999996
   13.88861084  111.06099701    0.52999997    2.78999996
   13.89166641  115.51399994    0.52999997    2.78999996
   13.89499950  107.08499908    0.52999997    2.78999996
   13.89833355  111.06500244    0.52999997    2.78999996
   13.90138817  111.62000275    0.52999997    2.80999994
   13.90472221  107.27300262    0.52999997    2.80999994
   13.91083336  107.27300262    0.52999997    2.80999994
   13.91499996  110.56800079    0.52999997    2.80999994
   13.91805553  106.18699646    0.52999997    2.80999994
   13.92138958  107.78900146    0.52999997    2.80999994
   13.92444515  109.10099792    0.52999997    2.80999994
   13.92777824  112.02799988    0.52999997    2.80999994
   13.93111134  107.08300018    0.52999997    2.80999994
   13.93416691  105.83999634    0.52999997    2.78999996
   13.93750000  115.38300323    0.52999997    2.78999996
   13.94083309  109.03299713    0.52999997    2.80999994
   13.94388866  105.76200104    0.52999997    2.80999994
   13.94722271  106.11299896    0.52999997    2.78999996
   13.94805527  107.71600342    0.52999997    2.80999994
   13.95361137  107.71600342    0.52999997    2.80999994
   13.95777798  108.80500031    0.52999997    2.80999994
   13.96083355  110.37599945    0.52999997    2.80999994
   13.96416664  109.13600159    0.52999997    2.78999996
   13.96749973  110.76499939    0.52999997    2.78999996
   13.97055531  107.92400360    0.52999997    2.78999996
   13.97388840  107.05200195    0.52999997    2.78999996
   13.97722149  108.69699860    0.52999997    2.78999996
   13.98027706  112.42400360    0.52999997    2.78999996
   13.98138809  113.44699860    0.52999997    2.78999996
   13.98388958  112.26399994    0.52999997    2.78999996
   13.98722267  107.45500183    0.52999997    2.78999996
   13.99055576  107.84999847    0.52999997    2.80999994
   13.99638939  107.84999847    0.51999998    2.78999996
   14.00055599  102.76499939    0.51999998    2.80999994
   14.00388908  103.89600372    0.51999998    2.78999996
   14.00694466  108.78199768    0.51999998    2.80999994
   14.01027775  105.19499969    0.52999997    2.80999994
   14.01361084  111.77500153    0.51999998    2.80999994
   14.01472187  109.17500305    0.51999998    2.80999994
   14.01722240  105.30300140    0.51999998    2.80999994
   14.02055550  111.28199768    0.51999998    2.80999994
   14.02361107  111.21600342    0.52999997    2.78999996
   14.02694416  113.08000183    0.52999997    2.80999994
   14.03027725  114.40299988    0.52999997    2.80999994
   14.03333378  110.58499908    0.52999997    2.80999994
   14.03916740  110.58499908    0.52999997    2.80999994
   14.04333401  115.20300293    0.55000001    2.80999994
   14.04666710  114.80100250    0.55000001    2.80999994
   14.04805565  112.90499878    0.55000001    2.80999994
   14.05000019  115.96399689    0.55000001    2.80999994
   14.05333328  109.93099976    0.55000001    2.80999994
   14.05666733  109.95800018    0.55000001    2.80999994
   14.05972195  111.62100220    0.55000001    2.80999994
   14.06305599  103.89600372    0.55000001    2.80999994
   14.06638908  111.89099884    0.55000001    2.80999994
   14.06944466  109.80699921    0.55000001    2.80999994
   14.07277775  114.35700226    0.55000001    2.80999994
   14.07611084  103.76999664    0.55000001    2.80999994
   14.08222198  103.76999664    0.55000001    2.80999994
   14.08638859  108.55500031    0.55000001    2.80999994
   14.08944416  112.42199707    0.55000001    2.80999994
   14.09277725  103.70700073    0.55000001    2.80999994
   14.09611034  107.19699860    0.55000001    2.82999992
   14.09916592  106.43099976    0.55000001    2.82999992
   14.10249996  107.73799896    0.55000001    2.82999992
   14.10583401  104.49199677    0.55000001    2.80999994
   14.10888958  106.98300171    0.55000001    2.82999992
   14.11222267  104.52999878    0.55000001    2.80999994
   14.11472225  109.39499664    0.55000001    2.80999994
   14.11583328  106.65299988    0.55000001    2.80999994
   14.11888885   97.80480194    0.55000001    2.80999994
   14.12500000   97.80480194    0.56999999    2.82999992
   14.12916660  105.00900269    0.55000001    2.82999992
   14.13249969  110.68299866    0.55000001    2.82999992
   14.13555527  103.16699982    0.55000001    2.82999992
   14.13888836  106.20999908    0.55000001    2.80999994
   14.14194393  103.50900269    0.55000001    2.80999994
   14.14527798  109.53399658    0.52999997    2.80999994
   14.14805508  111.00599670    0.52999997    2.82999992
   14.14888859  104.40299988    0.52999997    2.82999992
   14.15194416  106.75399780    0.51999998    2.82999992
   14.15527725  102.50700378    0.51999998    2.82999992
   14.15833282  104.48600006    0.52999997    2.80999994
   14.16166592  105.93499756    0.52999997    2.80999994
   14.16777802  105.93499756    0.51999998    2.80999994
   14.17194462  108.98300171    0.51999998    2.82999992
   14.17527771  107.22399902    0.52999997    2.82999992
   14.17833328  105.28900146    0.52999997    2.82999992
   14.18138885  108.30799866    0.52999997    2.80999994
   14.18222237  110.15699768    0.52999997    2.80999994
   14.18555546  110.42800140    0.52999997    2.82999992
   14.18888855  102.92600250    0.52999997    2.80999994
   14.19194412  109.75700378    0.52999997    2.82999992
   14.19527817  104.75900269    0.52999997    2.82999992
   14.19833374  106.18499756    0.52999997    2.82999992
   14.20166683  108.41400146    0.52999997    2.82999992
   14.20499992  113.05200195    0.52999997    2.80999994
   14.21083355  113.05200195    0.52999997    2.80999994
   14.21472168  109.89600372    0.51999998    2.82999992
   14.21805477  111.07299805    0.51999998    2.80999994
   14.22138882  116.94699860    0.52999997    2.82999992
   14.22444439  106.57399750    0.52999997    2.82999992
   14.22777748  107.64199829    0.51999998    2.82999992
   14.23111057  107.62699890    0.51999998    2.82999992
   14.23416710  110.11900330    0.51999998    2.82999992
   14.23750019  108.98999786    0.51999998    2.80999994
   14.24083328  105.23999786    0.51999998    2.80999994
   14.24388885  103.59899902    0.51999998    2.82999992
   14.24722290  109.83699799    0.51999998    2.80999994
   14.24805546  104.47100067    0.51999998    2.80999994
   14.26861095  104.47100067    0.50000000    2.82999992
   14.27277756  110.46900177    0.50000000    2.82999992
   14.27611065  107.49199677    0.51999998    2.82999992
   14.27944374  113.08799744    0.51999998    2.82999992
   14.28138828  100.72799683    0.52999997    2.80999994
   14.28305531  109.81199646    0.51999998    2.80999994
   14.28611183  115.47299957    0.51999998    2.80999994
   14.28944492  103.31999969    0.51999998    2.82999992
   14.29250050  105.84899902    0.52999997    2.82999992
   14.29583359  110.48200226    0.52999997    2.82999992
   14.29916668  105.21399689    0.52999997    2.82999992
   14.30222225  108.72499847    0.52999997    2.82999992
   14.30555534  110.72100067    0.52999997    2.82999992
   14.31138897  110.72100067    0.52999997    2.80999994
   14.31555557  107.98600006    0.52999997    2.82999992
   14.31888866  102.89099884    0.52999997    2.82999992
   14.32222176  103.98699951    0.55000001    2.82999992
   14.32527733   98.76100159    0.52999997    2.80999994
   14.32861137   98.95619965    0.52999997    2.80999994
   14.33166695  101.11000061    0.52999997    2.82999992
   14.33500004  104.59999847    0.52999997    2.80999994
   14.33833313  109.03500366    0.52999997    2.80999994
   14.34138870  101.97499847    0.55000001    2.80999994
   14.34472179  102.77700043    0.55000001    2.80999994
   14.34805489  112.30500031    0.55000001    2.80999994
   14.34833336  108.74400330    0.55000001    2.80999994
   14.35444450  108.74400330    0.55000001    2.80999994
   14.35833359  110.83499908    0.55000001    2.80999994
   14.36166668  104.75800323    0.55000001    2.82999992
   14.36500072  110.42500305    0.56999999    2.82999992
   14.36805534  104.25299835    0.56999999    2.80999994
   14.37138939  109.09799957    0.56999999    2.82999992
   14.37472248  113.70899963    0.56999999    2.80999994
   14.37777805  110.09300232    0.55000001    2.80999994
   14.38111115  111.96099854    0.55000001    2.82999992
   14.38166714  108.93000031    0.56999999    2.80999994
   14.38472176  111.39199829    0.56999999    2.82999992
   14.38805580  109.25900269    0.56999999    2.82999992
   14.39111137  108.66500092    0.56999999    2.82999992
   14.39722252  108.66500092    0.56999999    2.82999992
   14.40138817  114.30599976    0.56999999    2.80999994
   14.40444374  106.00800323    0.56999999    2.80999994
   14.40777779  101.63500214    0.56999999    2.80999994
   14.41111088  107.29599762    0.56999999    2.82999992
   14.41416645  105.26799774    0.56999999    2.82999992
   14.41499996  105.58899689    0.56999999    2.82999992
   14.41777802  106.57800293    0.56999999    2.80999994
   14.42111111  106.73500061    0.56999999    2.82999992
   14.42416668  106.08000183    0.55000001    2.80999994
   14.42750072  109.71800232    0.55000001    2.82999992
   14.43083382  105.37000275    0.55000001    2.80999994
   14.43388939  105.13700104    0.55000001    2.80999994
   14.44000053  105.13700104    0.55000001    2.80999994
   14.44416714  111.24500275    0.55000001    2.80999994
   14.44750023  106.85199738    0.55000001    2.80999994
   14.44833374  108.30599976    0.56999999    2.80999994
   14.45111084  107.99400330    4.90999985    2.91000009
   14.45444393  109.27700043    4.90999985    2.93000007
   14.45749950  107.50099945    4.90999985    2.93000007
   14.46083355  110.91100311    4.90999985    2.93000007
   14.46416664  108.56800079    4.90999985    2.93000007
   14.46722221  115.19799805    4.90999985    2.93000007
   14.47055531  114.91500092    4.90999985    2.93000007
   14.47361088  106.18699646    4.90999985    2.93000007
   14.47694397  110.58300018    4.90999985    2.93000007
   14.48277760  110.58300018    4.90999985    2.91000009
   14.48694515  105.40200043    4.90999985    2.91000009
   14.49027824  105.74400330    4.90999985    2.91000009
   14.49361134  108.78900146    4.90999985    2.91000009
   14.49666691  107.97799683    4.90999985    2.91000009
   14.50000000  112.93099976    4.90999985    2.91000009
   14.50333309  102.08399963    4.90999985    2.91000009
   14.50666714   99.91280365    4.90999985    2.91000009
   14.50972176  106.46099854    4.90999985    2.91000009
   14.51305580  100.45800018    4.90999985    2.91000009
   14.51527786  105.21099854    4.90999985    2.91000009
   14.51666641  106.36900330    4.90999985    2.91000009
   14.51999950  103.46299744    4.90999985    2.91000009
   14.52583313  103.46299744    4.90999985    2.89000010
   14.52999973  107.95600128    4.90999985    2.89000010
   14.53305531  109.63200378    4.90999985    2.89000010
   14.53638935  109.83000183    4.90999985    2.89000010
   14.53944492  106.75199890    4.90999985    2.89000010
   14.54277802  106.83599854    4.90999985    2.86999989
   14.54611111  108.21499634    4.90999985    2.86999989
   14.54861164  108.74199677    4.90999985    2.86999989
   14.54944515  109.86299896    4.90999985    2.86999989
   14.55277824  104.98500061    4.90999985    2.86999989
   14.55583382   99.81210327    4.90999985    2.84999990
   14.55916691  105.36000061    4.90999985    2.86999989
   14.56222248  107.82299805    4.90999985    2.86999989
   14.56861115  107.82299805    4.90999985    2.84999990
   14.57277775  104.94000244    4.90999985    2.86999989
   14.57583332  112.99199677    4.90999985    2.84999990
   14.57916641  107.32499695    4.90999985    2.84999990
   14.58166695  101.43199921    4.90999985    2.84999990
   14.58277798  105.93199921    4.90999985    2.82999992
   14.58611107  104.01000214    4.90999985    2.84999990
   14.58916664  113.20400238    4.90999985    2.84999990
   14.59249973  107.51399994    4.90999985    2.84999990
   14.59555531  102.66600037    4.90999985    2.84999990
   14.59888840  108.74099731    4.90999985    2.84999990
   14.60222244  109.23999786    4.90999985    2.84999990
   14.60527802  109.63600159    4.90999985    2.84999990
   14.61138916  109.63600159    4.90999985    2.86999989
   14.61555576   96.82980347    4.90999985    2.86999989
   14.61861134  103.72799683    4.90999985    2.84999990
   14.62194443   96.72460175    4.90999985    2.86999989
   14.62527752  107.63400269    4.90999985    2.86999989
   14.62833309  101.54299927    4.90999985    2.86999989
   14.63166714  107.91200256    4.90999985    2.86999989
   14.63500023  102.35900116    4.90999985    2.89000010
   14.63805580  103.53099823    4.90999985    2.89000010
   14.64138889  106.25199890    4.90999985    2.89000010
   14.64444447  103.62200165    4.90999985    2.91000009
   14.64777756  100.87799835    4.90999985    2.91000009
   14.64833355  100.77300262    4.90999985    2.91000009
   14.65416622  100.77300262    4.90999985    2.91000009
   14.65833282  103.89399719    4.90999985    2.91000009
   14.66166592  106.65000153    4.90999985    2.93000007
   14.66472149  103.83499908    4.90999985    2.93000007
   14.66805553  107.39900208    4.90999985    2.93000007
   14.67138958  105.77400208    4.90999985    2.93000007
   14.67444515  106.95800018    4.90999985    2.94000006
   14.67777824  104.29499817    4.90999985    2.93000007
   14.68083382  105.95600128    4.90999985    2.93000007
   14.68166733  103.01499939    4.90999985    2.93000007
   14.68444443   99.42369843    4.90999985    2.94000006
   14.68777752  111.72000122    4.90999985    2.94000006
   14.69083309  110.98500061    4.90999985    2.94000006
   14.69694424  110.98500061    4.90999985    2.96000004
   14.70111084  104.51300049    4.90999985    2.94000006
   14.70444393  102.87100220    4.90999985    2.94000006
   14.70777798  105.29100037    4.90999985    2.94000006
   14.71083355   99.48999786    4.90999985    2.96000004
   14.71416664  103.07599640    4.90999985    2.96000004
   14.71500015  100.75299835    4.90999985    2.96000004
   14.71777725  108.59999847    4.90999985    2.96000004
   14.72111034  111.56300354    4.90999985    2.96000004
   14.72416592  108.42900085    4.90999985    2.96000004
   14.72749996  108.38500214    4.90999985    2.96000004
   14.73083305  117.81400299    4.90999985    2.96000004
   14.73388958  108.25399780    4.90999985    2.96000004
   14.74000072  108.25399780    4.90999985    2.96000004
   14.74388885  106.83300018    4.90999985    2.96000004
   14.74722290  114.65499878    4.55999994    2.96000004
   14.74833393  115.97799683    4.26000023    2.98000002
   14.75083351  106.69000244    4.09999990    2.96000004
   14.75416660  111.97899628    4.00000000    2.96000004
   14.75722218  104.30999756    3.16000009    2.96000004
   14.76055527  102.29699707    2.32999992    2.96000004
   14.76388931  104.59999847    2.34999990    2.96000004
   14.76694393  107.79599762    2.13000011    2.98000002
   14.77027798  103.13800049    1.66999996    2.96000004
   14.77333355  111.08499908    1.09000003    2.96000004
   14.77666664  100.14399719    1.05999994    2.96000004
   14.78277779  100.14399719    0.83999997    2.96000004
   14.78694534  108.84899902    0.83999997    2.96000004
   14.79000092  110.66600037    0.75000000    2.96000004
   14.79333401  105.52300262    0.64999998    2.96000004
   14.79666710  110.45600128    0.64999998    2.96000004
   14.79972267  105.50599670    0.55000001    2.96000004
   14.80305576   99.82589722    0.55000001    2.96000004
   14.80638885  105.90499878    0.52999997    2.96000004
   14.80944443  106.41699982    0.50000000    2.94000006
   14.81277752  103.05100250    0.51999998    2.96000004
   14.81500053  106.82399750    0.50000000    2.94000006
   14.81638908  112.29799652    0.47999999    2.94000006
   14.81972218  114.75800323    0.47999999    2.96000004
   14.82555580  114.75800323    0.46000001    2.96000004
   14.82972240   97.60510254    0.44000000    2.94000006
   14.83305550  104.82800293    0.44000000    2.94000006
   14.83611107  113.20999908    0.44000000    2.93000007
   14.83944416  104.48000336    0.44000000    2.94000006
   14.84249973  102.38500214    0.44000000    2.93000007
   14.84583282  108.11299896    0.44000000    2.93000007
   14.84833336  105.31199646    0.44000000    2.93000007
   14.84944439  106.52200317    0.44000000    2.93000007
   14.85277843  108.30400085    0.41999999    2.93000007
   14.85583401   99.94629669    0.41999999    2.93000007
   14.85916710  102.03800201    0.41999999    2.93000007
   14.86250019  106.94699860    0.41999999    2.91000009
   14.86833382  106.94699860    0.40000001    2.91000009
   14.87250042  100.63700104    0.38000000    2.89000010
   14.87583351  102.87799835    0.38000000    2.91000009
   14.87888908  100.13200378    0.38000000    2.89000010
   14.88166714  106.62300110    0.38000000    2.86999989
   14.88249969  108.84999847    0.36000001    2.89000010
   14.88583279  108.34799957    0.36000001    2.84999990
   14.88888836  102.02799988    0.36000001    2.86999989
   14.89222240  103.72000122    0.36000001    2.86999989
   14.89555550  103.20600128    0.36000001    2.80999994
   14.89861107  103.95899963    0.36000001    2.80999994
   14.90194416  103.35199738    0.34000000    2.76999998
   14.90499973  101.23799896    0.34000000    2.71000004
   14.91138840  101.23799896    0.31999999    2.67000008
   14.91527748  100.91600037    0.31999999    2.55999994
   14.91861153   96.54419708    0.30000001    2.53999996
   14.92194462   98.13539886    0.31999999    2.51999998
   14.92500019  103.57099915    0.30000001    2.48000002
   14.92833328   97.49980164    0.30000001    2.39000010
   14.93166733   99.26090240    0.30000001    2.39000010
   14.93472195  104.59999847    0.30000001    2.26999998
   14.93805599  107.34999847    0.30000001    2.25000000
   14.94138908  102.41600037    0.30000001    2.23000002
   14.94444466  107.56800079    0.30000001    2.19000006
   14.94777775   95.07350159    0.30000001    2.19000006
   14.94833374   98.73629761    0.30000001    2.19000006
   14.95416641   98.73629761    0.30000001    2.01999998
   14.95833302  103.76499939    0.30000001    1.96000004
   14.96138859  105.33599854    0.28000000    1.85000002
   14.96472168  107.21700287    0.28000000    1.85000002
   14.96805477  107.67600250    0.28000000    1.85000002
   14.97111034  106.62799835    0.25999999    1.61000001
   14.97444439  111.53399658    0.25999999    1.63000000
   14.97749996  103.55100250    0.25000000    1.61000001
   14.98083305  103.72599792    0.25000000    1.39999998
   14.98166656   95.89880371    0.25000000    1.39999998
   14.98444462  101.69799805    0.25000000    1.39999998
   14.98777771   99.99130249    0.25000000    1.33000004
   14.99083328  109.38200378    0.25000000    1.28999996
   14.99694443  109.38200378    0.25000000    1.07000005
   15.00111103  110.15000153    0.25000000    1.01999998
   15.00444412  107.73000336    0.23000000    0.86000001
   15.00749969  102.59600067    0.23000000    0.81999999
   15.01083374  107.67800140    0.23000000    0.81999999
   15.01388931  106.24900055    0.23000000    0.80000001
   15.01500034   99.92910004    0.23000000    0.76999998
   15.01749992  103.91200256    0.20999999    0.73000002
   15.02083302  101.13999939    0.20999999    0.73000002
   15.02388859  106.36100006    4.90999985    2.84999990
   15.02722168  105.03299713    1.80999994    2.84999990
   15.03055573  107.59999847    1.36000001    2.84999990
   15.03361130  105.10600281    1.11000001    2.84999990
   15.03972244  105.10600281    1.00000000    2.84999990
   15.04388905  104.77899933    1.00000000    2.84999990
   15.04722309  107.39399719    1.01999998    2.84999990
   15.04861164  111.12899780    1.01999998    2.84999990
   15.05083370  112.42800140    1.00000000    2.82999992
   15.05416679  103.46600342    0.98000002    2.84999990
   15.05722237  106.72899628    0.98000002    2.84999990
   15.06055546  110.83999634    0.98000002    2.84999990
   15.06388950  107.07700348    0.98000002    2.82999992
   15.06694412  105.75700378    0.98000002    2.84999990
   15.07027817   98.57150269    0.95999998    2.82999992
   15.07361126   96.84639740    0.98000002    2.84999990
   15.07666683  106.01300049    1.00000000    2.84999990
   15.08277798  106.01300049    0.98000002    2.82999992
   15.08666611   98.53359985    1.05999994    2.84999990
   15.09000015  106.33300018    1.05999994    2.84999990
   15.09333324  105.38700104    1.05999994    2.82999992
   15.09638882  104.18800354    1.11000001    2.84999990
   15.09972191  108.34400177    1.19000006    2.84999990
   15.10305595  106.57099915    1.21000004    2.84999990
   15.10638905  106.66699982    1.28999996    2.84999990
   15.10944462  106.08300018    0.86000001    2.82999992
   15.11277771  106.93099976    0.83999997    2.82999992
   15.11527824  101.32900238    0.83999997    2.82999992
   15.11638927  107.77100372    0.86000001    2.84999990
   15.11972237  100.43099976    0.86000001    2.82999992
   15.12555599  100.43099976    0.86000001    2.84999990
   15.12972260  107.50000000    0.86000001    2.84999990
   15.13277817  102.86100006    0.86000001    2.84999990
   15.13611126  111.30100250    0.86000001    2.84999990
   15.13944435  105.12899780    0.86000001    2.84999990
   15.14249992  105.58300018    0.86000001    2.84999990
   15.14583302  107.93199921    0.88000000    2.84999990
   15.14861107  104.33499908    0.88000000    2.84999990
   15.14944458  107.15200043    0.88000000    2.84999990
   15.15277767  109.75599670    0.89999998    2.84999990
   15.15611076  106.32399750    0.89999998    2.84999990
   15.15916634  108.32299805    0.89999998    2.84999990
   15.16249943  104.13099670    0.89999998    2.84999990
   15.16833401  104.13099670    0.89999998    2.82999992
   15.17250061  101.81300354    0.89999998    2.82999992
   15.17583370  105.04000092    0.94000000    2.84999990
   15.17888927  104.13099670    0.89999998    2.82999992
   15.18194485  101.14700317    0.89999998    2.82999992
   15.18249989  107.44400024    0.89999998    2.82999992
   15.18583298  104.76200104    0.89999998    2.82999992
   15.18888855  107.19899750    0.89999998    2.82999992
   15.19222260  104.59600067    0.92000002    2.82999992
   15.19555569  107.73600006    0.94000000    2.80999994
   15.19861126   98.78610229    0.94000000    2.82999992
   15.20194435  102.65899658    0.98000002    2.82999992
   15.20527744  102.97100067    1.01999998    2.82999992
   15.21111107  102.97100067    4.90999985    2.89000010
   15.21527767  104.57499695    4.90999985    2.89000010
   15.21861076  109.48200226    4.53000021    2.86999989
   15.22166634  104.17700195    2.98000002    2.86999989
   15.22499943  106.58899689    1.98000002    2.84999990
   15.22833252  107.68900299    1.16999996    2.82999992
   15.23138809  101.98100281    0.95999998    2.80999994
   15.23472214   97.67230225    0.95999998    2.82999992
   15.23805618   97.31880188    1.00000000    2.82999992
   15.24111176  104.40599823    1.01999998    2.84999990
   15.24444485  103.00599670    1.05999994    2.84999990
   15.24750042   98.33170319    1.05999994    2.84999990
   15.24861145  103.87500000    1.05999994    2.84999990
   15.25416660  103.87500000    1.01999998    2.84999990
   15.25805569  103.17500305    1.00000000    2.84999990
   15.26138878  114.71800232    0.98000002    2.86999989
   15.26472187  116.48500061    0.94000000    2.84999990
   15.28222179  108.76799774    0.92000002    2.84999990
   15.28472233  106.15499878    0.94000000    2.84999990
   15.28777790  102.05500031    0.94000000    2.84999990
   15.29111195  105.27799988    0.94000000    2.84999990
   15.29694462  105.27799988    0.94000000    2.84999990
   15.30111122  102.04699707    0.95999998    2.84999990
   15.30444431  105.25800323    0.95999998    2.84999990
   15.30749989   96.14240265    0.95999998    2.84999990
   15.31083393  100.17099762    0.95999998    2.84999990
   15.31416702  101.76799774    0.94000000    2.82999992
   15.31555557  104.66400146    0.94000000    2.84999990
   15.31750011   98.74600220    0.95999998    2.84999990
   15.32083321   97.82599640    0.98000002    2.84999990
   15.32416630   95.63610077    0.98000002    2.84999990
   15.32722187   94.28340149    1.03999996    2.84999990
   15.33055592   97.56259918    1.03999996    2.84999990
   15.33361053  102.16000366    1.07000005    2.84999990
   15.34000015  102.16000366    1.00000000    2.86999989
   15.34388828  102.08899689    1.00000000    2.84999990
   15.34722233   97.66570282    0.98000002    2.84999990
   15.34888840   99.64420319    0.98000002    2.84999990
   15.35083389   97.83049774    0.98000002    2.86999989
   15.35416698  104.24400330    1.00000000    2.84999990
   15.35750008  104.67400360    1.00000000    2.86999989
   15.36055565  102.30999756    1.00000000    2.84999990
   15.36388969   96.52999878    1.00000000    2.84999990
   15.36722279   99.55549622    1.00000000    2.84999990
   15.37027836  101.02700043    1.00000000    2.84999990
   15.37361145  106.18299866    0.98000002    2.84999990
   15.37694454  100.45600128    0.95999998    2.84999990
   15.38277817  100.45600128    0.95999998    2.84999990
   15.38694477  102.70700073    0.95999998    2.84999990
   15.39000034  100.94599915    1.00000000    2.84999990
   15.39333344  103.27100372    0.98000002    2.84999990
   15.39666653  101.30100250    0.98000002    2.84999990
   15.39972210  103.73899841    0.98000002    2.82999992
   15.40305519  102.53800201    0.98000002    2.84999990
   15.40611076  103.84300232    0.95999998    2.84999990
   15.40944386  101.73300171    0.98000002    2.82999992
   15.41277695  101.39299774    0.98000002    2.82999992
   15.41555500   98.78730011    0.98000002    2.82999992
   15.41611099  102.65699768    0.98000002    2.82999992
   15.41944504  100.75700378    0.95999998    2.82999992
   15.42555618  100.75700378    0.94000000    2.82999992
   15.42972279  102.61100006    0.89999998    2.82999992
   15.43305588  102.57199860    0.92000002    2.84999990
   15.43611145  104.90100098    0.92000002    2.82999992
   15.43944454  103.19699860    0.98000002    2.82999992
   15.44250011   97.76280212    1.01999998    2.82999992
   15.44583321  102.96800232    1.03999996    2.84999990
   15.44888878  103.26000214    1.09000003    2.82999992
   15.44944477  102.16899872    1.07000005    2.82999992
   15.45277786  105.11699677    1.07000005    2.82999992
   15.45611095  106.80200195    1.14999998    2.82999992
   15.45916653   98.73059845    1.13000000    2.84999990
   15.46249962  107.64600372    1.13000000    2.82999992
   15.46833324  107.64600372    1.16999996    2.82999992
   15.47249985  109.16699982    1.16999996    2.84999990
   15.47583294  104.20700073    1.19000006    2.82999992
   15.47888851  103.23400116    1.21000004    2.84999990
   15.48222160  103.95600128    1.21000004    2.82999992
   15.48249912  103.27200317    1.21000004    2.82999992
   15.48583317   96.68630219    1.21000004    2.82999992
   15.48916721  105.31800079    1.23000002    2.82999992
   15.49222279  113.34999847    1.23000002    2.82999992
   15.49555588  103.80699921    1.33000004    2.84999990
   15.49861145  108.26100159    1.36000001    2.84999990
   15.50194454  101.53099823    1.38000000    2.82999992
   15.50527763   98.25769806    1.55999994    2.82999992
   15.51138878   98.25769806    1.55999994    2.84999990
   15.51527786   96.92769623    1.96000004    2.86999989
   15.51583290  106.41400146    1.96000004    2.86999989
   15.51916599  101.10099792    2.07999992    2.89000010
   15.52222157  103.02999878    2.09999990    2.86999989
   15.52555561  100.22899628    2.48000002    2.86999989
   15.52888870  102.36799622    2.73000002    2.89000010
   15.53194427  100.84300232    2.75000000    2.86999989
   15.53527832   98.47039795    2.98000002    2.89000010
   15.53861141  101.63899994    3.57999992    2.91000009
   15.54166698   99.33059692    3.55999994    2.89000010
   15.54500008   98.25389862    4.03999996    2.89000010
   15.54833412  100.88099670    4.44999981    2.91000009
   15.54916668   95.80899811    4.44999981    2.91000009
   15.55416679   95.80899811    4.90999985    2.91000009
   15.55833340  100.57900238    4.90999985    2.91000009
   15.56138897  105.50700378    4.90999985    2.91000009
   15.56472206   95.33599854    4.90999985    2.93000007
   15.56777763  101.58899689    4.90999985    2.91000009
   15.57111073  102.66500092    4.90999985    2.91000009
   15.57444477  101.72799683    4.90999985    2.91000009
   15.57750034  102.27700043    4.90999985    2.93000007
   15.58083344  106.93199921    4.90999985    2.91000009
   15.58249950   99.60410309    4.90999985    2.91000009
   15.58444405  101.70500183    4.90999985    2.91000009
   15.58749962  103.68099976    4.90999985    2.91000009
   15.59083271  104.80200195    4.90999985    2.91000009
   15.59694386  104.80200195    4.90999985    2.91000009
   15.60111141  108.71800232    4.90999985    2.91000009
   15.60444450   98.87899780    4.90999985    2.91000009
   15.60750008   94.50599670    4.90999985    2.91000009
   15.61083412   99.95549774    4.90999985    2.91000009
   15.61388969  101.34500122    4.90999985    2.89000010
   15.61583328  102.14800262    4.90999985    2.89000010
   15.61777782  105.14900208    4.90999985    2.89000010
   15.62111092  100.99199677    4.90999985    2.89000010
   15.62416649  104.08799744    4.90999985    2.89000010
   15.62750053  102.14900208    4.90999985    2.91000009
   15.63055611  105.50800323    4.90999985    2.91000009
   15.63388920  104.54900360    4.90999985    2.91000009
   15.63972187  104.54900360    4.90999985    2.89000010
   15.64388847  106.95600128    4.90999985    2.89000010
   15.64722252  103.09400177    4.90999985    2.89000010
   15.64916611  107.60600281    4.90999985    2.89000010
   15.65083313  102.62100220    4.90999985    2.86999989
   15.65388870  102.86799622    4.90999985    2.89000010
   15.65722179  101.68299866    4.90999985    2.86999989
   15.66055489   92.52130127    4.90999985    2.86999989
   15.66361046   99.91139984    4.90999985    2.89000010
   15.66694450   99.27040100    4.90999985    2.89000010
   15.67027855   99.22969818    4.90999985    2.89000010
   15.67333412  111.17199707    4.90999985    2.89000010
   15.67666721  103.91400146    4.90999985    2.89000010
   15.68249989  103.91400146    4.90999985    2.89000010
   15.68666649   91.00299835    4.90999985    2.89000010
   15.69000053   99.75460052    4.90999985    2.89000010
   15.69333363   95.20279694    4.90999985    2.89000010
   15.69638920  104.88999939    4.90999985    2.89000010
   15.69972229   95.95690155    4.90999985    2.91000009
   15.70305538  101.04599762    4.90999985    2.91000009
   15.70611095   99.32510376    4.90999985    2.91000009
   15.70944405  105.58000183    4.90999985    2.91000009
   15.71249962  101.08300018    4.90999985    2.93000007
   15.71583271  103.60399628    4.90999985    2.93000007
   15.71638870  104.78700256    4.90999985    2.93000007
   15.71944427  102.94799805    4.90999985    2.93000007
   15.72555542  102.94799805    4.90999985    2.93000007
   15.72972202  102.75199890    4.90999985    2.93000007
   15.73277760  102.80899811    4.90999985    2.93000007
   15.73611164  111.96900177    4.90999985    2.93000007
   15.73916721  101.64900208    4.90999985    2.93000007
   15.74250031  111.77100372    4.90999985    2.93000007
   15.74583340  103.49199677    4.90999985    2.93000007
   15.74888897  106.94899750    4.90999985    2.91000009
   15.74944496  101.55899811    4.90999985    2.93000007
   15.75277805  104.68299866    4.90999985    2.93000007
   15.75583363  106.28700256    4.90999985    2.94000006
   15.75916672  102.91999817    4.90999985    2.93000007
   15.76249981   99.63390350    4.90999985    2.94000006
   15.76833344   99.63390350    4.90999985    2.94000006
   15.77250004   92.67359924    4.90999985    2.94000006
   15.77555561  104.09100342    4.90999985    2.94000006
   15.77888870   94.44460297    4.90999985    2.96000004
   15.78222179   98.62409973    4.90999985    2.96000004
   15.78277779   94.45169830    4.90999985    2.96000004
   15.78583336  102.29199982    4.90999985    2.96000004
   15.78916740   99.73619843    4.90999985    2.96000004
   15.79222298  100.39299774    4.90999985    2.96000004
   15.79555607   96.11660004    4.90999985    2.96000004
   15.79861164  108.56300354    4.90999985    2.96000004
   15.80194473  102.76899719    4.90999985    2.96000004
   15.80527782  100.20200348    4.90999985    2.96000004
   15.81111145  100.20200348    4.90999985    2.96000004
   15.81527805  101.58999634    4.90999985    2.96000004
   15.81611156  102.12799835    4.90999985    2.96000004
   15.81888866  106.23400116    4.90999985    2.96000004
   15.82194424  106.49500275    4.90999985    2.96000004
   15.82527733   99.42019653    4.90999985    2.96000004
   15.82861137   99.44349670    4.90999985    2.96000004
   15.83166695  100.50800323    4.90999985    2.96000004
   15.83500004   96.89250183    4.90999985    2.96000004
   15.83833313   99.32969666    4.90999985    2.98000002
   15.84138870  102.19000244    4.90999985    2.96000004
   15.84472179   99.84529877    4.90999985    2.96000004
   15.84777737   97.17759705    4.90999985    2.96000004
   15.84944439   93.55919647    4.90999985    2.96000004
   15.85416698   93.55919647    4.90999985    2.96000004
   15.85805607   96.23619843    4.90999985    2.96000004
   15.86138916   98.38569641    4.90999985    2.96000004
   15.86472225  100.58499908    4.90999985    2.96000004
   15.86777782  101.00299835    4.90999985    2.96000004
   15.87111092  107.06800079    4.90999985    2.96000004
   15.87444496  102.27899933    4.90999985    2.96000004
   15.87750053  102.97599792    4.90999985    2.96000004
   15.88083363   98.82599640    4.90999985    2.96000004
   15.88277817  102.63099670    4.90999985    2.96000004
   15.88444424  104.65599823    4.90999985    2.96000004
   15.88749981  101.64199829    4.90999985    2.96000004
   15.89083290   96.10540009    4.90999985    2.94000006
   15.89694405   96.10540009    4.90999985    2.94000006
   15.90111065   97.46430206    4.90999985    2.93000007
   15.90416622  102.84500122    4.90999985    2.93000007
   15.90749931  100.07499695    4.90999985    2.91000009
   15.91055489   94.68280029    4.90999985    2.91000009
   15.91388893   97.96549988    4.90999985    2.89000010
   15.91611099   96.67240143    4.90999985    2.91000009
   15.91750050  102.09600067    4.90999985    2.91000009
   15.92055607  101.91600037    4.90999985    2.89000010
   15.92388916  102.38099670    4.90999985    2.89000010
   15.92722225  103.03399658    4.90999985    2.89000010
   15.93027782   97.79650116    4.90999985    2.89000010
   15.93361092   94.09940338    4.90999985    2.86999989
   15.93972206   94.09940338    4.90999985    2.86999989
   15.94388866   96.67389679    4.90999985    2.86999989
   15.94694424   97.70909882    4.90999985    2.86999989
   15.94944477   98.45040131    4.90999985    2.86999989
   15.95083332  102.94599915    4.90999985    2.86999989
   15.95388889  101.46099854    4.90999985    2.86999989
   15.95722198  103.25599670    4.90999985    2.86999989
   15.96055508  102.47200012    4.90999985    2.89000010
   15.96361065   96.17829895    4.90999985    2.89000010
   15.96694374   99.11879730    4.90999985    2.89000010
   15.97027779  103.19699860    4.90999985    2.89000010
   15.97333336  103.94000244    4.90999985    2.89000010
   15.97666645   97.53759766    4.90999985    2.89000010
   15.98249912   97.53759766    4.90999985    2.91000009
   15.98666668   98.10980225    4.90999985    2.91000009
   15.99000072   95.52059937    4.90999985    2.91000009
   15.99305534   98.84539795    4.90999985    2.91000009
   15.99638939   98.11679840    4.90999985    2.89000010
   15.99972248   99.54959869    4.90999985    2.91000009
   16.00277710   96.63289642    4.90999985    2.91000009
   16.00611115   96.70719910    4.90999985    2.91000009
   16.00916672  102.49299622    4.90999985    2.91000009
   16.01250076   96.76180267    4.90999985    2.93000007
   16.01583290   96.22180176    4.90999985    2.93000007
   16.01749992  102.94799805    4.90999985    2.93000007
   16.01944351  102.87000275    4.90999985    2.93000007
   16.02527809  102.87000275    4.90999985    2.94000006
   16.02944374   95.67060089    4.90999985    2.93000007
   16.03277779   96.14499664    4.90999985    2.93000007
   16.03610992   97.63749695    4.90999985    2.94000006
   16.03916550  103.46299744    4.90999985    2.94000006
   16.04249954  103.58799744    4.90999985    2.96000004
   16.04583359   94.12619781    4.90999985    2.94000006
   16.04888916  103.58100128    4.90999985    2.96000004
   16.05083275   93.16310120    4.90999985    2.96000004
   16.05249977   98.87169647    4.90999985    2.96000004
   16.05555534   99.39369965    4.90999985    2.98000002
   16.05888748   95.42099762    4.90999985    2.98000002
   16.06222153   99.22450256    4.90999985    2.98000002
   16.06833458   99.22450256    4.90999985    3.00000000
   16.07250023   95.93730164    4.90999985    2.98000002
   16.07555580   97.65840149    4.90999985    3.00000000
   16.07888985   99.05780029    4.90999985    3.00000000
   16.08222389   95.29080200    4.90999985    3.00000000
   16.08444595  100.12599945    4.90999985    3.01999998
   16.08583450   97.54579926    4.90999985    3.01999998
   16.08889008   98.69529724    4.90999985    3.01999998
   16.09222221   93.50800323    4.90999985    3.01999998
   16.09555626  104.26599884    4.90999985    3.00000000
   16.09861183   96.72619629    4.90999985    3.00000000
   16.10194397   97.41490173    4.90999985    3.01999998
   16.10527802   90.86039734    4.90999985    3.01999998
   16.11111069   90.86039734    4.90999985    3.01999998
   16.11527824   94.04509735    4.90999985    3.01999998
   16.11777878   99.10189819    4.90999985    3.01999998
   16.11888885   96.27050018    4.90999985    3.01999998
   16.12194443   98.72029877    4.90999985    3.01999998
   16.12527847   98.82730103    4.90999985    3.01999998
   16.12861061   95.47029877    4.90999985    3.01999998
   16.13166618   96.82430267    4.90999985    3.01999998
   16.13500023   94.06710052    4.90999985    3.01999998
   16.13805580   95.01480103    4.90999985    3.01999998
   16.14138794   97.30870056    4.82999992    3.01999998
   16.14472198   99.04100037    4.80000019    3.01999998
   16.14777756  100.58200073    4.28999996    3.01999998
   16.15388870  100.58200073    3.64000010    3.01999998
   16.15805435   99.05210114    3.01999998    3.01999998
   16.16138840   98.69969940    2.59999990    3.01999998
   16.16444397  100.39099884    2.55999994    3.01999998
   16.16777802   97.04519653    2.32999992    3.01999998
   16.17111015   93.76249695    1.73000002    3.01999998
   16.17416573  101.83100128    1.75000000    3.01999998
   16.17749977   99.10340118    1.50000000    3.01999998
   16.18055534   99.19619751    1.05999994    3.01999998
   16.18388748   97.88230133    0.94000000    3.00000000
   16.18472099   97.02030182    0.94000000    3.00000000
   16.18750000   96.74600220    0.89999998    3.01999998
   16.19083214   99.79959869    0.63000000    3.01999998
   16.19666672   99.79959869    0.51999998    3.01999998
   16.20083427  102.92800140    0.44000000    3.00000000
   16.20416832  105.57900238    0.38000000    3.00000000
   16.20750046   97.55120087    0.38000000    3.00000000
   16.21055603   97.97049713    0.38000000    3.00000000
   16.21389008   95.95819855    0.36000001    3.00000000
   16.21722221   98.61959839    0.36000001    3.00000000
   16.21833420   97.75199890    0.36000001    3.00000000
   16.22055626  105.43099976    0.36000001    2.98000002
   16.22389030   96.70410156    0.36000001    2.98000002
   16.22694588   96.43150330    0.36000001    2.98000002
   16.23027802   95.94930267    0.36000001    2.98000002
   16.23361206  100.00800323    0.36000001    2.98000002
   16.23972321  100.00800323    0.34000000    2.96000004
   16.24388885   96.51670074    0.34000000    2.96000004
   16.24694443   96.87830353    0.31999999    2.96000004
   16.25027847   97.11979675    0.31999999    2.94000006
   16.25166702   98.70909882    0.34000000    2.96000004
   16.25388908   97.35279846    0.34000000    2.94000006
   16.25722313  100.08499908    0.34000000    2.94000006
   16.26027870   97.86499786    0.31999999    2.94000006
   16.26361084   97.15799713    0.31999999    2.94000006
   16.26694489   92.67500305    0.31999999    2.94000006
   16.27000046   92.67919922    0.31999999    2.94000006
   16.27333260   94.84220123    0.36000001    2.78999996
   16.27638817   95.37039948    2.50000000    2.94000006
   16.28249931   95.37039948    0.36000001    2.91000009
   16.30083275   94.00189972    0.30000001    2.82999992
   16.30416679   96.02719879    0.30000001    2.80999994
   16.30722237   96.91739655    0.28000000    2.76999998
   16.31055450   95.65899658    0.28000000    2.75000000
   16.31388855   96.98560333    0.30000001    2.69000006
   16.31694603   93.65579987    0.28000000    2.59999990
   16.32027817   94.63760376    0.30000001    2.59999990
   16.32555580   94.63760376    0.28000000    2.46000004
   16.32972336  100.13999939    0.25999999    2.44000006
   16.33277893   94.76119995    0.25999999    2.40000010
   16.33388901   96.08969879    0.25999999    2.34999990
   16.33666801   91.83509827    0.25999999    2.26999998
   16.33972359   97.34400177    0.25000000    2.19000006
   16.34305573   96.96430206    0.25000000    2.17000008
   16.34638977   95.03450012    0.23000000    2.03999996
   16.34944534   90.67870331    0.23000000    1.86000001
   16.35277748   95.10849762    0.23000000    1.86000001
   16.35583305  104.10199738    0.20999999    1.76999998
   16.35916710  103.61199951    0.20999999    1.61000001
   16.36250114   98.52719879    0.20999999    1.53999996
   16.36833382   98.52719879    0.19000000    1.46000004
   16.37249947  104.86499786    0.19000000    1.23000002
   16.37583351  100.25099945    0.17000000    1.23000002
   16.37888908  109.17099762    0.17000000    1.14999998
   16.38222313  101.32399750    0.17000000    1.11000001
   16.38555527   97.80979919    0.19000000    1.09000003
   16.38861084  100.03800201    0.19000000    1.05999994
   16.39194489   98.01200104    0.17000000    0.98000002
   16.39500046   89.11799622    0.19000000    0.95999998
   16.39833260   89.90859985    0.25000000    0.86000001
   16.40055466   97.93530273    0.55000001    0.86000001
   16.40194321   95.82859802    0.55000001    0.86000001
   16.40499878  100.87000275    1.16999996    0.86000001
   16.41527748   -1.00000000    4.86999989    0.13000000
   16.41860962   96.07890320    4.90999985    0.40000001
   16.42166519  106.05100250    4.90999985    0.83999997
   16.42499924  101.85600281    4.90999985    0.69000000
   16.42833328  100.65699768    4.90999985    0.76999998
   16.43138885  101.77200317    4.90999985    0.75000000
   16.43388748  102.55799866    2.46000004    0.73000002
   16.43499947   99.74150085    2.46000004    0.73000002
   16.43805504  129.55499268    1.39999998    0.73000002
   16.44138718  100.70500183    0.64999998    0.61000001
   16.44444275  173.88699341    4.90999985    0.67000002
   16.44777679   89.67230225    4.90999985    0.70999998
   16.45416832   89.67230225    4.90999985    0.73000002
   16.45805550  105.17900085    4.90999985    0.70999998
   16.46138954   -1.00000000    4.90999985    0.76999998
   16.46472359   74.58190155    4.90999985    0.55000001
   16.46722221  102.37200165    4.90999985    0.89999998
   16.46833420   99.93589783    4.90999985    0.89999998
   16.47166634  106.74500275    4.90999985    0.89999998
   16.47472191  101.44599915    4.90999985    0.88000000
   16.47805595  100.55500031    4.90999985    0.86000001
   16.48139000   99.63870239    3.36999989    0.83999997
   16.48444557   97.98419952    1.23000002    0.86000001
   16.48777771   97.42469788    0.17000000    0.83999997
   16.49083328   95.06459808    0.19000000    0.83999997
   16.49694443   95.06459808    0.31999999    0.86000001
   16.50111198   98.61090088    0.17000000    0.83999997
   16.50416756   95.81060028    0.17000000    0.86000001
   16.50749969   95.85710144    0.17000000    0.86000001
   16.51083374  143.03999329    0.20999999    0.81999999
   16.51388931   98.23280334    0.17000000    0.81999999
   16.51722145   97.55670166    0.25000000    0.86000001
   16.52055550  104.94999695    0.64999998    0.86000001
   16.52361107   95.70059967    3.75000000    0.88000000
   16.52694511   87.58499908    4.55999994    0.89999998
   16.53000069   91.18470001    3.55999994    0.79000002
   16.53333282  102.56300354    2.55999994    0.86000001
   16.53388786   99.22810364    2.55999994    0.86000001
   16.53972244   99.22810364    4.90999985    0.95999998
   16.54388809   99.59980011    4.90999985    0.94000000
   16.54722214   97.11940002    4.90999985    0.92000002
   16.55027771   96.44999695    4.90999985    0.89999998
   16.55360985   97.74720001    3.78999996    0.88000000
   16.55694389   97.51920319    1.51999998    0.88000000
   16.55999947   99.45189667    0.17000000    0.86000001
   16.56333351   94.76709747    0.15000001    0.86000001
   16.56638718   99.43869781    0.15000001    0.83999997
   16.56722260  100.13800049    0.15000001    0.83999997
   16.57027817   96.06020355    0.15000001    0.83999997
   16.57333374   98.84020233    0.15000001    0.83999997
   16.57666779   95.90609741    0.15000001    0.83999997
   16.58250046   95.90609741    0.13000000    0.83999997
   16.58666801   94.61360168    0.13000000    0.83999997
   16.59000015  102.51599884    0.13000000    0.83999997
   16.59305573   96.04209900    0.13000000    0.83999997
   16.59638977   96.15489960    0.13000000    0.81999999
   16.59972191  100.60399628    0.13000000    0.81999999
   16.60055542  100.29100037    0.13000000    0.81999999
   16.60333443   99.84269714    0.13000000    0.81999999
   16.60639000   97.90820313    0.11000000    0.81999999
   16.60972214   97.57910156    0.11000000    0.81999999
   16.61305618   97.73280334    0.11000000    0.81999999
   16.61611176  100.06900024    0.11000000    0.81999999
   16.61944389   99.17810059    0.11000000    0.81999999
   16.62555504   99.17810059    0.11000000    0.80000001
   16.62944412   98.29589844    0.13000000    0.80000001
   16.63277817   99.94730377    0.13000000    0.80000001
   16.63388824  100.27500153    0.13000000    0.80000001
   16.63638878  100.48000336    0.13000000    0.80000001
   16.63944435   97.86049652    0.13000000    0.80000001
   16.64277840   96.00009918    0.13000000    0.80000001
   16.64611053  100.30200195    0.13000000    0.80000001
   16.64916611   97.40000153    0.13000000    0.80000001
   16.65250015   99.08239746    0.13000000    0.80000001
   16.65583229  100.14800262    0.13000000    0.80000001
   16.65888786   96.50260162    0.11000000    0.80000001
   16.66222191   98.45850372    0.11000000    0.80000001
   16.66833305   98.45850372    0.11000000    0.80000001
   16.67249870   99.47389984    0.11000000    0.79000002
   16.67555428   97.70970154    0.11000000    0.79000002
   16.67888832   97.11620331    0.11000000    0.79000002
   16.68222237   98.15059662    0.11000000    0.79000002
   16.68527603   96.77829742    0.11000000    0.79000002
   16.68861008   97.89530182    0.11000000    0.79000002
   16.69194412  101.61599731    0.11000000    0.79000002
   16.69499969   94.54380035    0.11000000    0.79000002
   16.69833183  101.38700104    0.11000000    0.79000002
   16.70055580   99.23819733    0.11000000    0.79000002
   16.70194435   97.27809906    0.11000000    0.79000002
   16.70499992  100.84899902    0.11000000    0.76999998
   16.71111107  100.84899902    0.09000000    0.76999998
   16.71527863   99.85330200    0.09000000    0.76999998
   16.71861076   97.52310181    0.11000000    0.76999998
   16.72166634  100.04499817    0.09000000    0.76999998
   16.72500038   96.41159821    0.11000000    0.76999998
   16.72805595   96.61640167    0.09000000    0.76999998
   16.73139000   92.93160248    0.09000000    0.75000000
   16.73388863   95.70449829    0.11000000    0.75000000
   16.73500061   93.56780243    0.11000000    0.75000000
   16.73805618   99.54340363    0.09000000    0.75000000
   16.74138832   99.31729889    0.09000000    0.75000000
   16.74472237   98.38749695    0.09000000    0.75000000
   16.74777794   98.72740173    0.09000000    0.73000002
   16.75388908   98.72740173    0.09000000    0.73000002
   16.75805473   97.94259644    0.09000000    0.73000002
   16.76138878   97.39910126    0.09000000    0.73000002
   16.76444435  100.30899811    0.09000000    0.73000002
   16.76722145   95.91670227    0.09000000    0.73000002
   16.76833344   97.19450378    0.09000000    0.70999998
   16.77138901  101.92600250    0.09000000    0.70999998
   16.77472115   95.16909790    0.09000000    0.70999998
   16.77805519  102.05899811    0.09000000    0.69000000
   16.78111076   99.61589813    0.09000000    0.69000000
   16.78444481   94.05359650    0.09000000    0.69000000
   16.78777695   98.76619720    0.09000000    0.69000000
   16.79083252   97.30899811    0.09000000    0.69000000
   16.79694366   97.30899811    0.09000000    0.67000002
   16.80083275  101.77100372    0.09000000    0.67000002
   16.80416679  102.15399933    0.09000000    0.67000002
   16.80749893   99.17549896    0.09000000    0.67000002
   16.81083298  104.65399933    0.09000000    0.64999998
   16.81388855   98.59909821    0.09000000    0.64999998
   16.81722260  103.97200012    0.09000000    0.64999998
   16.82055664  103.61199951    0.09000000    0.63000000
   16.82361221   99.02780151    0.09000000    0.64999998
   16.82694626   99.70200348    0.09000000    0.63000000
   16.83000183   96.81430054    0.09000000    0.63000000
   16.83333397   99.19889832    0.09000000    0.63000000
   16.83388901   99.21549988    0.09000000    0.63000000
   16.83972359   99.21549988    0.09000000    0.63000000
   16.84388924  101.58000183    0.09000000    0.63000000
   16.84694481   95.92209625    0.09000000    0.63000000
   16.85027885   91.74819946    0.09000000    0.61000001
   16.85361099   92.07460022    0.09000000    0.61000001
   16.85666656   97.73770142    0.09000000    0.61000001
   16.86000061   94.78820038    0.09000000    0.61000001
   16.86305618   96.57430267    0.09000000    0.61000001
   16.86638832   99.57150269    0.09000000    0.61000001
   16.86722183  100.26999664    0.09000000    0.61000001
   16.87000084   94.92939758    0.09000000    0.61000001
   16.87305641   97.23329926    0.09000000    0.61000001
   16.87638855   96.44539642    0.07000000    0.58999997
   16.88249969   96.44539642    0.07000000    0.58999997
   16.88666725   97.05100250    0.07000000    0.58999997
   16.88999939   97.61019897    0.07000000    0.58999997
   16.89305496  101.85199738    0.07000000    0.56999999
   16.89638901   97.80819702    0.07000000    0.56999999
   16.89944458   97.86910248    0.07000000    0.56999999
   16.90055466  101.88800049    0.07000000    0.56999999
   16.90305519  102.84600067    0.07000000    0.56999999
   16.90638924   97.93759918    0.07000000    0.56999999
   16.90944481   96.81809998    0.07000000    0.56999999
   16.91277695  101.40200043    0.07000000    0.56999999
   16.91583252   94.95079803    0.07000000    0.56999999
   16.91916656   97.89790344    0.07000000    0.55000001
   16.92527771   97.89790344    0.07000000    0.55000001
   16.92944336  102.04100037    0.07000000    0.55000001
   16.93277740  101.01699829    0.07000000    0.55000001
   16.93388748   99.69409943    0.07000000    0.55000001
   16.93638802  100.66500092    0.07000000    0.55000001
   16.93972206   97.65180206    0.07000000    0.55000001
   16.94277763   94.77989960    0.07000000    0.52999997
   16.94610977  102.14700317    0.07000000    0.55000001
   16.94916534   97.65070343    0.07000000    0.52999997
   16.95250130   96.91040039    0.07000000    0.52999997
   16.95583344   93.19570160    0.07000000    0.52999997
   16.95888901   94.72779846    0.07000000    0.52999997
   16.96222305   95.30879974    0.07000000    0.52999997
   16.96833420   95.30879974    0.07000000    0.52999997
   16.97222328   98.03420258    0.07000000    0.52999997
   16.97555542   97.56529999    0.07000000    0.52999997
   16.97888947  101.67700195    0.07000000    0.52999997
   16.98194504  101.76499939    0.07000000    0.52999997
   16.98527718   96.64320374    0.07000000    0.52999997
   16.98861122   94.32430267    0.07000000    0.52999997
   16.99166679   92.68869781    0.07000000    0.52999997
   16.99500084   93.79129791    0.07000000    0.52999997
   16.99805641   94.11840057    0.07000000    0.52999997
   17.00055504   96.17549896    0.07000000    0.52999997
   17.00166702   93.56510162    0.07000000    0.52999997
   17.00472260   96.14230347    0.07000000    0.52999997
   17.01111031   96.14230347    0.07000000    0.52999997
   17.01527786   96.89250183    0.07000000    0.52999997
   17.01833344   95.04280090    0.07000000    0.52999997
   17.02166557   95.42420197    0.07000000    0.52999997
   17.02472115  100.35700226    0.07000000    0.52999997
   17.02805519   91.86699677    0.05000000    0.52999997
   17.03138924   91.51609802    0.07000000    0.52999997
   17.03388786   95.46959686    0.07000000    0.52999997
   17.03499985   94.14099884    0.07000000    0.52999997
   17.03833199   91.23930359    0.07000000    0.52999997
   17.04138756   97.85240173    0.07000000    0.52999997
   17.04472160   94.19609833    0.07000000    0.51999998
   17.04777718   97.66580200    0.05000000    0.51999998
   17.05388832   97.66580200    0.05000000    0.51999998
   17.05805397   92.72979736    0.07000000    0.51999998
   17.06110954   98.22650146    0.07000000    0.51999998
   17.06444359  101.23699951    0.07000000    0.51999998
   17.06722260   96.18930054    0.07000000    0.51999998
   17.06805611   97.36599731    0.07000000    0.51999998
   17.07139015   96.26229858    0.07000000    0.51999998
   17.07444572   94.09300232    0.07000000    0.51999998
   17.07777786   93.32180023    0.07000000    0.51999998
   17.08083344   88.22959900    0.07000000    0.50000000
   17.08416748   94.72250366    0.07000000    0.50000000
   17.08750153   94.85900116    0.05000000    0.50000000
   17.09055710   95.36080170    0.05000000    0.50000000
   17.09666824   95.36080170    0.07000000    0.50000000
   17.10083389   94.95069885    0.07000000    0.50000000
   17.10416794   94.90789795    0.07000000    0.50000000
   17.10722351   93.27140045    0.07000000    0.50000000
   17.11055565   93.20839691    0.07000000    0.47999999
   17.11388969   91.94770050    0.07000000    0.47999999
   17.11694527   95.13069916    0.09000000    0.47999999
   17.12027740   94.70709991    0.09000000    0.47999999
   17.12361145   98.05329895    0.09000000    0.47999999
   17.12666702   96.67259979    0.09000000    0.47999999
   17.13000107   98.33769989    0.11000000    0.46000001
   17.13305473   96.81719971    0.19000000    0.46000001
   17.13388824   94.26039886    0.19000000    0.46000001
   17.13972282   94.26039886    0.25999999    0.47999999
   17.14361191   95.62930298    0.20999999    0.46000001
   17.14694405   97.10310364    0.20999999    0.44000000
   17.15027809  100.06900024    0.17000000    0.46000001
   17.15333366   98.30000305    0.19000000    0.44000000
   17.15666580   98.74410248    0.20999999    0.44000000
   17.15999985   90.63400269    0.17000000    0.44000000
   17.16305542   93.49469757    0.17000000    0.44000000
   17.16638756   97.54440308    0.30000001    0.44000000
   17.16722107   95.11139679    0.30000001    0.44000000
   17.17000008   91.44770050    0.30000001    0.44000000
   17.17333221  100.92400360    0.28000000    0.44000000
   17.17638779   96.03099823    0.23000000    0.44000000
   17.18249893   96.03099823    0.28000000    0.44000000
   17.18666649   99.47740173    0.31999999    0.44000000
   17.18972206   95.10310364    0.41999999    0.44000000
   17.19305420   89.56020355    0.40000001    0.44000000
   17.19638824   97.75080109    0.41999999    0.44000000
   17.19944382   94.82299805    0.38000000    0.41999999
   17.20055580   94.26629639    0.52999997    0.41999999
   17.20305634   93.63890076    0.81999999    0.41999999
   17.20639038   96.47299957    0.46000001    0.41999999
   17.20944595   96.32830048    0.17000000    0.41999999
   17.21277809   92.10970306    0.13000000    0.41999999
   17.21611214   96.36350250    0.09000000    0.41999999
   17.21916771   97.06289673    0.15000001    0.41999999
   17.22527885   97.06289673    0.11000000    0.40000001
   17.22944450   96.72630310    0.09000000    0.40000001
   17.23277855  100.95300293    0.09000000    0.40000001
   17.23388863   99.46640015    0.09000000    0.40000001
   17.23611069   94.04380035    0.09000000    0.40000001
   17.23944473   97.31849670    0.05000000    0.40000001
   17.24277878   94.43569946    0.07000000    0.38000000
   17.24583435   99.52649689    0.05000000    0.38000000
   17.24916649   99.50360107    0.07000000    0.38000000
   17.25222206   95.92379761    0.05000000    0.38000000
   17.25555611   99.42160034    0.05000000    0.38000000
   17.25888824   98.92009735    0.05000000    0.38000000
   17.26194382  100.87799835    0.05000000    0.38000000
   17.26805496  100.87799835    0.05000000    0.38000000
   17.27222252  101.86799622    0.05000000    0.36000001
   17.27555466  100.94799805    0.05000000    0.36000001
   17.27861023  101.02500153    0.05000000    0.36000001
   17.28194427   98.60240173    0.05000000    0.36000001
   17.28527641  102.39199829    0.05000000    0.36000001
   17.28833199   96.42320251    0.05000000    0.34000000
   17.29166603   93.10220337    0.17000000    0.34000000
   17.29500008  105.50399780    0.25000000    0.34000000
   17.29805565   96.71219635    0.25999999    0.34000000
   17.30055428  104.66100311    0.25000000    0.31999999
   17.32139015  104.66100311    0.31999999    0.31999999
   17.32527924   99.53500366    0.17000000    0.31999999
   17.32861137   99.59429932    0.15000001    0.30000001
   17.33194542   99.12460327    0.15000001    0.30000001
   17.33416748  101.26899719    0.15000001    0.30000001
   17.33527756   95.09860229    0.15000001    0.30000001
   17.33861160  100.63600159    0.13000000    0.28000000
   17.34194565  102.12000275    0.09000000    0.30000001
   17.34500122  102.08699799    0.09000000    0.28000000
   17.34833336   99.09889984    0.07000000    0.28000000
   17.35166740   92.65550232    0.07000000    0.28000000
   17.35472298   96.88909912    0.07000000    0.28000000
   17.35805511   99.43830109    0.05000000    0.28000000
   17.36388969   99.43830109    0.05000000    0.25999999
   17.36805534   99.84960175    0.05000000    0.25999999
   17.37138939   97.10579681    0.05000000    0.25999999
   17.37472153   98.40319824    0.05000000    0.25000000
   17.37777710  102.31400299    0.05000000    0.25000000
   17.38111115  101.97000122    0.05000000    0.25000000
   17.38416672   98.58740234    0.05000000    0.25000000
   17.38750076  103.47100067    0.05000000    0.25000000
   17.39083290  101.87999725    0.05000000    0.23000000
   17.39388847   94.45040131    0.05000000    0.25000000
   17.39722252  101.60399628    0.05000000    0.23000000
   17.40055466   99.48120117    0.09000000    0.23000000
   17.40083313   95.88189697    0.09000000    0.23000000
   17.40694427   95.88189697    0.17000000    0.23000000
   17.41110992   96.56819916    0.15000001    0.23000000
   17.41416550   97.84290314    0.11000000    0.20999999
   17.41749954  101.46199799    0.09000000    0.20999999
   17.42055511  101.78399658    0.09000000    0.20999999
   17.42388916  104.89499664    0.07000000    0.20999999
   17.42722130   99.04740143    0.07000000    0.20999999
   17.43027687  100.71900177    0.05000000    0.20999999
   17.43361092  101.06500244    0.05000000    0.19000000
   17.43416595   99.35279846    0.05000000    0.19000000
   17.43722153  100.56800079    0.05000000    0.19000000
   17.44055557   97.56369781    0.05000000    0.19000000
   17.44361115   98.08899689    0.05000000    0.19000000
   17.44972038   98.08899689    0.05000000    0.17000000
   17.45388985   96.07150269    0.05000000    0.17000000
   17.45694542  100.79399872    0.05000000    0.17000000
   17.46027946   95.63349915    0.05000000    0.17000000
   17.46361160   99.32559967    0.05000000    0.17000000
   17.46666718  100.34500122    0.05000000    0.15000001
   17.46750069   98.62500000    0.05000000    0.15000001
   17.47027779  100.06600189    0.05000000    0.15000001
   17.47361183   98.94789886    0.05000000    0.15000001
   17.47666740   98.82309723    0.07000000    0.15000001
   17.48000145  100.53700256    0.05000000    0.13000000
   17.48305511   97.20780182    0.05000000    0.13000000
   17.48638916  101.81300354    0.07000000    0.13000000
   17.49250031  101.81300354    0.07000000    0.11000000
   17.49666786   96.15119934    0.07000000    0.11000000
   17.50000000   97.29019928    0.09000000    0.11000000
   17.50083351   99.45179749    0.09000000    0.11000000
   17.50361061   99.54260254    0.07000000    0.11000000
   17.50694466   96.86250305    0.07000000    0.11000000
   17.51000023   98.40830231    0.05000000    0.09000000
   17.51333427   90.96829987    0.05000000    0.09000000
   17.51638794   97.87049866    0.05000000    0.09000000
   17.51972198   96.04570007    0.05000000    0.09000000
   17.52305603   96.86810303    0.05000000    0.09000000
   17.52611160   99.28859711    0.05000000    0.09000000
   17.52944374   93.82980347    0.05000000    0.09000000
   17.53527641   93.82980347    0.09000000    0.07000000
   17.53944397   99.67729950    0.11000000    0.07000000
   17.54277802  107.57499695    0.15000001    0.07000000
   17.54611015   95.17019653    0.20999999    0.07000000
   17.54916573   97.67990112    0.23000000    0.07000000
   17.55249977   99.99259949    0.25999999    0.07000000
   17.55555534   90.86470032    0.25000000    0.05000000
   17.55888748  100.40699768    0.23000000    0.07000000
   17.56222153   93.32689667    0.23000000    0.07000000
   17.56527710  111.52100372    0.23000000    0.07000000
   17.56750107   87.13680267    0.20999999    0.05000000
   17.56888962   98.77359772    0.20999999    0.07000000
   17.57222366  103.08899689    0.25000000    0.07000000
   17.57833481  103.08899689    0.55000001    0.07000000
   17.58250046   97.50260162    0.69000000    0.07000000
   17.58555603  101.41000366    0.81999999    0.07000000
   17.58889008   97.87239838    0.89999998    0.07000000
   17.59194565  109.66799927    0.80000001    0.05000000
   17.59527779   99.20310211    0.61000001    0.05000000
   17.59861183   99.84020233    0.52999997    0.05000000
   17.60083389  106.89499664    0.51999998    0.05000000
   17.60222244  100.85500336    0.58999997    0.05000000
   17.60555649  102.72699738    0.79000002    0.05000000
   17.60861206  105.93399811    0.94000000    0.05000000
   17.61194420   99.47250366    0.89999998    0.05000000
   17.61527824   98.59200287    0.63000000    0.05000000
   17.62111092   98.59200287    0.38000000    0.03000000
   17.62527847   96.46269989    0.38000000    0.03000000
   17.62833405   99.00640106    0.36000001    0.03000000
   17.63166618  100.15399933    0.28000000    0.03000000
   17.63416672  100.05999756    0.19000000    0.03000000
   17.63527679   97.66780090    0.19000000    0.03000000
   17.63861084   95.08170319    0.17000000    0.03000000
   17.64166641   98.08080292    0.15000001    0.03000000
   17.64500046   97.63240051    0.11000000    0.03000000
   17.64833260   97.44570160    0.11000000    0.03000000
   17.65138817   97.26039886    0.11000000    0.03000000
   17.65472221   95.27770233    0.11000000    0.01000000
   17.65777779  100.34799957    0.09000000    0.01000000
   17.66388893  100.34799957    0.05000000    0.03000000
   17.66805458   93.32279968    0.05000000    0.03000000
   17.67138863   93.16120148    0.03000000    0.03000000
   17.67444420   88.93280029    0.03000000    0.03000000
   17.67777634   89.58350372    0.05000000    0.01000000
   17.68111038   87.00920105    0.05000000    0.03000000
   17.68416595   92.88469696    0.05000000    0.01000000
   17.68750000   92.00150299    0.05000000    0.01000000
   17.69055557   94.10780334    0.05000000    0.01000000
   17.69388771  105.75599670    0.05000000    0.01000000
   17.69722176   95.39640045    0.07000000    0.01000000
   17.70027924   95.60420227    0.05000000    0.01000000
   17.70083427   99.97080231    0.05000000    0.01000000
   17.70666695   99.97080231    0.05000000    0.01000000
   17.71083450  105.29100037    0.05000000    0.01000000
   17.71416664  101.54399872    0.07000000    0.01000000
   17.71750069  100.48699951    0.15000001    0.01000000
   17.72055626   94.11810303    0.28000000    0.01000000
   17.72389030   97.01460266    0.89999998    0.01000000
   17.72694588   93.70780182    0.80000001    0.01000000
   17.73027802   98.85990143    0.41999999    0.01000000
   17.73361206   92.14620209    0.56999999    0.01000000
   17.73416710   88.72709656    0.56999999    0.01000000
   17.73694420   95.60910034    0.25000000    0.01000000
   17.74027824   93.26930237    0.17000000    0.01000000
   17.74333382   91.53060150    0.19000000    0.01000000
   17.74972153   91.53060150    0.28000000    0.01000000
   17.75388908   95.60510254    0.23000000    0.01000000
   17.75694466   84.63059998    0.19000000    0.01000000
   17.76027870   99.88929749    0.19000000    0.01000000
   17.76333427   91.78500366    0.25000000    0.01000000
   17.76666641   89.47969818    0.25999999    0.01000000
   17.76749992   91.28549957    0.30000001    0.01000000
   17.77027702   93.92250061    0.36000001    0.01000000
   17.77361107   97.60350037    0.25000000    0.01000000
   17.77666664   93.53230286    0.20999999    0.01000000
   17.78000069   92.56050110    0.17000000    0.01000000
   17.78333282   95.55699921    0.09000000    0.01000000
   17.78638840   96.35269928    0.09000000    0.01000000
   17.79249954   96.35269928    0.05000000    0.01000000
   17.79666710   98.13610077    0.05000000    0.01000000
   17.79972076   98.54440308    0.05000000    0.01000000
   17.80083275   96.42420197    0.05000000    0.01000000
   17.80333328   95.77239990    0.05000000    0.01000000
   17.80666542  100.13700104    0.05000000    0.01000000
   17.80972099   94.77149963    0.05000000    0.01000000
   17.81305504   95.00610352    0.03000000    0.01000000
   17.81638718   94.90010071    0.03000000    0.01000000
   17.81944466   94.29199982    0.03000000    0.01000000
   17.82277870   91.22339630    0.03000000    0.01000000
   17.82583427   85.69339752    0.03000000    0.01000000
   17.82916832   92.39479828    0.03000000    0.01000000
   17.83527756   92.39479828    0.03000000    0.01000000
   17.83944511   87.31790161    0.03000000    0.01000000
   17.84277916   92.39679718    0.03000000    0.01000000
   17.84583473  152.99600220    0.03000000    0.01000000
   17.84916687  225.82099915    0.03000000    0.01000000
   17.85250092  123.03299713    0.03000000    0.01000000
   17.85555649   92.41629791    0.03000000    0.01000000
   17.85888863  102.15100098    0.03000000    0.01000000
   17.86194420  114.06700134    0.03000000    0.01000000
