    HOUR (UT)   FLARE FACTOR    SKY TESTER    SUN TESTER
   11.64194393   -1.00000000   -1.00000000   -1.00000000
   11.66472149  266.50500488    4.90999985    1.78999996
   11.66805553  226.90699768    4.90999985    1.78999996
   11.67111111  308.30999756    4.90999985    1.78999996
   11.67444515  297.92300415    4.90999985    1.80999994
   11.67777824  301.30599976    4.90999985    1.80999994
   11.68083382  287.13198853    4.90999985    1.80999994
   11.68500042  287.13198853    4.90999985    1.80999994
   11.68916702  314.29699707    4.90999985    1.83000004
   11.69250011  311.69299316    4.90999985    1.83000004
   11.69555569  299.79299927    4.90999985    1.83000004
   11.69777775  314.17300415    4.90999985    1.80999994
   11.69916630  309.23800659    4.90999985    1.80999994
   11.70249939  298.99798584    4.90999985    1.80999994
   11.70583344  322.68798828    4.90999985    1.80999994
   11.70888901  289.41699219    4.90999985    1.83000004
   11.71222210  315.48098755    4.90999985    1.80999994
   11.71555519  315.08099365    4.90999985    1.80999994
   11.71861076  299.30099487    4.90999985    1.83000004
   11.72194386  302.02700806    4.90999985    1.85000002
   11.72777748  302.02700806    4.90999985    1.85000002
   11.73194408  277.88000488    4.90999985    1.85000002
   11.73527813  286.81900024    4.90999985    1.85000002
   11.73833370  271.04098511    4.90999985    1.86000001
   11.74166679  262.27899170    4.90999985    1.86000001
   11.74499989  266.13699341    4.90999985    1.88000000
   11.74805546  276.23098755    4.90999985    1.88000000
   11.75138855  264.67999268    4.90999985    1.88000000
   11.75472260  261.76400757    4.90999985    1.88000000
   11.75777817  281.01000977    4.90999985    1.88000000
   11.76111126  266.91198730    4.90999985    1.88000000
   11.76444435  273.71701050    4.90999985    1.88000000
   11.76472187  264.90200806    4.90999985    1.86000001
   11.77111053  264.90200806    4.90999985    1.88000000
   11.77527714  294.93200684    4.90999985    1.86000001
   11.77833271  268.00900269    4.90999985    1.88000000
   11.78166676  265.47100830    4.90999985    1.88000000
   11.78500080  265.12799072    4.90999985    1.88000000
   11.78805637  269.62701416    4.90999985    1.89999998
   11.79138947  258.88699341    4.90999985    1.89999998
   11.79444504  257.80599976    4.90999985    1.91999996
   11.79777813  264.77099609    4.90999985    1.91999996
   11.79833412  268.32501221    4.90999985    1.91999996
   11.80111122  260.38699341    4.90999985    1.91999996
   11.80444431  261.53601074    4.90999985    1.91999996
   11.80777836  264.30899048    4.90999985    1.91999996
   11.81361103  264.30899048    4.90999985    1.91999996
   11.81777763  248.82800293    4.90999985    1.91999996
   11.82083321  247.06599426    4.90999985    1.91999996
   11.82416630  242.74899292    4.90999985    1.94000006
   11.82750034  236.38200378    4.90999985    1.94000006
   11.83055592  252.51100159    4.90999985    1.94000006
   11.83166695  242.58700562    4.90999985    1.94000006
   11.83416653  247.26800537    4.90999985    1.94000006
   11.83749962  244.77999878    4.90999985    1.96000004
   11.84083271  258.22100830    4.90999985    1.96000004
   11.84388828  260.37600708    4.90999985    1.96000004
   11.84722233  266.91699219    4.90999985    1.96000004
   11.85055637  237.72000122    4.90999985    1.96000004
   11.85638905  237.72000122    4.90999985    1.96000004
   11.86055565  265.02801514    4.90999985    1.96000004
   11.86388969  254.05900574    4.90999985    1.98000002
   11.86500072  246.33500671    4.90999985    1.98000002
   11.86722279  262.63400269    4.90999985    1.98000002
   11.87055588  267.71798706    4.90999985    1.98000002
   11.87388897  264.20199585    4.90999985    1.98000002
   11.87694454  291.81698608    4.90999985    1.98000002
   11.88027763  265.09698486    4.90999985    1.98000002
   11.88361073  248.47300720    4.90999985    1.98000002
   11.88666630  265.35501099    4.90999985    1.98000002
   11.89000034  264.69699097    4.90999985    1.96000004
   11.89305496  249.13600159    4.90999985    1.98000002
   11.89916611  249.13600159    4.90999985    1.96000004
   11.90333271  279.81698608    4.90999985    1.96000004
   11.90666676  272.04000854    4.90999985    1.96000004
   11.90972137  252.32000732    4.90999985    1.96000004
   11.91305542  278.92498779    4.90999985    1.96000004
   11.91638851  271.27700806    4.90999985    1.96000004
   11.91944504  273.31201172    4.90999985    1.96000004
   11.92277813  275.51599121    4.90999985    1.98000002
   11.92611122  267.49899292    4.90999985    1.98000002
   11.92916679  285.54998779    4.90999985    1.98000002
   11.93166733  291.43499756    4.90999985    1.98000002
   11.93277836  299.62200928    4.90999985    1.98000002
   11.93611145  290.03100586    4.90999985    2.00000000
   11.94222260  290.03100586    4.90999985    1.98000002
   11.94611073  273.70498657    4.90999985    1.98000002
   11.94944477  289.52899170    4.90999985    1.98000002
   11.95277786  295.39801025    4.90999985    1.98000002
   11.95583344  294.25500488    4.90999985    1.98000002
   11.95916653  305.14700317    4.90999985    1.96000004
   11.96249962  314.62100220    4.90999985    1.98000002
   11.96500015  314.07199097    4.90999985    1.98000002
   11.96583271  326.51300049    4.90999985    1.96000004
   11.96916580  314.09600830    4.90999985    1.96000004
   11.97249985  326.58700562    4.90999985    1.96000004
   11.97555542  296.31799316    4.90999985    1.96000004
   11.97888851  303.23098755    4.90999985    1.96000004
   11.98500061  303.23098755    4.90999985    1.96000004
   11.98916721  302.06698608    4.90999985    1.98000002
   11.99222279  306.82598877    4.90999985    1.98000002
   11.99555588  308.84698486    4.90999985    1.98000002
   11.99833393  314.81201172    4.90999985    1.96000004
   11.99888897  322.11700439    4.90999985    1.96000004
   12.00222206  334.40301514    4.90999985    1.96000004
   12.00555515  296.98599243    4.90999985    1.96000004
   12.00861073  287.75201416    4.90999985    1.96000004
   12.01194477  303.86898804    4.90999985    1.96000004
   12.01527786  293.46301270    4.90999985    1.98000002
   12.01833344  300.96899414    4.90999985    2.00000000
   12.02166653  267.54998779    4.90999985    2.00000000
   12.02777767  267.54998779    4.90999985    2.00000000
   12.03194427  317.51199341    4.90999985    2.00000000
   12.03527832  280.80300903    4.90999985    2.01999998
   12.03833389  269.50000000    4.90999985    2.00000000
   12.04166698  283.24700928    4.90999985    2.01999998
   12.04472256  271.36401367    4.90999985    2.01999998
   12.04805565  304.46899414    4.90999985    2.01999998
   12.05138874  276.01300049    4.90999985    2.01999998
   12.05444431  266.54299927    4.90999985    2.03999996
   12.05777836  288.82598877    4.90999985    2.03999996
   12.06111145  273.36999512    4.90999985    2.05999994
   12.06416702  291.30801392    4.90999985    2.05999994
   12.06500053  261.22399902    4.90999985    2.05999994
   12.07055569  261.22399902    4.90999985    2.05999994
   12.07472229  279.23300171    4.90999985    2.05999994
   12.07805538  292.37799072    4.90999985    2.05999994
   12.08138847  259.92098999    4.90999985    2.05999994
   12.08444405  271.92300415    4.90999985    2.05999994
   12.08777714  274.73300171    4.90999985    2.05999994
   12.09111118  252.70399475    4.90999985    2.07999992
   12.09416676  264.88500977    4.90999985    2.07999992
   12.09749985  268.62399292    4.90999985    2.07999992
   12.09833336  245.44400024    4.90999985    2.07999992
   12.10111141  256.23999023    4.90999985    2.09999990
   12.10416698  267.17401123    4.90999985    2.09999990
   12.10750008  244.16900635    4.90999985    2.11999989
   12.11333370  244.16900635    4.90999985    2.11999989
   12.11750031  264.20300293    4.90999985    2.09999990
   12.12083340  266.68899536    4.90999985    2.11999989
   12.12416649  251.63000488    4.90999985    2.11999989
   12.12722206  238.86099243    4.90999985    2.13000011
   12.13055611  239.66999817    4.90999985    2.13000011
   12.13166714  250.14999390    4.90999985    2.13000011
   12.13416672  247.64999390    4.90999985    2.13000011
   12.13722229  237.20399475    4.90999985    2.13000011
   12.14055538  236.62100220    4.90999985    2.15000010
   12.14361095  233.51199341    4.90999985    2.15000010
   12.14694405  225.89100647    4.90999985    2.15000010
   12.15027714  238.34700012    4.90999985    2.15000010
   12.15638828  238.34700012    4.90999985    2.15000010
   12.16055489  257.43099976    4.90999985    2.15000010
   12.16361046  245.47700500    4.90999985    2.15000010
   12.16499996  241.97500610    4.90999985    2.15000010
   12.16750050  243.37199402    4.90999985    2.15000010
   12.17055607  252.91700745    4.90999985    2.15000010
   12.17388916  260.44601440    4.90999985    2.15000010
   12.17694473  266.43099976    4.90999985    2.15000010
   12.18027782  248.61900330    4.90999985    2.15000010
   12.18361092  247.07400513    4.90999985    2.13000011
   12.18666649  259.66500854    4.90999985    2.13000011
   12.19000053  264.33599854    4.90999985    2.13000011
   12.19333363  244.22599792    4.90999985    2.13000011
   12.19916630  244.22599792    4.90999985    2.13000011
   12.20333290  256.93399048    4.90999985    2.15000010
   12.20666695  261.49798584    4.90999985    2.15000010
   12.20972157  236.71000671    4.90999985    2.15000010
   12.21305561  236.58900452    4.90999985    2.15000010
   12.21611118  267.91799927    4.90999985    2.15000010
   12.21944427  245.32400513    4.90999985    2.15000010
   12.22277737  229.81399536    4.90999985    2.15000010
   12.22583294  253.40899658    4.90999985    2.15000010
   12.22916603  253.01300049    4.90999985    2.15000010
   12.23166656  262.46398926    4.90999985    2.15000010
   12.23277760  277.93301392    4.90999985    2.15000010
   12.23583317  249.19599915    4.90999985    2.15000010
   12.24194431  249.19599915    4.90999985    2.15000010
   12.24611092  240.72500610    4.90999985    2.15000010
   12.24944496  256.64898682    4.90999985    2.15000010
   12.25249958  254.67799377    4.90999985    2.15000010
   12.25583363  255.40899658    4.90999985    2.15000010
   12.25916672  258.61099243    4.90999985    2.15000010
   12.26222229  269.08300781    4.90999985    2.13000011
   12.26500034  280.93899536    4.90999985    2.13000011
   12.26611137  277.63598633    4.90999985    2.13000011
   12.26916599  284.11199951    4.90999985    2.13000011
   12.27250004  250.51600647    4.90999985    2.13000011
   12.27555561  240.42300415    4.90999985    2.15000010
   12.27888870  254.76800537    4.90999985    2.15000010
   12.28472233  254.76800537    4.90999985    2.15000010
   12.28888893  257.00900269    4.90999985    2.15000010
   12.29222298  251.10400391    4.90999985    2.15000010
   12.29555607  273.01199341    4.90999985    2.15000010
   12.29833412  293.75601196    4.90999985    2.15000010
   12.29916668  269.99200439    4.90999985    2.15000010
   12.30222225  265.52099609    4.90999985    2.15000010
   12.30555534  264.93301392    4.90999985    2.15000010
   12.30888939  281.24099731    4.90999985    2.17000008
   12.31194496  256.74798584    4.90999985    2.17000008
   12.31527805  267.15798950    4.90999985    2.17000008
   12.31833363  259.99301147    4.90999985    2.17000008
   12.32166672  247.97599792    4.90999985    2.17000008
   12.32777786  247.97599792    4.90999985    2.17000008
   12.33194447  235.78300476    4.90999985    2.19000006
   12.33500004  234.92900085    4.90999985    2.21000004
   12.33833313  233.76699829    4.90999985    2.21000004
   12.34166622  246.63099670    4.90999985    2.23000002
   12.34472179  244.43499756    4.90999985    2.23000002
   12.34805489  257.67599487    4.90999985    2.23000002
   12.35111141  274.54199219    4.90999985    2.21000004
   12.35444450  261.54199219    4.90999985    2.21000004
   12.35777855  237.81700134    4.90999985    2.21000004
   12.36083412  274.92800903    4.90999985    2.21000004
   12.36416721  258.25900269    4.90999985    2.21000004
   12.36500072  247.25500488    4.90999985    2.21000004
   12.37055588  247.25500488    4.90999985    2.23000002
   12.37472248  252.03500366    4.90999985    2.21000004
   12.37805557  250.56199646    4.90999985    2.21000004
   12.38111115  251.67300415    4.90999985    2.21000004
   12.38444424  244.65499878    4.90999985    2.23000002
   12.38777733  265.70498657    4.90999985    2.23000002
   12.39083290  243.07600403    4.90999985    2.23000002
   12.39416695  265.35998535    4.90999985    2.23000002
   12.39750004  260.88400269    4.90999985    2.25000000
   12.39833355  240.75399780    4.90999985    2.23000002
   12.40194416  252.81399536    4.90999985    2.23000002
   12.40527725  251.20799255    4.90999985    2.23000002
   12.40833282  243.98500061    4.90999985    2.23000002
   12.41333294  243.98500061    4.90999985    2.25000000
   12.41750050  229.43099976    4.90999985    2.25000000
   12.42083359  236.75999451    4.90999985    2.25000000
   12.42388916  231.25199890    4.90999985    2.23000002
   12.42722225  224.51199341    4.90999985    2.23000002
   12.43055630  249.82400513    4.90999985    2.23000002
   12.43166733  228.19599915    4.90999985    2.23000002
   12.43416691  246.65199280    4.90999985    2.23000002
   12.43722248  234.18200684    4.90999985    2.23000002
   12.44055557  229.32299805    4.90999985    2.23000002
   12.44388866  239.39599609    4.90999985    2.23000002
   12.44694424  245.53500366    4.90999985    2.21000004
   12.45027733  240.53399658    4.90999985    2.21000004
   12.45611095  240.53399658    4.90999985    2.21000004
   12.46027756  241.42100525    4.90999985    2.21000004
   12.46361065  232.39300537    4.90999985    2.21000004
   12.46500015  246.67799377    4.90999985    2.21000004
   12.46722221  240.42500305    4.90999985    2.23000002
   12.47027779  230.56300354    4.90999985    2.23000002
   12.47361088  237.34100342    4.90999985    2.23000002
   12.47694397  232.57699585    4.90999985    2.23000002
   12.47999954  228.23399353    4.90999985    2.25000000
   12.48333359  239.41400146    4.90999985    2.25000000
   12.48638916  230.61099243    4.90999985    2.25000000
   12.48972225  237.08500671    4.90999985    2.25000000
   12.49305534  239.61300659    4.90999985    2.25000000
   12.49916649  239.61300659    4.90999985    2.25000000
   12.50333309  239.46800232    4.90999985    2.26999998
   12.50638866  239.32899475    4.90999985    2.26999998
   12.50972176  238.13099670    4.90999985    2.26999998
   12.51305580  226.48800659    4.90999985    2.26999998
   12.51611137  231.42199707    4.90999985    2.26999998
   12.51944447  220.50300598    4.90999985    2.28999996
   12.52277756  210.04600525    4.90999985    2.28999996
   12.52583313  216.81900024    4.90999985    2.28999996
   12.52916622  221.84800720    4.90999985    2.28999996
   12.53166676  221.33000183    4.90999985    2.30999994
   12.53277779  221.66099548    4.90999985    2.28999996
   12.53583336  217.86500549    4.90999985    2.30999994
   12.54194450  217.86500549    4.90999985    2.32999992
   12.54611111  211.29200745    4.90999985    2.32999992
   12.54916668  219.60499573    4.90999985    2.32999992
   12.55249977  218.57000732    4.90999985    2.32999992
   12.55583382  211.87800598    4.90999985    2.32999992
   12.55888939  212.37800598    4.90999985    2.32999992
   12.56222248  204.89700317    4.90999985    2.32999992
   12.56500053  212.76600647    4.90999985    2.32999992
   12.56583309  223.15299988    4.90999985    2.34999990
   12.56888866  214.60000610    4.90999985    2.34999990
   12.57222176  207.68200684    4.90999985    2.32999992
   12.57555580  212.34599304    4.90999985    2.34999990
   12.57861137  205.88999939    4.90999985    2.34999990
   12.58472157  205.88999939    4.90999985    2.36999989
   12.58888817  203.34700012    4.90999985    2.36999989
   12.59222221  210.25399780    4.90999985    2.36999989
   12.59527779  212.86300659    4.90999985    2.34999990
   12.59833336  216.19000244    4.90999985    2.34999990
   12.59916592  203.23899841    4.90999985    2.34999990
   12.60222244  209.74800110    4.90999985    2.34999990
   12.60555553  209.54200745    4.90999985    2.34999990
   12.60888958  209.85499573    4.90999985    2.36999989
   12.61194515  202.16299438    4.90999985    2.34999990
   12.61527824  215.57800293    4.90999985    2.34999990
   12.61833382  211.72700500    4.90999985    2.36999989
   12.62166691  196.42399597    4.90999985    2.36999989
   12.62777805  196.42399597    4.90999985    2.36999989
   12.63194466  207.70700073    4.90999985    2.36999989
   12.63500023  211.08500671    4.90999985    2.36999989
   12.63833332  204.71600342    4.90999985    2.36999989
   12.64138889  208.03999329    4.90999985    2.39000010
   12.64472198  198.24800110    4.90999985    2.39000010
   12.64805508  209.44000244    4.90999985    2.39000010
   12.65111065  206.33299255    4.90999985    2.39000010
   12.65444374  204.12300110    4.90999985    2.39000010
   12.65749931  201.50700378    4.90999985    2.39000010
   12.66083336  202.89700317    4.90999985    2.39000010
   12.66416645  209.26600647    4.90999985    2.39000010
   12.66499996  203.06100464    4.90999985    2.39000010
   12.68583298  203.06100464    4.90999985    2.40000010
   12.68972206  201.49099731    4.90999985    2.40000010
   12.69305515  198.45700073    4.90999985    2.40000010
   12.69638920  197.17500305    4.90999985    2.39000010
   12.69833374  194.86599731    4.90999985    2.40000010
   12.69999981  191.29800415    4.90999985    2.39000010
   12.70305538  186.54800415    4.90999985    2.39000010
   12.70638847  194.83700562    4.90999985    2.39000010
   12.70972157  194.31100464    4.90999985    2.40000010
   12.71305561  196.48699951    4.90999985    2.40000010
   12.71638870  193.84899902    4.90999985    2.40000010
   12.71944427  192.22900391    4.90999985    2.40000010
   12.72277737  196.91900635    4.90999985    2.40000010
   12.72888851  196.91900635    4.90999985    2.40000010
   12.73305511  188.74899292    4.90999985    2.39000010
   12.73611164  197.47500610    4.90999985    2.40000010
   12.73944473  192.76699829    4.90999985    2.40000010
   12.74250031  196.41999817    4.90999985    2.40000010
   12.74583340  200.27999878    4.90999985    2.40000010
   12.74916649  193.78100586    4.90999985    2.40000010
   12.75222206  192.83399963    4.90999985    2.40000010
   12.75555515  199.99000549    4.90999985    2.40000010
   12.75888920  198.72999573    4.90999985    2.42000008
   12.76194477  188.31199646    4.90999985    2.42000008
   12.76500034  195.54200745    4.90999985    2.42000008
   12.76555538  191.46200562    4.90999985    2.42000008
   12.77138901  191.46200562    4.90999985    2.42000008
   12.77555561  193.53399658    4.90999985    2.42000008
   12.77861118  191.54600525    4.90999985    2.42000008
   12.78194427  189.73300171    4.90999985    2.42000008
   12.78500080  200.13699341    4.90999985    2.42000008
   12.78833389  190.87300110    4.90999985    2.44000006
   12.79166698  188.47500610    4.90999985    2.44000006
   12.79472256  190.99800110    4.88999987    2.44000006
   12.79805565  189.14799500    4.86999989    2.44000006
   12.79861164  192.19099426    4.86999989    2.44000006
   12.80138874  188.07000732    4.84999990    2.44000006
   12.80472279  181.16799927    4.84999990    2.46000004
   12.80805588  185.77099609    4.82999992    2.44000006
   12.81416702  185.77099609    4.80000019    2.46000004
   12.81833363  182.72399902    4.78000021    2.46000004
   12.82138920  187.17799377    4.76000023    2.46000004
   12.82472229  184.44099426    4.73999977    2.46000004
   12.82805538  184.64199829    4.69999981    2.46000004
   12.83138847  180.18200684    4.67999983    2.46000004
   12.83194447  183.21099854    4.65999985    2.46000004
   12.83500004  192.73800659    4.63999987    2.46000004
   12.83805561  187.24699402    4.61999989    2.46000004
   12.84138870  187.23500061    4.59999990    2.46000004
   12.84472179  191.49099731    4.57999992    2.46000004
   12.84777737  194.23800659    4.55999994    2.46000004
   12.85111141  189.62199402    4.55999994    2.46000004
   12.85694504  189.62199402    4.40999985    2.46000004
   12.86111164  180.94599915    4.34999990    2.46000004
   12.86444473  183.03199768    4.36999989    2.46000004
   12.86527824  183.82200623    4.36999989    2.46000004
   12.86805534  192.11700439    4.38999987    2.46000004
   12.87111092  187.23100281    4.34999990    2.46000004
   12.87444496  188.60000610    4.36999989    2.46000004
   12.87750053  182.64300537    4.36999989    2.46000004
   12.88083363  183.20399475    4.36999989    2.46000004
   12.88416672  181.57899475    4.38999987    2.46000004
   12.88722229  183.37300110    4.38999987    2.44000006
   12.89055538  184.27499390    4.38999987    2.46000004
   12.89388847  181.79800415    4.36999989    2.46000004
   12.89999962  181.79800415    4.38999987    2.46000004
   12.90416622  185.40100098    4.36999989    2.46000004
   12.90722179  183.78700256    4.34999990    2.46000004
   12.91055489  191.03599548    4.34999990    2.46000004
   12.91388893  181.66900635    4.34999990    2.46000004
   12.91694450  184.04899597    4.32999992    2.46000004
   12.92027855  180.87399292    4.32999992    2.46000004
   12.92333412  185.07499695    4.32999992    2.46000004
   12.92666721  185.96400452    4.30999994    2.46000004
   12.93000031  192.95899963    4.30999994    2.48000002
   12.93194485  184.23100281    4.28999996    2.46000004
   12.93361092  181.45799255    4.28999996    2.46000004
   12.93666649  182.50799561    4.28999996    2.46000004
   12.94277763  182.50799561    4.26999998    2.48000002
   12.94694424  186.79400635    4.26999998    2.46000004
   12.95027733  188.32800293    4.26000023    2.48000002
   12.95333290  187.42599487    4.23999977    2.48000002
   12.95666695  189.21499634    4.21999979    2.48000002
   12.95972157  186.51300049    4.21999979    2.48000002
   12.96305561  185.68899536    4.19999981    2.48000002
   12.96527767  188.76100159    4.19999981    2.48000002
   12.96666622  181.83200073    4.19999981    2.48000002
   12.96972179  190.48300171    4.17999983    2.48000002
   12.97305489  185.18299866    4.17999983    2.50000000
   12.97638798  184.76499939    4.15999985    2.50000000
   12.97944355  181.56900024    4.13999987    2.48000002
   12.98555565  181.56900024    4.13999987    2.48000002
   12.98972225  182.52699280    4.11999989    2.50000000
   12.99277782  183.23399353    4.09999990    2.48000002
   12.99611092  185.50999451    4.09999990    2.48000002
   12.99861145  181.62899780    4.09999990    2.50000000
   12.99972248  178.90600586    4.09999990    2.50000000
   13.00305557  177.00500488    4.07999992    2.48000002
   13.00638866  182.20300293    4.05999994    2.48000002
   13.00944424  175.22200012    4.05999994    2.48000002
   13.01277733  178.56900024    4.05999994    2.48000002
   13.01611137  177.02699280    4.05999994    2.50000000
   13.01916599  180.92700195    4.03999996    2.48000002
   13.02250004  182.19999695    4.03999996    2.48000002
   13.02833271  182.19999695    4.03999996    2.50000000
   13.03249931  190.48599243    4.03999996    2.51999998
   13.03583336  191.54699707    4.03999996    2.50000000
   13.03888893  185.78999329    4.03999996    2.50000000
   13.04222298  187.99299622    4.03999996    2.48000002
   13.04555607  191.75500488    4.03999996    2.50000000
   13.04861164  185.28199768    4.05999994    2.50000000
   13.05194473  185.42599487    4.03999996    2.50000000
   13.05500031  188.21699524    4.03999996    2.50000000
   13.05833340  180.87199402    4.03999996    2.50000000
   13.06166649  178.97599792    4.03999996    2.51999998
   13.06472206  181.53100586    4.03999996    2.51999998
   13.06527805  187.58399963    4.01999998    2.50000000
   13.07138920  187.58399963    4.00000000    2.50000000
   13.07527733  180.68099976    4.00000000    2.50000000
   13.07861137  179.47500610    4.00000000    2.50000000
   13.08194447  180.33999634    3.99000001    2.51999998
   13.08500004  175.19000244    3.97000003    2.50000000
   13.08833313  180.48800659    3.97000003    2.50000000
   13.09138870  172.68800354    3.95000005    2.50000000
   13.09472179  177.41299438    3.93000007    2.51999998
   13.09805489  179.14700317    3.93000007    2.51999998
   13.09861088  180.37300110    3.93000007    2.51999998
   13.10166740  186.75399780    3.91000009    2.51999998
   13.10472298  179.78399658    3.91000009    2.50000000
   13.10805607  182.03700256    3.89000010    2.50000000
   13.11416721  182.03700256    3.86999989    2.51999998
   13.11833382  183.80000305    3.84999990    2.50000000
   13.12138939  177.12100220    3.82999992    2.51999998
   13.12472248  169.31799316    3.82999992    2.51999998
   13.12777805  178.33500671    3.82999992    2.51999998
   13.13111115  180.29899597    3.82999992    2.51999998
   13.13194466  181.94900513    3.82999992    2.51999998
   13.13472176  181.15499878    3.82999992    2.53999996
   13.13777733  180.04200745    3.84999990    2.51999998
   13.14111137  177.54499817    3.82999992    2.51999998
   13.14444447  174.63400269    3.82999992    2.51999998
   13.14750004  174.64199829    3.80999994    2.51999998
   13.15083313  168.90899658    3.78999996    2.51999998
   13.15694427  168.90899658    3.78999996    2.51999998
   13.16111088  173.35800171    3.78999996    2.51999998
   13.16416645  183.51199341    3.78999996    2.51999998
   13.16527748  180.64700317    3.78999996    2.53999996
   13.16805553  179.46299744    3.78999996    2.51999998
   13.17111111  170.42199707    3.78999996    2.51999998
   13.17444515  175.98599243    3.76999998    2.51999998
   13.17777824  177.88699341    3.75000000    2.51999998
   13.18083382  176.29200745    3.76999998    2.51999998
   13.18416691  171.90699768    3.75000000    2.51999998
   13.18750000  172.38499451    3.75000000    2.53999996
   13.19055557  173.00900269    3.75000000    2.51999998
   13.19388866  183.07699585    3.76999998    2.51999998
   13.19972229  183.07699585    3.80999994    2.55999994
   13.20388889  176.40699768    3.84999990    2.53999996
   13.20722198  178.10699463    3.89000010    2.53999996
   13.21027756  176.22999573    3.91000009    2.53999996
   13.21361065  181.91099548    3.95000005    2.53999996
   13.21694374  177.68800354    4.00000000    2.53999996
   13.21999931  174.79499817    4.03999996    2.53999996
   13.22333336  176.30799866    4.07999992    2.53999996
   13.22638798  173.29499817    4.11999989    2.53999996
   13.22972202  182.94999695    4.15999985    2.53999996
   13.23194408  173.95799255    4.19999981    2.53999996
   13.23333359  175.07499695    4.21999979    2.53999996
   13.23638916  170.21000671    4.26999998    2.51999998
   13.24277782  170.21000671    4.38999987    2.53999996
   13.24666691  174.64399719    4.44999981    2.53999996
   13.25000000  171.57699585    4.51000023    2.51999998
   13.25333309  169.17199707    4.55999994    2.53999996
   13.25638866  172.30599976    4.61999989    2.53999996
   13.25972176  167.17799377    4.67999983    2.53999996
   13.26277733  167.80700684    4.76000023    2.53999996
   13.26527786  177.02200317    4.80000019    2.53999996
   13.26666641  179.53599548    4.80000019    2.53999996
   13.26972198  181.92399597    4.84999990    2.53999996
   13.27305508  170.93600464    4.90999985    2.53999996
   13.27638817  176.13499451    4.90999985    2.53999996
   13.27944374  172.27799988    4.90999985    2.53999996
   13.28555584  172.27799988    4.90999985    2.53999996
   13.28972244  168.90899658    4.90999985    2.53999996
   13.29277802  174.74400330    4.90999985    2.53999996
   13.29611111  175.11500549    4.90999985    2.53999996
   13.29888916  179.93099976    4.90999985    2.53999996
   13.30000019  178.33999634    4.90999985    2.55999994
   13.30333328  174.88999939    4.90999985    2.51999998
   13.30638885  171.65899658    4.90999985    2.53999996
   13.30972195  172.13800049    4.90999985    2.53999996
   13.31305599  183.19500732    4.90999985    2.53999996
   13.31611156  175.62699890    4.90999985    2.53999996
   13.31944466  173.14199829    4.90999985    2.53999996
   13.32250023  172.56500244    4.90999985    2.53999996
   13.32833290  172.56500244    4.90999985    2.53999996
   13.33249950  171.84800720    4.90999985    2.53999996
   13.33583260  171.95799255    4.90999985    2.51999998
   13.33888817  178.72399902    4.90999985    2.51999998
   13.34222221  180.55099487    4.90999985    2.51999998
   13.34527779  173.67799377    4.90999985    2.51999998
   13.34861088  173.91499329    4.90999985    2.51999998
   13.35194492  171.92500305    4.90999985    2.51999998
   13.35500050  169.46699524    4.90999985    2.51999998
   13.35833359  175.05999756    4.90999985    2.51999998
   13.36166668  173.56399536    4.90999985    2.51999998
   13.36472225  167.72700500    4.90999985    2.51999998
   13.36527824  172.34899902    4.90999985    2.51999998
   13.37111092  172.34899902    4.90999985    2.51999998
   13.37527752  168.40100098    4.90999985    2.51999998
   13.37861156  175.49899292    4.90999985    2.51999998
   13.38166714  176.60400391    4.90999985    2.51999998
   13.38500023  181.22300720    4.90999985    2.51999998
   13.38833332  174.58099365    4.90999985    2.51999998
   13.39138889  171.91299438    4.90999985    2.50000000
   13.39472198  174.80299377    4.90999985    2.51999998
   13.39805508  181.84899902    4.90999985    2.51999998
   13.39861107  175.61799622    4.90999985    2.51999998
   13.40166664  171.03700256    4.90999985    2.51999998
   13.40499973  179.15499878    4.90999985    2.50000000
   13.40805531  189.10299683    4.90999985    2.50000000
   13.41416645  189.10299683    4.90999985    2.48000002
   13.41805553  177.67199707    4.90999985    2.50000000
   13.42138958  187.87899780    4.90999985    2.50000000
   13.42472267  180.39900208    4.90999985    2.50000000
   13.42777824  174.78799438    4.90999985    2.50000000
   13.43111134  171.46200562    4.90999985    2.50000000
   13.43194485  170.79200745    4.90999985    2.51999998
   13.43472195  177.62300110    4.90999985    2.50000000
   13.43805599  175.82499695    4.90999985    2.50000000
   13.44111156  177.89900208    4.90999985    2.48000002
   13.44444466  171.76300049    4.90999985    2.48000002
   13.44750023  179.32499695    4.90999985    2.50000000
   13.45083332  172.60200500    4.90999985    2.50000000
   13.45694447  172.60200500    4.90999985    2.50000000
   13.46111107  178.52400208    4.90999985    2.50000000
   13.46416664  176.96600342    4.90999985    2.50000000
   13.46527767  176.76899719    4.90999985    2.48000002
   13.46777725  173.76600647    4.90999985    2.48000002
   13.47111034  175.80099487    4.90999985    2.48000002
   13.47416592  174.65899658    4.90999985    2.48000002
   13.47749996  178.04600525    4.90999985    2.50000000
   13.48055553  174.87800598    4.90999985    2.50000000
   13.48388958  176.79499817    4.90999985    2.51999998
   13.48722267  176.60299683    4.90999985    2.51999998
   13.49027824  173.05499268    4.90999985    2.50000000
   13.49361134  181.75100708    4.90999985    2.53999996
   13.49972248  181.75100708    4.90999985    2.51999998
   13.50388908  181.59899902    4.90999985    2.53999996
   13.50722218  175.06300354    4.90999985    2.53999996
   13.51027775  181.02900696    4.90999985    2.53999996
   13.51361084  178.01800537    4.90999985    2.53999996
   13.51666641  182.92999268    4.90999985    2.53999996
   13.51999950  175.02699280    4.90999985    2.53999996
   13.52333355  176.25900269    4.90999985    2.51999998
   13.52666664  174.83799744    4.90999985    2.51999998
   13.52972221  180.54600525    4.90999985    2.51999998
   13.53194427  181.10200500    4.90999985    2.50000000
   13.53333378  180.03300476    4.90999985    2.51999998
   13.53666687  181.25199890    4.90999985    2.51999998
   13.54250050  181.25199890    4.90999985    2.51999998
   13.54666710  179.70799255    4.90999985    2.51999998
   13.55000019  178.10800171    4.90999985    2.51999998
   13.55333328  183.55299377    4.90999985    2.50000000
   13.55638885  172.72099304    4.90999985    2.51999998
   13.55972195  178.16400146    4.90999985    2.51999998
   13.56277752  181.06199646    4.90999985    2.50000000
   13.56527805  175.93600464    4.90999985    2.50000000
   13.56638908  189.18400574    4.90999985    2.48000002
   13.56972218  183.86799622    4.90999985    2.48000002
   13.57277775  188.40699768    4.90999985    2.48000002
   13.57611084  178.93200684    4.90999985    2.46000004
   13.57916641  176.00700378    4.90999985    2.48000002
   13.58555508  176.00700378    4.90999985    2.50000000
   13.58944416  185.50000000    4.90999985    2.50000000
   13.59277725  180.97799683    4.90999985    2.50000000
   13.59611034  186.27299500    4.90999985    2.51999998
   13.59861088  195.27699280    4.90999985    2.51999998
   13.59972191  184.98699951    4.90999985    2.50000000
   13.60305595  182.71400452    4.90999985    2.50000000
   13.60611153  182.61500549    4.90999985    2.50000000
   13.60944462  188.47200012    4.90999985    2.51999998
   13.61250019  179.57600403    4.90999985    2.51999998
   13.61583328  178.08299255    4.90999985    2.51999998
   13.61916637  177.94599915    4.90999985    2.51999998
   13.62222195  178.03700256    4.90999985    2.53999996
   13.62833309  178.03700256    4.90999985    2.53999996
   13.63249969  177.30400085    4.90999985    2.53999996
   13.63555527  173.87399292    4.90999985    2.53999996
   13.63888836  177.88900757    4.90999985    2.55999994
   13.64194393  177.64500427    4.90999985    2.53999996
   13.64527798  175.66999817    4.90999985    2.53999996
   13.64861107  178.83000183    4.90999985    2.53999996
   13.65166664  173.08700562    4.90999985    2.51999998
   13.65499973  173.59300232    4.90999985    2.51999998
   13.65833282  168.51400757    4.90999985    2.53999996
   13.66138840  176.59599304    4.90999985    2.53999996
   13.66472149  179.24899292    4.90999985    2.53999996
   13.66527748  177.88999939    4.90999985    2.53999996
   13.67111111  177.88999939    4.90999985    2.53999996
   13.67527771  182.69799805    4.90999985    2.53999996
   13.67861176  186.86399841    4.90999985    2.55999994
   13.68166733  177.15299988    4.90999985    2.55999994
   13.69916630  181.49899292    4.90999985    2.53999996
   13.70166683  174.55200195    4.90999985    2.53999996
   13.70499992  177.08799744    4.90999985    2.51999998
   13.70805550  175.11900330    4.90999985    2.53999996
   13.71416664  175.11900330    4.90999985    2.53999996
   13.71833324  170.70599365    4.90999985    2.55999994
   13.72138882  173.31399536    4.90999985    2.55999994
   13.72472191  181.15400696    4.90999985    2.53999996
   13.72777748  179.98699951    4.90999985    2.55999994
   13.73111057  168.59800720    4.90999985    2.55999994
   13.73249912  166.71299744    4.90999985    2.55999994
   13.73472214  166.98500061    4.90999985    2.55999994
   13.73777771  172.28700256    4.90999985    2.55999994
   13.74111176  168.95500183    4.90999985    2.53999996
   13.74444485  169.10400391    4.90999985    2.55999994
   13.74777794  173.81500244    4.90999985    2.55999994
   13.75083351  173.25700378    4.90999985    2.57999992
   13.75694466  173.25700378    4.90999985    2.55999994
   13.76111126  171.79100037    4.90999985    2.55999994
   13.76444435  169.96499634    4.90999985    2.55999994
   13.76583290  177.37500000    4.90999985    2.55999994
   13.76805496  173.73399353    4.90999985    2.53999996
   13.77138901  176.01800537    4.90999985    2.55999994
   13.77444458  179.14700317    4.90999985    2.55999994
   13.77777767  178.51800537    4.90999985    2.53999996
   13.78111076  173.71099854    4.90999985    2.53999996
   13.78416729  180.63900757    4.90999985    2.53999996
   13.78750038  174.18200684    4.90999985    2.51999998
   13.79055595  168.07099915    4.90999985    2.51999998
   13.79388905  174.62800598    4.90999985    2.51999998
   13.80000019  174.62800598    4.90999985    2.50000000
   13.80388927  174.27299500    4.90999985    2.51999998
   13.80722237  176.92799377    4.90999985    2.51999998
   13.81055546  183.11900330    4.90999985    2.51999998
   13.81361103  173.05799866    4.90999985    2.51999998
   13.81694412  177.21800232    4.90999985    2.53999996
   13.82027817  177.19299316    4.90999985    2.53999996
   13.82333374  174.74000549    4.90999985    2.55999994
   13.82666683  173.01800537    4.90999985    2.53999996
   13.82972240  178.41000366    4.90999985    2.53999996
   13.83277798  173.68899536    4.90999985    2.53999996
   13.83333302  176.47500610    4.90999985    2.53999996
   13.83666611  178.60000610    4.90999985    2.53999996
   13.84277725  178.60000610    4.90999985    2.53999996
   13.84694386  182.25799561    4.90999985    2.53999996
   13.85000038  177.83200073    4.90999985    2.53999996
   13.85333347  180.36900330    4.90999985    2.53999996
   13.85666752  180.77400208    4.90999985    2.53999996
   13.85972214  182.39199829    4.90999985    2.53999996
   13.86305618  182.97500610    4.90999985    2.53999996
   13.86611176  179.98199463    4.90999985    2.53999996
   13.86666679  176.01899719    4.90999985    2.51999998
   13.86999989  182.25500488    4.90999985    2.51999998
   13.87333393  180.74099731    4.90999985    2.53999996
   13.87638855  179.73800659    4.90999985    2.53999996
   13.87972260  180.24299622    4.90999985    2.51999998
   13.88555527  180.24299622    4.90999985    2.53999996
   13.88972187  181.50500488    4.90999985    2.53999996
   13.89305496  180.33399963    4.90999985    2.53999996
   13.89611053  182.85400391    4.90999985    2.53999996
   13.89944458  183.98800659    4.90999985    2.51999998
   13.89972210  181.67500305    4.90999985    2.51999998
   13.90305519  178.50500488    4.90999985    2.53999996
   13.90611076  177.45899963    4.90999985    2.53999996
   13.90944386  177.48699951    4.90999985    2.53999996
   13.91249943  178.14999390    4.90999985    2.53999996
   13.91583252  172.79100037    4.90999985    2.55999994
   13.91916656  180.21600342    4.90999985    2.55999994
   13.92222214  184.13099670    4.90999985    2.55999994
   13.92833328  184.13099670    4.90999985    2.57999992
   13.93249989  168.13200378    4.90999985    2.57999992
   13.93305588  170.08000183    4.90999985    2.57999992
   13.93638897  168.21200562    4.90999985    2.57999992
   13.93944454  171.79899597    4.90999985    2.59999990
   13.94277763  170.98399353    4.90999985    2.57999992
   13.94583321  164.78100586    4.90999985    2.57999992
   13.94916630  171.37100220    4.90999985    2.57999992
   13.95222187  176.08900452    4.90999985    2.57999992
   13.95555496  172.55900574    4.90999985    2.57999992
   13.95861053  175.07699585    4.90999985    2.57999992
   13.96194458  173.80200195    4.90999985    2.55999994
   13.96527767  179.81300354    4.90999985    2.57999992
   13.96638870  171.78599548    4.90999985    2.55999994
   13.97138882  171.78599548    4.90999985    2.57999992
   13.97527695  168.74400330    4.90999985    2.57999992
   13.97861099  166.65100098    4.90999985    2.57999992
   13.98194408  168.59700012    4.90999985    2.57999992
   13.98500061  177.89100647    4.90999985    2.59999990
   13.98833370  172.72799683    4.90999985    2.59999990
   13.99138927  172.99099731    4.90999985    2.59999990
   13.99472237  165.76600647    4.90999985    2.55999994
   13.99777794  178.49099731    4.90999985    2.57999992
   13.99972248  162.92799377    4.90999985    2.57999992
   14.00138855  165.66900635    4.90999985    2.57999992
   14.00472260  171.17599487    4.90999985    2.59999990
   14.00777817  169.58200073    4.90999985    2.59999990
   14.01388931  169.58200073    4.90999985    2.59999990
   14.01805496  169.17900085    4.90999985    2.59999990
   14.02138901  166.20500183    4.90999985    2.59999990
   14.02444458  171.67700195    4.90999985    2.59999990
   14.02777767  169.52499390    4.90999985    2.61999989
   14.03083324  174.77299500    4.90999985    2.59999990
   14.03305531  169.81300354    4.90999985    2.59999990
   14.03444481  167.05000305    4.90999985    2.57999992
   14.03777790  165.12500000    4.90999985    2.59999990
   14.04083347  169.17100525    4.90999985    2.59999990
   14.04416752  162.97200012    4.90999985    2.59999990
   14.04722309  168.80299377    4.90999985    2.59999990
   14.05055618  165.88800049    4.90999985    2.59999990
   14.05694485  165.88800049    4.90999985    2.59999990
   14.06083393  174.32200623    4.90999985    2.59999990
   14.06416702  173.87699890    4.90999985    2.59999990
   14.06638908  171.33700562    4.90999985    2.59999990
   14.06777763  169.66299438    4.90999985    2.57999992
   14.07111073  168.44000244    4.90999985    2.57999992
   14.07416630  169.67199707    4.90999985    2.57999992
   14.07750034  174.22599792    4.90999985    2.57999992
   14.08055592  169.99099731    4.90999985    2.57999992
   14.08388901  170.25700378    4.90999985    2.57999992
   14.08722210  174.84599304    4.90999985    2.57999992
   14.09027767  166.86300659    4.90999985    2.57999992
   14.09361076  172.23699951    4.90999985    2.57999992
   14.09972191  172.23699951    4.90999985    2.57999992
   14.10388947  172.63099670    4.90999985    2.57999992
   14.10694504  173.91499329    4.90999985    2.57999992
   14.11027813  167.58299255    4.90999985    2.57999992
   14.11333370  170.42799377    4.90999985    2.55999994
   14.11666679  173.67700195    4.90999985    2.57999992
   14.11999989  165.46899414    4.90999985    2.57999992
   14.12305546  176.83799744    4.90999985    2.57999992
   14.12638855  173.78199768    4.90999985    2.59999990
   14.12944412  174.37300110    4.90999985    2.57999992
   14.13277817  170.90199280    4.90999985    2.59999990
   14.13333321  172.16299438    4.90999985    2.57999992
   14.13638878  167.93800354    4.90999985    2.59999990
   14.14249992  167.93800354    4.90999985    2.59999990
   14.14666653  175.18200684    4.90999985    2.59999990
   14.14999962  178.99499512    4.90999985    2.59999990
   14.15305519  175.17999268    4.90999985    2.57999992
   14.15638828  179.61500549    4.90999985    2.57999992
   14.15944386  176.44200134    4.90999985    2.59999990
   14.16277695  178.01800537    4.90999985    2.59999990
   14.16638851  170.46600342    4.90999985    2.59999990
   14.16694450  169.19299316    4.90999985    2.59999990
   14.16972256  168.30099487    4.90999985    2.59999990
   14.17305565  175.95799255    4.90999985    2.59999990
   14.17611122  172.24400330    4.90999985    2.59999990
   14.17944431  181.06300354    4.90999985    2.59999990
   14.18555546  181.06300354    4.90999985    2.59999990
   14.18944454  161.08999634    4.90999985    2.59999990
   14.19277763  176.26699829    4.90999985    2.59999990
   14.19611073  172.80099487    4.90999985    2.61999989
   14.19916630  163.64500427    4.90999985    2.61999989
   14.20027733  169.87500000    4.90999985    2.61999989
   14.20277786  171.23199463    4.90999985    2.61999989
   14.20611095  171.86999512    4.90999985    2.59999990
   14.20916653  167.41000366    4.90999985    2.61999989
   14.21249962  176.77999878    4.90999985    2.61999989
   14.21583271  169.98399353    4.90999985    2.61999989
   14.21888828  182.04800415    4.90999985    2.61999989
   14.22222137  168.69200134    4.90999985    2.61999989
   14.22833252  168.69200134    4.90999985    2.61999989
   14.23249912  177.11000061    4.90999985    2.61999989
   14.23333359  170.10400391    4.90999985    2.59999990
   14.23583317  175.83299255    4.90999985    2.59999990
   14.23916721  172.75399780    4.90999985    2.57999992
   14.24222279  185.99099731    4.90999985    2.57999992
   14.24555588  174.37500000    4.90999985    2.57999992
   14.24861145  188.00799561    4.90999985    2.57999992
   14.25194454  185.41299438    4.90999985    2.57999992
   14.25500011  181.38499451    4.90999985    2.57999992
   14.25833321  180.25999451    4.90999985    2.59999990
   14.26166630  175.33000183    4.90999985    2.57999992
   14.26472187  178.99400330    4.90999985    2.59999990
   14.26694393  181.64100647    4.90999985    2.59999990
   14.27111053  181.64100647    4.90999985    2.59999990
   14.27527714  171.84899902    4.90999985    2.59999990
   14.27833271  170.69000244    4.90999985    2.61999989
   14.28194427  174.64399719    4.90999985    2.61999989
   14.28527832  174.49499512    4.90999985    2.61999989
   14.28861141  174.89199829    4.90999985    2.61999989
   14.29166698  171.90800476    4.90999985    2.61999989
   14.29500008  170.95300293    4.90999985    2.64000010
   14.29805565  172.96800232    4.90999985    2.64000010
   14.30027771  182.35600281    4.90999985    2.64000010
   14.30166721  170.99099731    4.90999985    2.64000010
   14.30500031  174.53199768    4.90999985    2.64000010
   14.30805588  166.37899780    4.90999985    2.64000010
   14.31388950  166.37899780    4.90999985    2.64000010
   14.31805515  168.16099548    4.90999985    2.64000010
   14.32138920  165.76899719    4.90999985    2.64000010
   14.32444477  174.48699951    4.90999985    2.66000009
   14.32777786  172.34899902    4.82999992    2.66000009
   14.33083344  175.53799438    4.69999981    2.66000009
   14.33361053  169.48699951    4.63999987    2.66000009
   14.33444405  174.47000122    4.61999989    2.64000010
   14.33777714  165.23500061    4.53999996    2.66000009
   14.34083271  167.26699829    4.48999977    2.66000009
   14.34416676  173.52600098    4.42999983    2.66000009
   14.34722233  174.57400513    4.36999989    2.66000009
   14.35055637  171.43699646    4.34999990    2.64000010
   14.35694504  171.43699646    4.32999992    2.66000009
   14.36083412  177.91299438    4.30999994    2.66000009
   14.36416721  165.05200195    4.32999992    2.66000009
   14.36694431  168.22599792    4.36999989    2.64000010
   14.36777782  168.79699707    4.36999989    2.66000009
   14.37111092  165.11399841    4.42999983    2.66000009
   14.37444496  164.79699707    4.46999979    2.66000009
   14.37750053  163.07200623    4.51000023    2.66000009
   14.38083363  170.83700562    4.53999996    2.66000009
   14.38388920  170.40299988    4.57999992    2.66000009
   14.38722229  166.45700073    4.59999990    2.64000010
   14.39027786  160.46899414    4.65999985    2.64000010
   14.39361095  161.40699768    4.69999981    2.64000010
   14.39972210  161.40699768    4.80000019    2.66000009
   14.40388870  170.68699646    4.84999990    2.64000010
   14.40694427  172.96099854    4.88999987    2.64000010
   14.41027737  167.65199280    4.90999985    2.64000010
   14.41333294  161.49200439    4.90999985    2.64000010
   14.41666698  166.93600464    4.90999985    2.64000010
   14.41972256  165.35499573    4.90999985    2.64000010
   14.42305565  161.40400696    4.90999985    2.64000010
   14.42638874  165.60499573    4.90999985    2.64000010
   14.42944431  165.64100647    4.90999985    2.64000010
   14.43277836  167.18800354    4.90999985    2.64000010
   14.43472195  172.69900513    4.90999985    2.64000010
   14.43611145  172.44200134    4.90999985    2.64000010
   14.44250011  172.44200134    4.90999985    2.66000009
   14.44666672  167.35899353    4.90999985    2.66000009
   14.44972229  174.36799622    4.90999985    2.66000009
   14.45305538  167.32099915    4.90999985    2.64000010
   14.45638847  159.48300171    4.90999985    2.64000010
   14.45944405  163.64399719    4.90999985    2.64000010
   14.46277714  162.53799438    4.90999985    2.66000009
   14.46611118  167.58200073    4.90999985    2.64000010
   14.46805477  169.25700378    4.90999985    2.66000009
   14.46944427  167.24000549    4.90999985    2.66000009
   14.47277737  162.34800720    4.90999985    2.66000009
   14.47611046  172.23199463    4.90999985    2.64000010
   14.47916603  168.73699951    4.90999985    2.64000010
   14.48527813  168.73699951    4.90999985    2.64000010
   14.48944473  171.06300354    4.90999985    2.64000010
   14.49277782  167.09300232    4.90999985    2.64000010
   14.49583340  166.39500427    4.90999985    2.64000010
   14.49916649  164.59700012    4.90999985    2.64000010
   14.50166702  170.03999329    4.90999985    2.66000009
   14.50277805  168.42100525    4.90999985    2.64000010
   14.50611115  169.50700378    4.90999985    2.66000009
   14.50916672  174.66799927    4.90999985    2.66000009
   14.51249981  176.27600098    4.90999985    2.64000010
   14.51555538  163.35699463    4.90999985    2.66000009
   14.51888847  170.80799866    4.90999985    2.64000010
   14.52194405  169.55499268    4.90999985    2.64000010
   14.52833271  169.55499268    4.90999985    2.64000010
   14.53222179  172.15199280    4.90999985    2.64000010
   14.53500080  172.66000366    4.90999985    2.64000010
   14.53583336  165.67999268    4.90999985    2.64000010
   14.53916740  170.04200745    4.90999985    2.64000010
   14.54222298  166.72500610    4.90999985    2.64000010
   14.54555607  177.64900208    4.90999985    2.61999989
   14.54861164  169.73399353    4.90999985    2.61999989
   14.55194473  176.53599548    4.90999985    2.61999989
   14.55527782  174.42900085    4.90999985    2.61999989
   14.55833340  163.97300720    4.90999985    2.61999989
   14.56166649  166.87699890    4.90999985    2.61999989
   14.56472206  164.17700195    4.90999985    2.64000010
   14.57111073  164.17700195    4.90999985    2.66000009
   14.57527733  165.39500427    4.90999985    2.64000010
   14.57833290  163.73500061    4.90999985    2.64000010
   14.58166695  166.86700439    4.90999985    2.64000010
   14.58472157  167.37500000    4.90999985    2.66000009
   14.58805561  164.63299561    4.90999985    2.64000010
   14.59111118  170.12300110    4.90999985    2.64000010
   14.59444427  164.07400513    4.90999985    2.64000010
   14.59777737  166.37899780    4.90999985    2.66000009
   14.60083389  163.85400391    4.90999985    2.66000009
   14.60194492  165.51300049    4.90999985    2.66000009
   14.60444450  168.24899292    4.90999985    2.66000009
   14.60750008  163.05900574    4.90999985    2.67000008
   14.61388969  163.05900574    4.90999985    2.67000008
   14.61805534  159.24099731    4.90999985    2.66000009
   14.62138939  171.81300354    4.90999985    2.67000008
   14.62444496  165.72700500    4.90999985    2.67000008
   14.62777805  161.37899780    4.90999985    2.67000008
   14.63083363  169.13499451    4.90999985    2.67000008
   14.63416672  165.46099854    4.90999985    2.66000009
   14.63527775  169.10600281    4.90999985    2.66000009
   14.63777733  169.77400208    4.90999985    2.67000008
   14.64083290  163.14999390    4.90999985    2.67000008
   14.64416695  169.01400757    4.90999985    2.69000006
   14.64722252  161.04800415    4.90999985    2.67000008
   14.65055561  159.30200195    4.90999985    2.67000008
   14.65666676  159.30200195    4.76000023    2.67000008
   14.66083336  165.46699524    4.71999979    2.67000008
   14.66416645  157.47599792    4.73999977    2.67000008
   14.66722298  160.90299988    4.78000021    2.67000008
   14.66888905  160.83599854    4.80999994    2.67000008
   14.67083359  159.65100098    4.88999987    2.69000006
   14.67416668  159.47799683    4.90999985    2.71000004
   14.67722225  155.47200012    4.90999985    2.71000004
   14.68055630  159.92599487    4.90999985    2.69000006
   14.68388939  166.67599487    4.90999985    2.71000004
   14.68694496  163.33000183    4.90999985    2.69000006
   14.69027805  170.23300171    4.90999985    2.69000006
   14.69333363  164.01199341    4.90999985    2.67000008
   14.69972229  164.01199341    4.90999985    2.66000009
   14.71805477  163.96800232    4.90999985    2.67000008
   14.72111034  160.50000000    4.90999985    2.66000009
   14.72444439  157.37899780    4.90999985    2.67000008
   14.72749996  163.29299927    4.90999985    2.67000008
   14.73083305  169.29899597    4.90999985    2.66000009
   14.73416710  165.77600098    4.90999985    2.66000009
   14.73722267  163.27999878    4.90999985    2.66000009
   14.74277782  163.27999878    4.90999985    2.67000008
   14.74666691  158.98800659    4.90999985    2.67000008
   14.75000000  160.00100708    4.90999985    2.67000008
   14.75111103  161.94599915    4.90999985    2.67000008
   14.75361156  162.93899536    4.90999985    2.67000008
   14.75694466  158.38299561    4.90999985    2.69000006
   14.76000023  158.95500183    4.90999985    2.69000006
   14.76333332  161.24200439    4.90999985    2.69000006
   14.76638889  159.14599609    4.90999985    2.69000006
   14.76972198  162.47999573    4.90999985    2.69000006
   14.77277756  165.30700684    4.90999985    2.67000008
   14.77611065  160.26199341    4.90999985    2.67000008
   14.77944374  163.04800415    4.90999985    2.67000008
   14.78555584  163.04800415    4.90999985    2.67000008
   14.78972244  163.08000183    4.90999985    2.66000009
   14.79277802  157.80099487    4.90999985    2.67000008
   14.79611111  162.21600342    4.82999992    2.67000008
   14.79916668  160.69599915    4.71999979    2.67000008
   14.80249977  156.18099976    4.59999990    2.67000008
   14.80555534  160.11399841    4.46999979    2.67000008
   14.80888939  158.83599854    4.28999996    2.67000008
   14.81222248  157.81900024    4.13999987    2.69000006
   14.81527805  160.73800659    4.00000000    2.69000006
   14.81777763  163.04800415    3.93000007    2.71000004
   14.81888866  161.36599731    3.89000010    2.71000004
   14.82222176  162.09199524    3.70000005    2.69000006
   14.82833290  162.09199524    3.41000009    2.71000004
   14.83249950  156.78300476    3.20000005    2.71000004
   14.83555508  158.13600159    3.03999996    2.71000004
   14.83888817  159.78399658    2.91000009    2.71000004
   14.84222221  155.64599609    2.75000000    2.71000004
   14.84527779  156.71699524    2.59999990    2.71000004
   14.84861088  158.54200745    2.42000008    2.73000002
   14.85111141  161.74400330    2.32999992    2.71000004
   14.85194492  154.74800110    2.28999996    2.71000004
   14.85527802  152.05200195    2.17000008    2.73000002
   14.85833359  153.43400574    2.09999990    2.73000002
   14.86166668  154.63600159    2.01999998    2.73000002
   14.86472225  148.16600037    1.91999996    2.73000002
   14.87111092  148.16600037    1.73000002    2.71000004
   14.87527752  155.51699829    1.73000002    2.73000002
   14.87861156  157.03399658    1.71000004    2.73000002
   14.88166714  154.57299805    1.69000006    2.73000002
   14.88444424  159.73500061    1.66999996    2.73000002
   14.88527775  150.59199524    1.66999996    2.73000002
   14.88861084  158.48100281    1.64999998    2.73000002
   14.89194393  159.03799438    1.63000000    2.73000002
   14.89499950  159.04400635    1.64999998    2.73000002
   14.89833355  157.61500549    1.66999996    2.73000002
   14.90138817  154.70799255    1.71000004    2.73000002
   14.90472221  158.62500000    1.80999994    2.73000002
   14.90777779  154.79699707    1.88000000    2.73000002
   14.91416645  154.79699707    2.03999996    2.73000002
   14.91805553  157.24400330    2.09999990    2.73000002
   14.92138958  155.24800110    2.11999989    2.73000002
   14.92472267  156.01699829    2.09999990    2.73000002
   14.92777824  153.57899475    2.03999996    2.73000002
   14.93111134  158.18099976    2.00000000    2.71000004
   14.93416691  155.06500244    1.98000002    2.73000002
   14.93750000  156.54600525    1.80999994    2.73000002
   14.94055557  151.41499329    1.75000000    2.71000004
   14.94388866  151.67199707    1.73000002    2.73000002
   14.94722271  151.20899963    1.71000004    2.73000002
   14.95027733  147.04800415    1.64999998    2.73000002
   14.95111084  144.88800049    1.64999998    2.75000000
   14.95694447  144.88800049    1.61000001    2.73000002
   14.96111107  149.83500671    1.61000001    2.75000000
   14.96416664  149.83500671    1.61000001    2.75000000
   14.96749973  150.59800720    1.61000001    2.73000002
   15.07138920   -1.00000000   -1.00000000   -1.00000000
   15.17500019   -1.00000000   -1.00000000   -1.00000000
   15.28444481   -1.00000000   -1.00000000   -1.00000000
   15.34166622   74.31960297    0.73000002    2.76999998
   15.34472179   60.57569885    0.70999998    2.76999998
   15.34805489  133.18899536    0.70999998    2.75000000
   15.35138893  202.73399353    0.70999998    2.75000000
   15.35444450  150.01100159    0.73000002    2.75000000
   15.36250019  148.55999756    0.70999998    2.75000000
   15.36583328  153.80000305    0.70999998    2.75000000
   15.36888885  156.39599609    0.70999998    2.75000000
   15.37222195  147.49200439    0.69000000    2.75000000
   15.37527752  153.18600464    0.67000002    2.75000000
   15.37583351  155.11500549    0.67000002    2.75000000
   15.38000011  155.11500549    0.64999998    2.75000000
   15.38416672  153.34800720    0.64999998    2.76999998
   15.38722229  157.23199463    0.64999998    2.76999998
   15.39055538  152.63499451    0.64999998    2.76999998
   15.39361095  150.97999573    0.64999998    2.75000000
   15.39694405  150.25799561    0.64999998    2.75000000
   15.39999962  150.85000610    0.64999998    2.75000000
   15.40333271  151.79299927    0.64999998    2.76999998
   15.40666676  149.56599426    0.64999998    2.75000000
   15.40916634  150.48100281    0.64999998    2.76999998
   15.41027737  147.64199829    0.64999998    2.76999998
   15.41333294  151.98300171    0.64999998    2.75000000
   15.41666698  148.82400513    0.64999998    2.76999998
   15.42277813  148.82400513    0.64999998    2.76999998
   15.42694473  152.67100525    0.64999998    2.75000000
   15.43027782  148.06199646    0.64999998    2.75000000
   15.43333340  150.56500244    0.64999998    2.75000000
   15.43666649  155.92500305    0.64999998    2.75000000
   15.43972206  153.05400085    0.64999998    2.76999998
   15.44250011  151.81100464    0.64999998    2.76999998
   15.44333363  150.99400330    0.64999998    2.76999998
   15.44638920  149.04400635    0.64999998    2.76999998
   15.44972229  153.92399597    0.64999998    2.76999998
   15.45277786  150.30900574    0.64999998    2.76999998
   15.45611095  147.28999329    0.64999998    2.76999998
   15.45944405  153.12800598    0.67000002    2.76999998
   15.46555519  153.12800598    0.69000000    2.76999998
   15.46972179  152.15800476    0.67000002    2.75000000
   15.47305489  148.55799866    0.67000002    2.76999998
   15.47583294  151.82400513    0.67000002    2.76999998
   15.47666645  152.99000549    0.67000002    2.76999998
   15.47972202  152.21099854    0.67000002    2.75000000
   15.48305511  147.54800415    0.67000002    2.76999998
   15.48611164  150.36900330    0.67000002    2.76999998
   15.48944473  149.66099548    0.67000002    2.76999998
   15.49277782  148.30299377    0.67000002    2.75000000
   15.49583340  152.21800232    0.67000002    2.76999998
   15.49916649  150.44900513    0.67000002    2.76999998
   15.50222206  155.87199402    0.67000002    2.76999998
   15.50861073  155.87199402    0.67000002    2.75000000
   15.51249981  142.49800110    0.64999998    2.75000000
   15.51583290  151.87300110    0.64999998    2.75000000
   15.51916599  156.76300049    0.64999998    2.78999996
   15.52222157  129.88999939    0.64999998    2.76999998
   15.52555561  150.76199341    0.63000000    2.76999998
   15.52861118  150.50300598    0.64999998    2.75000000
   15.53194427  150.65499878    0.63000000    2.75000000
   15.53500080  148.35099792    0.63000000    2.75000000
   15.53833389  151.17799377    0.63000000    2.76999998
   15.54166698  151.40400696    0.63000000    2.76999998
   15.54361153  149.38800049    0.63000000    2.75000000
   15.54500008  152.62100220    0.63000000    2.75000000
   15.55138874  152.62100220    0.61000001    2.76999998
   15.55555534  155.88999939    0.61000001    2.76999998
   15.55861092  152.78999329    0.61000001    2.76999998
   15.56194496  144.97700500    0.61000001    2.76999998
   15.56500053  148.83000183    0.61000001    2.76999998
   15.56833363  153.61399841    0.61000001    2.76999998
   15.57166672  148.82899475    0.61000001    2.76999998
   15.57472229  151.44200134    0.61000001    2.76999998
   15.57694435  149.90199280    0.61000001    2.76999998
   15.57833290  148.35099792    0.61000001    2.76999998
   15.58166695  145.67100525    0.61000001    2.76999998
   15.58472157  145.75900269    0.63000000    2.76999998
   15.58805561  156.03500366    0.64999998    2.76999998
   15.59416676  156.03500366    0.63000000    2.76999998
   15.59833336  151.07299805    0.63000000    2.76999998
   15.60166740  150.76899719    0.63000000    2.76999998
   15.60472298  147.83900452    0.64999998    2.76999998
   15.60805607  148.39399719    0.64999998    2.76999998
   15.61027813  146.21600342    0.64999998    2.76999998
   15.61166668  151.95100403    0.64999998    2.76999998
   15.61500072  151.23599243    0.67000002    2.76999998
   15.61805534  148.70700073    0.69000000    2.76999998
   15.62138939  146.86900330    0.69000000    2.75000000
   15.62444496  148.28999329    0.69000000    2.75000000
   15.62777805  147.05999756    0.69000000    2.76999998
   15.63083363  151.52299500    0.69000000    2.75000000
   15.63694477  151.52299500    0.69000000    2.76999998
   15.64111137  148.23399353    0.67000002    2.76999998
   15.64361095  149.14399719    0.67000002    2.76999998
   15.64472198  147.25500488    0.67000002    2.76999998
   15.64805508  148.62300110    0.67000002    2.76999998
   15.65111065  155.14700317    0.64999998    2.76999998
   15.65444374  147.38099670    0.64999998    2.75000000
   15.65749931  146.85499573    0.64999998    2.75000000
   15.66083336  150.67100525    0.64999998    2.76999998
   15.66416645  144.71000671    0.64999998    2.76999998
   15.66722298  145.47300720    0.64999998    2.76999998
   15.67055607  147.05799866    0.64999998    2.76999998
   15.67361164  145.22500610    0.63000000    2.76999998
   15.68000031  145.22500610    0.63000000    2.76999998
   15.68388939  148.46499634    0.61000001    2.76999998
   15.68722248  151.43800354    0.58999997    2.76999998
   15.69055557  154.09599304    0.58999997    2.76999998
   15.69361115  153.33500671    0.61000001    2.76999998
   15.69694424  153.03700256    0.58999997    2.76999998
   15.70027733  150.60899353    0.58999997    2.76999998
   15.70333290  147.39500427    0.56999999    2.76999998
   15.70666695  149.62199402    0.56999999    2.76999998
   15.70972157  148.87600708    0.58999997    2.76999998
   15.71083355  148.57000732    0.58999997    2.76999998
   15.71333313  143.00300598    0.56999999    2.76999998
   15.71666622  148.69500732    0.56999999    2.76999998
   15.72277737  148.69500732    0.56999999    2.78999996
   15.72694397  149.02600098    0.56999999    2.76999998
   15.72999954  147.57699585    0.56999999    2.76999998
   15.73333359  148.50799561    0.56999999    2.76999998
   15.73638916  149.97500610    0.56999999    2.76999998
   15.73972225  148.72000122    0.56999999    2.76999998
   15.74305534  144.51699829    0.56999999    2.76999998
   15.74416733  154.20599365    0.56999999    2.76999998
   15.74638939  150.41400146    0.58999997    2.76999998
   15.74972248  148.50599670    0.56999999    2.76999998
   15.75305557  149.88099670    0.56999999    2.76999998
   15.75611115  146.99099731    0.58999997    2.78999996
   15.75944424  150.07400513    0.58999997    2.78999996
   15.76555538  150.07400513    0.56999999    2.78999996
   15.76972198  156.83299255    0.56999999    2.76999998
   15.77277756  152.56900024    0.58999997    2.76999998
   15.77611065  152.60899353    0.58999997    2.76999998
   15.77777767  158.49800110    0.58999997    2.76999998
   15.77972221  150.01300049    0.58999997    2.75000000
   15.78305531  147.97799683    0.58999997    2.76999998
   15.78638935  149.70199585    0.58999997    2.76999998
   15.78944492  143.30599976    0.56999999    2.76999998
   15.79277802  150.64399719    0.56999999    2.78999996
   15.79583359  143.95300293    0.58999997    2.76999998
   15.79916668  156.13099670    0.58999997    2.76999998
   15.80222225  147.69400024    0.58999997    2.76999998
   15.80833340  147.69400024    0.58999997    2.78999996
   15.81250000  152.94500732    0.61000001    2.76999998
   15.81583309  146.09100342    0.58999997    2.76999998
   15.81888866  147.87100220    0.61000001    2.76999998
   15.82222176  149.10499573    0.58999997    2.76999998
   15.82527733  151.32800293    0.58999997    2.78999996
   15.82861137  141.35000610    0.58999997    2.76999998
   15.83166695  154.80200195    0.56999999    2.76999998
   15.83500004  149.85600281    0.58999997    2.76999998
   15.83833313  152.69900513    0.56999999    2.76999998
   15.84138870  149.16600037    0.56999999    2.76999998
   15.84444427  144.32499695    0.55000001    2.78999996
   15.84499931  151.26899719    0.56999999    2.78999996
   15.85111141  151.26899719    0.55000001    2.76999998
   15.85527802  152.86799622    0.55000001    2.78999996
   15.85861111  149.21699524    0.55000001    2.78999996
   15.86194515  148.86700439    0.55000001    2.78999996
   15.86500072  144.58700562    0.55000001    2.76999998
   15.86833382  145.58299255    0.55000001    2.76999998
   15.87138939  149.09300232    0.55000001    2.76999998
   15.87472248  148.70100403    0.55000001    2.78999996
   15.87777805  155.17799377    0.52999997    2.76999998
   15.87833309  147.77000427    0.52999997    2.76999998
   15.88166714  156.39300537    0.52999997    2.76999998
   15.88472176  150.61500549    0.52999997    2.78999996
   15.88805580  152.58200073    0.52999997    2.76999998
   15.89416695  152.58200073    0.52999997    2.78999996
   15.89833355  147.31799316    0.52999997    2.78999996
   15.90138817  149.92300415    0.55000001    2.78999996
   15.90472221  150.77200317    0.55000001    2.78999996
   15.90777779  151.13699341    0.55000001    2.78999996
   15.91111088  150.18299866    0.56999999    2.76999998
   15.91138840  148.75300598    0.56999999    2.76999998
   15.91472149  148.82699585    0.56999999    2.76999998
   15.91777802  152.84199524    0.56999999    2.76999998
   15.92111111  150.23199463    0.58999997    2.76999998
   15.92444515  150.93499756    0.58999997    2.76999998
   15.92750072  155.95899963    0.58999997    2.78999996
   15.93083382  147.25399780    0.58999997    2.76999998
   15.93694496  147.25399780    0.58999997    2.76999998
   15.94111156  147.02600098    0.56999999    2.76999998
   15.94416714  150.43200684    0.56999999    2.78999996
   15.94472218  147.29200745    0.56999999    2.78999996
   15.94805527  152.65699768    0.56999999    2.76999998
   15.95111084  149.16400146    0.56999999    2.76999998
   15.95444393  144.82800293    0.56999999    2.76999998
   15.95777798  150.15800476    0.56999999    2.76999998
   15.96083355  151.24299622    0.56999999    2.76999998
   15.96416664  147.26899719    0.56999999    2.78999996
   15.96722221  149.17100525    0.56999999    2.76999998
   15.97055531  147.35400391    0.61000001    2.78999996
   15.97388840  148.19000244    0.63000000    2.76999998
   15.97972202  148.19000244    0.67000002    2.76999998
   15.98388958  145.31799316    0.64999998    2.76999998
   15.98722267  155.94799805    0.63000000    2.76999998
   15.99027824  157.24400330    0.58999997    2.78999996
   15.99361134  151.22799683    0.56999999    2.78999996
   15.99666691  150.78599548    0.56999999    2.78999996
   16.00000000  148.33200073    0.56999999    2.78999996
   16.00333405  152.97999573    0.55000001    2.78999996
   16.00638962  149.76400757    0.56999999    2.78999996
   16.00972176  148.23899841    0.56999999    2.78999996
   16.01138878  151.25399780    0.56999999    2.78999996
   16.01333427  149.94700623    0.55000001    2.76999998
   16.01638794  156.76899719    0.55000001    2.76999998
   16.02249908  156.76899719    0.55000001    2.78999996
   16.02666664  150.01499939    0.55000001    2.76999998
   16.03000069  149.41999817    0.55000001    2.76999998
   16.03333282  148.88099670    0.56999999    2.76999998
   16.03638840  156.26600647    0.56999999    2.76999998
   16.03972244  150.40699768    0.56999999    2.78999996
   16.04305458  150.06599426    0.56999999    2.76999998
   16.04472160  153.53399658    0.56999999    2.76999998
   16.04666710  152.89500427    0.56999999    2.78999996
   16.04972076  155.85099792    0.56999999    2.78999996
   16.05305481  149.01400757    0.56999999    2.76999998
   16.05638885  145.76600647    0.56999999    2.78999996
   16.05944443  152.63600159    0.58999997    2.76999998
   16.06555557  152.63600159    0.58999997    2.78999996
   16.06972313  155.27000427    0.61000001    2.78999996
   16.07277870  145.29800415    0.61000001    2.78999996
   16.07611275  149.32600403    0.58999997    2.76999998
   16.07833481  150.47900391    0.56999999    2.76999998
   16.07972336  148.74499512    0.56999999    2.76999998
   16.08305550  153.27200317    0.55000001    2.78999996
   16.08611107  149.71000671    0.55000001    2.76999998
   16.08944511  149.48699951    0.55000001    2.76999998
   16.09250069  156.23199463    0.55000001    2.76999998
   16.09583473  147.46699524    0.55000001    2.76999998
   16.09916687  155.22599792    0.55000001    2.76999998
   16.10222244  151.19400024    0.56999999    2.78999996
   16.10833359  151.19400024    0.64999998    2.76999998
   16.11250114  149.23800659    0.64999998    2.78999996
   16.11555672  152.17300415    0.64999998    2.78999996
   16.11888885  159.17500305    0.67000002    2.76999998
   16.12194443  145.49699402    0.73000002    2.78999996
   16.12527847  147.28199768    0.67000002    2.76999998
   16.12833405  147.61500549    0.64999998    2.78999996
   16.13166618  148.53799438    0.64999998    2.76999998
   16.13500023  149.83399963    0.64999998    2.76999998
   16.13805580  151.42300415    0.64999998    2.76999998
   16.14138794  152.02600098    0.63000000    2.78999996
   16.14444351  144.04600525    0.61000001    2.78999996
   16.14500046  150.58799744    0.61000001    2.78999996
   16.15111160  150.58799744    0.58999997    2.76999998
   16.15527725  148.15899658    0.58999997    2.76999998
   16.15833282  151.75700378    0.58999997    2.76999998
   16.16166687  144.90499878    0.56999999    2.78999996
   16.16499901  151.90600586    0.56999999    2.78999996
   16.16805458  145.94799805    0.58999997    2.76999998
   16.17138863  146.52000427    0.58999997    2.78999996
   16.17444420  149.76100159    0.55000001    2.78999996
   16.17777634  148.45700073    0.52999997    2.78999996
   16.17833328  150.08299255    0.52999997    2.78999996
   16.18138885  150.94900513    0.52999997    2.78999996
   16.18444443  152.44000244    0.52999997    2.78999996
   16.18777657  154.69500732    0.52999997    2.78999996
   16.19388771  154.69500732    0.52999997    2.78999996
   16.19805527  149.99400330    0.52999997    2.76999998
   16.20138931  148.55700684    0.55000001    2.78999996
   16.20444489  150.83900452    0.56999999    2.78999996
   16.20777893  145.82899475    0.56999999    2.78999996
   16.21083450  147.46000671    0.56999999    2.78999996
   16.21166801  148.20399475    0.56999999    2.76999998
   16.21444511  156.53100586    0.56999999    2.76999998
   16.21750069  151.91000366    0.61000001    2.76999998
   16.22083473  153.63200378    0.61000001    2.78999996
   16.22416687  152.15100098    0.58999997    2.76999998
   16.22722244  145.83200073    0.58999997    2.76999998
   16.23055649  150.78300476    0.58999997    2.76999998
   16.23694420  150.78300476    0.56999999    2.78999996
   16.24083328  150.49899292    0.52999997    2.78999996
   16.24416733  151.02299500    0.52999997    2.76999998
   16.24500084  154.91600037    0.52999997    2.76999998
   16.24777794  149.90100098    0.52999997    2.78999996
   16.25083351  151.49299622    0.52999997    2.76999998
   16.25416756  153.45799255    0.52999997    2.76999998
   16.25749969  154.08500671    0.51999998    2.78999996
   16.26055527  145.52699280    0.51999998    2.78999996
   16.26388931  152.24800110    0.50000000    2.78999996
   16.26694489  150.74400330    0.51999998    2.78999996
   16.27027702  154.33099365    0.51999998    2.78999996
   16.27333260  151.55799866    0.50000000    2.76999998
   16.27972221  151.55799866    0.51999998    2.78999996
   16.28388786  147.12300110    0.51999998    2.78999996
   16.28694344  144.94299316    0.50000000    2.78999996
   16.29027748  155.24499512    0.50000000    2.78999996
   16.29333305  151.67999268    0.50000000    2.78999996
   16.29666710  144.68899536    0.50000000    2.78999996
   16.29999924  144.35699463    0.50000000    2.78999996
   16.30305481  148.38800049    0.50000000    2.76999998
   16.30638885  153.65100098    0.50000000    2.76999998
   16.30944443  149.25500488    0.51999998    2.76999998
   16.31166649  148.81399536    0.50000000    2.76999998
   16.31305504  153.80599976    0.50000000    2.76999998
   16.31638718  154.58999634    0.50000000    2.76999998
   16.32250023  154.58999634    0.47999999    2.78999996
   16.32666779  150.20799255    0.47999999    2.78999996
   16.33000183  149.53700256    0.47999999    2.78999996
   16.33305550  150.84199524    0.47999999    2.78999996
   16.33638954  142.89100647    0.47999999    2.78999996
   16.33944511  152.37899780    0.47999999    2.78999996
   16.34277916  155.20700073    0.47999999    2.78999996
   16.34500122  155.73599243    0.50000000    2.78999996
   16.34638977  153.04899597    0.50000000    2.78999996
   16.34972191  149.54699707    0.51999998    2.78999996
   16.35277748  156.81199646    0.51999998    2.78999996
   16.35611153  145.66000366    0.51999998    2.76999998
   16.35916710  145.52799988    0.51999998    2.76999998
   16.38055611  145.52799988    0.51999998    2.78999996
   16.38472176  144.80000305    0.51999998    2.78999996
   16.38777733  146.80099487    0.52999997    2.78999996
   16.39111137  149.82499695    0.52999997    2.76999998
   16.39444351  148.34800720    0.55000001    2.76999998
   16.39749908  149.72900391    0.55000001    2.76999998
   16.40083313  145.58399963    0.55000001    2.78999996
   16.40388870  148.29699707    0.55000001    2.76999998
   16.40722275  147.54600525    0.61000001    2.78999996
   16.41027832  143.69900513    0.67000002    2.78999996
   16.41194344  151.45500183    0.67000002    2.78999996
   16.41388893  147.03300476    0.69000000    2.78999996
   16.41694450  151.36300659    0.69000000    2.78999996
   16.42333221  151.36300659    0.79000002    2.78999996
   16.42749977  148.81799316    0.75000000    2.76999998
   16.43055534  155.24899292    0.73000002    2.76999998
   16.43388748  148.56599426    0.75000000    2.78999996
   16.43694305  149.08399963    0.75000000    2.78999996
   16.44027710  156.17500305    0.75000000    2.78999996
   16.44333267  151.04200745    0.76999998    2.78999996
   16.44527626  152.22599792    0.69000000    2.78999996
   16.44694328  149.46800232    0.69000000    2.78999996
   16.45027924  149.94200134    0.63000000    2.78999996
   16.45333481  150.15299988    0.67000002    2.78999996
   16.45666695  159.92500305    0.64999998    2.76999998
   16.45972252  151.11300659    0.64999998    2.76999998
   16.46611214  151.11300659    0.61000001    2.76999998
   16.47027779  153.45599365    0.58999997    2.76999998
   16.47361183  148.07800293    0.56999999    2.76999998
   16.47666740  144.14599609    0.56999999    2.78999996
   16.47888947  149.33599854    0.56999999    2.78999996
   16.48027802  150.81300354    0.56999999    2.78999996
   16.48361206  154.84100342    0.56999999    2.78999996
   16.48666763  149.66200256    0.56999999    2.78999996
   16.48999977  151.01100159    0.55000001    2.76999998
   16.49333382  150.28900146    0.52999997    2.78999996
   16.49638939  148.38000488    0.52999997    2.76999998
   16.49972153  147.19200134    0.52999997    2.76999998
   16.50277710  143.64900208    0.55000001    2.76999998
   16.50888824  143.64900208    0.55000001    2.76999998
   16.51305580  148.58099365    0.55000001    2.78999996
   16.51638794  151.23599243    0.55000001    2.78999996
   16.51944351  147.41000366    0.55000001    2.78999996
   16.52277756  154.34700012    0.55000001    2.78999996
   16.52583313  153.05200195    0.55000001    2.78999996
   16.52916718  151.75599670    0.55000001    2.76999998
   16.53249931  147.47399902    0.55000001    2.76999998
   16.53555489  151.49000549    0.55000001    2.76999998
   16.53888893  148.66700745    0.55000001    2.76999998
   16.54194450  152.11900330    0.55000001    2.76999998
   16.54527664  151.02600098    0.55000001    2.76999998
   16.54583359  152.53500366    0.55000001    2.76999998
   16.55194283  152.53500366    0.52999997    2.78999996
   16.55583191  156.92900085    0.51999998    2.76999998
   16.55916595  150.62699890    0.51999998    2.78999996
   16.56250000  148.89799500    0.51999998    2.78999996
   16.56555557  149.25900269    0.51999998    2.78999996
   16.56888962  148.46899414    0.51999998    2.78999996
   16.57194519  148.67599487    0.52999997    2.78999996
   16.57527924  154.67599487    0.52999997    2.76999998
   16.57833481  152.98100281    0.52999997    2.76999998
   16.57916832  150.49200439    0.52999997    2.76999998
   16.58194542  148.47799683    0.52999997    2.76999998
   16.58527756  151.20500183    0.51999998    2.78999996
   16.58833313  149.60800171    0.52999997    2.78999996
   16.59472275  149.60800171    0.52999997    2.76999998
   16.59889030  147.73800659    0.51999998    2.78999996
   16.60194397  152.59100342    0.52999997    2.78999996
   16.60527802  145.16600037    0.52999997    2.78999996
   16.60833359  148.04499817    0.51999998    2.78999996
   16.61166763  149.67700195    0.50000000    2.78999996
   16.61250114  147.37500000    0.50000000    2.78999996
   16.61527824  146.79600525    0.50000000    2.78999996
   16.61861038  156.24400330    0.50000000    2.76999998
   16.62166595  156.68899536    0.52999997    2.78999996
   16.62500000  153.81900024    0.52999997    2.78999996
   16.62833405  149.71200562    0.50000000    2.78999996
   16.63138962  154.06500244    0.50000000    2.76999998
   16.63750076  154.06500244    0.51999998    2.78999996
   16.64166641  150.49499512    0.51999998    2.76999998
   16.64500046  147.33999634    0.51999998    2.76999998
   16.64583397  148.31900024    0.51999998    2.76999998
   16.64833260  147.22900391    0.51999998    2.76999998
   16.65166664  143.71200562    0.52999997    2.76999998
   16.65499878  145.96000671    0.52999997    2.76999998
   16.65805435  146.44099426    0.51999998    2.78999996
   16.66138840  155.08999634    0.52999997    2.78999996
   16.66444397  145.64999390    0.52999997    2.78999996
   16.66777802  152.66400146    0.55000001    2.76999998
   16.67083359  149.76600647    0.55000001    2.76999998
   16.67416573  151.95599365    0.55000001    2.76999998
   16.68027687  151.95599365    0.55000001    2.78999996
   16.68444443  147.84800720    0.52999997    2.78999996
   16.68777657  147.73500061    0.51999998    2.78999996
   16.69083214  145.96699524    0.52999997    2.78999996
   16.69416618  154.33700562    0.52999997    2.78999996
   16.69722176  145.55599976    0.52999997    2.78999996
   16.70055580  142.93499756    0.52999997    2.78999996
   16.70388985  150.52999878    0.52999997    2.78999996
   16.70694542  142.50999451    0.55000001    2.78999996
   16.71027946  145.51499939    0.56999999    2.78999996
   16.71250153  145.91900635    0.55000001    2.78999996
   16.71361160  148.10699463    0.55000001    2.76999998
   16.71694565  150.46499634    0.55000001    2.76999998
   16.72333336  150.46499634    0.52999997    2.78999996
   16.72722244  155.22700500    0.52999997    2.78999996
   16.73055649  149.95300293    0.52999997    2.76999998
   16.73361206  146.07299805    0.52999997    2.78999996
   16.73694420  148.48399353    0.52999997    2.78999996
   16.74027824  150.36999512    0.52999997    2.76999998
   16.74333382  150.88900757    0.52999997    2.76999998
   16.74583435  152.51400757    0.52999997    2.78999996
   16.74694443  148.11000061    0.55000001    2.78999996
   16.75027847  145.86700439    0.63000000    2.78999996
   16.75361061  154.35200500    0.63000000    2.76999998
   16.75666618  151.17500305    0.63000000    2.76999998
   16.76000023  148.94500732    0.63000000    2.76999998
   16.76611137  148.94500732    0.61000001    2.78999996
   16.77027702  148.62899780    0.64999998    2.78999996
   16.77333260  149.07800293    0.63000000    2.78999996
   16.77666664  156.12600708    0.64999998    2.76999998
   16.77916718  145.84100342    0.64999998    2.76999998
   16.78000069  148.60200500    0.64999998    2.78999996
   16.78333282  145.81799316    0.64999998    2.78999996
   16.78666687  149.19099426    0.69000000    2.76999998
   16.78972244  141.41299438    0.69000000    2.76999998
   16.79305458  144.40800476    0.69000000    2.78999996
   16.79611015  150.15600586    0.70999998    2.78999996
   16.79944420  151.67599487    0.70999998    2.78999996
   16.80249977  147.75500488    0.73000002    2.76999998
   16.80888748  147.75500488    0.76999998    2.76999998
   16.81305504  150.76600647    0.76999998    2.76999998
   16.81638718  148.29100037    0.75000000    2.76999998
   16.81944466  147.80599976    0.73000002    2.76999998
   16.82277870  154.14900208    0.73000002    2.76999998
   16.82583427  157.89399719    0.73000002    2.76999998
   16.82916832  154.19000244    0.69000000    2.78999996
   16.83222389  149.12699890    0.67000002    2.78999996
   16.83555603  150.29299927    0.67000002    2.78999996
   16.83861160  147.44900513    0.67000002    2.78999996
   16.84194565  147.06900024    0.67000002    2.78999996
   16.84527779  149.38200378    0.67000002    2.76999998
   16.84583473  150.25799561    0.67000002    2.76999998
   16.85166740  150.25799561    0.67000002    2.76999998
   16.85583305  146.70899963    0.69000000    2.76999998
   16.85916710  146.36199951    0.69000000    2.78999996
   16.86222267  146.92399597    0.67000002    2.78999996
   16.86555672  148.98599243    0.67000002    2.78999996
   16.86861038  148.75500488    0.64999998    2.78999996
   16.87194443  145.44799805    0.64999998    2.78999996
   16.87527847  149.95599365    0.63000000    2.76999998
   16.87833405  147.38999939    0.61000001    2.76999998
   16.87916756  148.97700500    0.61000001    2.76999998
   16.88194466  151.43800354    0.63000000    2.76999998
   16.88527679  153.29699707    0.63000000    2.76999998
   16.88861084  146.08799744    0.63000000    2.78999996
   16.89472198  146.08799744    0.63000000    2.76999998
   16.89861107  151.28599548    0.61000001    2.78999996
   16.90194321  153.76199341    0.61000001    2.78999996
   16.90527725  144.77600098    0.58999997    2.76999998
   16.90833282  152.86199951    0.58999997    2.76999998
   16.91166687  148.23599243    0.58999997    2.76999998
   16.91250038  150.65699768    0.58999997    2.76999998
   16.91499901  149.57899475    0.58999997    2.76999998
   16.91833305  155.50100708    0.58999997    2.76999998
   16.92166519  149.53599548    0.58999997    2.78999996
   16.92472076  148.65199280    0.56999999    2.78999996
   16.92805481  152.56100464    0.55000001    2.76999998
   16.93111038  147.07499695    0.51999998    2.78999996
   16.93750000  147.07499695    0.47999999    2.78999996
   16.94166565  150.48399353    0.47999999    2.78999996
   16.94472122  153.06500244    0.51999998    2.76999998
   16.94583321  149.99800110    0.51999998    2.76999998
   16.94833183  153.25000000    0.52999997    2.78999996
   16.95166779  148.05599976    0.52999997    2.76999998
   16.95499992  156.49499512    0.56999999    2.76999998
   16.95805550  145.52999878    0.58999997    2.78999996
   16.96138954  152.01800537    0.58999997    2.78999996
   16.96444511  148.23100281    0.61000001    2.76999998
   16.96777916  147.78700256    0.61000001    2.78999996
   16.97111130  151.89799500    0.61000001    2.78999996
   16.97416687  150.26699829    0.61000001    2.78999996
   16.98027802  150.26699829    0.61000001    2.76999998
   16.98444557  146.24699402    0.58999997    2.76999998
   16.98777771  146.64700317    0.58999997    2.78999996
   16.99083328  152.72900391    0.58999997    2.78999996
   16.99416733  148.35600281    0.61000001    2.76999998
   16.99722290  149.29200745    0.58999997    2.76999998
   17.00055504  145.82400513    0.58999997    2.78999996
   17.00361061  148.07400513    0.56999999    2.78999996
   17.00694466  144.34100342    0.56999999    2.78999996
   17.01027870  147.38800049    0.56999999    2.78999996
   17.01250076  151.36199951    0.56999999    2.78999996
   17.01388931  153.55599976    0.56999999    2.76999998
   17.01694489  150.19799805    0.58999997    2.78999996
   17.02305603  150.19799805    0.58999997    2.76999998
   17.02722168  145.73300171    0.63000000    2.76999998
   17.03055573  148.27799988    0.63000000    2.76999998
   17.03361130  147.82000732    0.64999998    2.76999998
   17.03694344  148.80700684    0.67000002    2.76999998
   17.03999901  143.34599304    0.69000000    2.78999996
   17.04333305  148.30099487    0.69000000    2.78999996
   17.04583359  151.92999268    0.73000002    2.76999998
   17.04694366  147.13800049    0.73000002    2.76999998
   17.04999924  152.22799683    0.75000000    2.78999996
   17.05333328  146.98199463    0.75000000    2.76999998
   17.05638885  151.88299561    0.75000000    2.76999998
   17.05972099  147.16700745    0.75000000    2.76999998
   17.06611061  147.16700745    0.76999998    2.76999998
   17.07000160  151.36700439    0.69000000    2.76999998
   17.07333374  157.74899292    0.64999998    2.76999998
   17.07666779  150.78599548    0.64999998    2.78999996
   17.07916832  152.85600281    0.63000000    2.76999998
   17.08027840  144.64900208    0.63000000    2.76999998
   17.08361244  149.51400757    0.58999997    2.76999998
   17.08666801  147.42300415    0.56999999    2.78999996
   17.09000015  150.55499268    0.56999999    2.78999996
   17.09305573  150.61799622    0.58999997    2.78999996
   17.09638977  148.93499756    0.56999999    2.78999996
   17.09972191  148.23199463    0.63000000    2.76999998
   17.10277748  147.08200073    0.69000000    2.76999998
   17.10888863  147.08200073    0.67000002    2.78999996
   17.11305618  149.18200684    0.67000002    2.78999996
   17.11611176  147.01199341    0.70999998    2.76999998
   17.11944389  142.92100525    0.70999998    2.76999998
   17.12249947  146.52400208    0.69000000    2.78999996
   17.12583351  146.05599976    0.69000000    2.78999996
   17.12916756  147.32400513    0.67000002    2.78999996
   17.13222313  146.41299438    0.67000002    2.78999996
   17.13555527  149.15899658    0.64999998    2.76999998
   17.13888931  144.29600525    0.64999998    2.76999998
   17.14194489  144.20799255    0.63000000    2.76999998
   17.14527702  146.78399658    0.61000001    2.78999996
   17.14583397  148.29400635    0.61000001    2.78999996
   17.15166664  148.29400635    0.61000001    2.76999998
   17.15583229  149.46499634    0.61000001    2.78999996
   17.15888786  143.62300110    0.61000001    2.78999996
   17.16222191  152.16400146    0.61000001    2.78999996
   17.16555595  150.27200317    0.58999997    2.76999998
   17.16860962  147.04299927    0.58999997    2.76999998
   17.17194366  150.40600586    0.58999997    2.76999998
   17.17499924  149.40199280    0.58999997    2.76999998
   17.17833328  145.65100098    0.61000001    2.78999996
   17.17916679  149.23599243    0.61000001    2.78999996
   17.18194389  150.24499512    0.58999997    2.78999996
   17.18499947  150.20500183    0.58999997    2.78999996
   17.18833160  154.94099426    0.56999999    2.78999996
   17.19444275  154.94099426    0.56999999    2.78999996
   17.19861031  148.25599670    0.55000001    2.78999996
   17.20194435  149.98599243    0.55000001    2.76999998
   17.20499992  148.60000610    0.52999997    2.76999998
   17.20833397  147.27200317    0.55000001    2.78999996
   17.21166801  148.46299744    0.55000001    2.78999996
   17.21250153  148.53199768    0.55000001    2.78999996
   17.21527863  141.90199280    0.55000001    2.78999996
   17.21833420  151.93400574    0.55000001    2.78999996
   17.22166634  147.54100037    0.50000000    2.78999996
   17.22472191  149.16000366    0.47999999    2.76999998
   17.22805595  147.89799500    0.50000000    2.76999998
   17.23139000  148.16200256    0.51999998    2.76999998
   17.23750114  148.16200256    0.51999998    2.75000000
   17.24138832  123.60900116    0.51999998    2.78999996
   17.24472237  144.59100342    0.56999999    2.78999996
   17.24583435  146.93499756    0.56999999    2.78999996
   17.24833298  142.32800293    0.88000000    2.78999996
   17.25138855  150.77799988    0.61000001    2.76999998
   17.25472260  148.35499573    0.61000001    2.78999996
   17.25777817  150.48599243    0.61000001    2.78999996
   17.26111031  140.70300293    0.55000001    2.78999996
   17.26444435  152.20199585    0.52999997    2.78999996
   17.26749992  152.22799683    0.51999998    2.78999996
   17.27083397  144.23399353    0.51999998    2.78999996
   17.27388954  150.44099426    0.51999998    2.78999996
   17.28027725  150.44099426    0.51999998    2.78999996
   17.28444481  148.24400330    0.51999998    2.78999996
   17.28750038  152.52400208    0.51999998    2.78999996
   17.29083252  144.06199646    0.51999998    2.78999996
   17.29388809  149.96400452    0.51999998    2.76999998
   17.29722214  147.27799988    0.52999997    2.76999998
   17.30055428  146.37600708    0.52999997    2.76999998
   17.30360985  148.96200562    0.52999997    2.78999996
   17.30694389  145.37300110    0.52999997    2.76999998
   17.30999947  149.47300720    0.51999998    2.78999996
   17.31250000  149.56100464    0.51999998    2.78999996
   17.31361008  149.34700012    0.51999998    2.78999996
   17.31666756  146.13000488    0.51999998    2.78999996
   17.32305717  146.13000488    0.50000000    2.78999996
   17.32722282  148.85299683    0.47999999    2.78999996
   17.33055687  140.93899536    0.47999999    2.76999998
   17.33361244  142.67399597    0.47999999    2.78999996
   17.33694458  142.36599731    0.47999999    2.76999998
   17.34000015  146.45899963    0.47999999    2.76999998
   17.34333420  148.35400391    0.47999999    2.76999998
   17.34583473  149.12100220    0.47999999    2.76999998
   17.34694481  147.61999512    0.47999999    2.76999998
   17.35000038  147.56599426    0.47999999    2.76999998
   17.35333443  149.52400208    0.47999999    2.78999996
   17.35639000  151.34500122    0.50000000    2.76999998
   17.35972214  151.69900513    0.52999997    2.78999996
   17.36583328  151.69900513    0.51999998    2.78999996
   17.37000084  152.71099854    0.52999997    2.76999998
   17.37333298  149.20899963    0.52999997    2.76999998
   17.37638855  148.03399658    0.55000001    2.78999996
   17.39416695  154.27999878    0.63000000    2.76999998
   17.39611053  152.92599487    0.63000000    2.76999998
   17.39944458  147.72399902    0.63000000    2.76999998
   17.40250015  149.22599792    0.63000000    2.78999996
   17.40888786  149.22599792    0.64999998    2.76999998
   17.41305542  146.81399536    0.64999998    2.76999998
   17.41638756  144.62399292    0.64999998    2.76999998
   17.41944313  143.27099609    0.64999998    2.76999998
   17.42277718  149.44299316    0.64999998    2.78999996
   17.42583275  142.85400391    0.64999998    2.78999996
   17.42722130  146.80099487    0.63000000    2.78999996
   17.42944336  144.80000305    0.63000000    2.78999996
   17.43277740  149.23100281    0.63000000    2.76999998
   17.43583298  147.68099976    0.63000000    2.76999998
   17.43916512  138.77000427    0.61000001    2.76999998
   17.44222069  149.12300110    0.63000000    2.78999996
   17.44555473  143.58500671    0.63000000    2.78999996
   17.45166779  143.58500671    0.61000001    2.76999998
   17.45583344  151.19599915    0.58999997    2.76999998
   17.45916748  151.39399719    0.58999997    2.78999996
   17.46055603  148.93899536    0.58999997    2.78999996
   17.46277809  150.86300659    0.61000001    2.76999998
   17.46611214  146.78700256    0.63000000    2.76999998
   17.46916771  152.77000427    0.64999998    2.76999998
   17.47249985  143.44599915    0.64999998    2.76999998
   17.47555542  147.61799622    0.64999998    2.76999998
   17.47888947  150.86999512    0.69000000    2.76999998
   17.48222351  147.29800415    0.69000000    2.76999998
   17.48527718  145.03199768    0.69000000    2.76999998
   17.48861122  149.44200134    0.69000000    2.76999998
   17.49472237  149.44200134    0.69000000    2.76999998
   17.49861145  146.92399597    0.67000002    2.76999998
   17.50194359  143.53999329    0.67000002    2.76999998
   17.50527763  148.11099243    0.67000002    2.76999998
   17.50833321  143.31100464    0.67000002    2.76999998
   17.51166725  144.64399719    0.67000002    2.76999998
   17.51472282  142.09599304    0.64999998    2.76999998
   17.51805496  146.71099854    0.61000001    2.78999996
   17.52111053  147.59199524    0.61000001    2.78999996
   17.52444458  147.83999634    0.61000001    2.76999998
   17.52722168  148.69599915    0.61000001    2.78999996
   17.52805519  146.30900574    0.61000001    2.78999996
   17.53138924  147.15400696    0.61000001    2.76999998
   17.53750038  147.15400696    0.58999997    2.76999998
   17.54166603  142.09300232    0.56999999    2.76999998
   17.54472160  144.94099426    0.56999999    2.76999998
   17.54805565  148.47900391    0.56999999    2.76999998
   17.55111122  144.55999756    0.56999999    2.78999996
   17.55444336  145.39599609    0.56999999    2.76999998
   17.55749893  149.67599487    0.56999999    2.78999996
   17.56055450  149.84899902    0.56999999    2.78999996
   17.56110954  146.28900146    0.56999999    2.76999998
   17.56444359  153.47200012    0.55000001    2.76999998
   17.56777954  143.65199280    0.55000001    2.76999998
   17.57083511  150.73500061    0.55000001    2.76999998
   17.57416725  149.31300354    0.55000001    2.76999998
   17.58027840  149.31300354    0.52999997    2.78999996
   17.58444595  146.15100098    0.52999997    2.76999998
   17.58750153  149.96800232    0.52999997    2.76999998
   17.59083366  149.39999390    0.51999998    2.76999998
   17.59388924  148.89199829    0.52999997    2.76999998
   17.59444427  152.62899780    0.52999997    2.76999998
   17.59777832  142.18400574    0.55000001    2.76999998
   17.60083389  143.61700439    0.55000001    2.76999998
   17.60416794  145.99099731    0.55000001    2.76999998
   17.60722351  151.20199585    0.55000001    2.76999998
   17.61055565  152.30200195    0.58999997    2.76999998
   17.61388969  149.22099304    0.58999997    2.76999998
   17.61694527  145.66900635    0.56999999    2.76999998
   17.62305641  145.66900635    0.56999999    2.76999998
   17.62722206  142.41700745    0.56999999    2.76999998
   17.62777710  146.09500122    0.56999999    2.76999998
   17.63111115  141.27799988    0.56999999    2.76999998
   17.63416672  150.79499817    0.55000001    2.76999998
   17.63750076  150.46600342    0.55000001    2.76999998
   17.64055634  147.12300110    0.52999997    2.76999998
   17.64388847  145.32000732    0.52999997    2.76999998
   17.64694405  147.80499268    0.55000001    2.76999998
   17.65027809  148.03199768    0.55000001    2.76999998
   17.65361023  147.91600037    0.52999997    2.76999998
   17.65666580  147.15199280    0.52999997    2.76999998
   17.65999985  145.50199890    0.52999997    2.76999998
   17.66110992  147.74299622    0.52999997    2.76999998
   17.66611099  147.74299622    0.56999999    2.76999998
   17.67000008  150.45100403    0.63000000    2.78999996
   17.67333221  149.13600159    0.63000000    2.76999998
   17.67666626  146.81399536    0.63000000    2.76999998
   17.67972183  146.52299500    0.63000000    2.76999998
   17.68305397  148.58099365    0.63000000    2.76999998
   17.68610954  148.57000732    0.63000000    2.76999998
   17.68944359  149.41799927    0.63000000    2.76999998
   17.69249916  149.34300232    0.64999998    2.75000000
   17.69444275  145.29400635    0.64999998    2.75000000
   17.69638824  149.24000549    0.64999998    2.76999998
   17.69944382  147.28999329    0.64999998    2.76999998
   17.70277786  147.62699890    0.64999998    2.76999998
   17.70888901  147.62699890    0.67000002    2.78999996
   17.71305656  148.65899658    0.64999998    2.76999998
   17.71611214  148.19999695    0.64999998    2.76999998
   17.71944427  148.91000366    0.67000002    2.76999998
   17.72249985  148.72799683    0.67000002    2.76999998
   17.72583389  150.65499878    0.64999998    2.76999998
   17.72777748  151.03300476    0.64999998    2.76999998
   17.72944450  145.21600342    0.64999998    2.76999998
   17.73250008  146.05900574    0.64999998    2.76999998
   17.73583412  150.16400146    0.63000000    2.76999998
   17.73888969  150.47500610    0.63000000    2.75000000
   17.74222183  147.50500488    0.61000001    2.76999998
   17.74527740  153.08200073    0.58999997    2.76999998
   17.75166702  153.08200073    0.58999997    2.76999998
   17.75583267  146.62600708    0.58999997    2.76999998
   17.75888824  146.05999756    0.56999999    2.76999998
   17.76111031  144.83099365    0.56999999    2.76999998
   17.76277733  150.72200012    0.56999999    2.76999998
   17.76583290  140.78399658    0.58999997    2.76999998
   17.76916695  149.61599731    0.61000001    2.76999998
   17.77222252  148.39100647    0.61000001    2.76999998
   17.77555466  147.49800110    0.61000001    2.76999998
   17.77861023  149.41299438    0.58999997    2.76999998
   17.78194427  143.97500610    0.56999999    2.75000000
   17.78527641  155.15899658    0.56999999    2.76999998
   17.78833199  142.85400391    0.55000001    2.76999998
   17.79444313  142.85400391    0.52999997    2.75000000
   17.79861069  152.40600586    0.52999997    2.76999998
   17.80194283  147.06300354    0.51999998    2.76999998
   17.80499840  152.42100525    0.51999998    2.76999998
   17.80833244  146.16999817    0.51999998    2.76999998
   17.81138802  144.75100708    0.52999997    2.76999998
   17.81472206  144.25399780    0.52999997    2.76999998
   17.81805611  142.67199707    0.51999998    2.76999998
   17.82111168  148.75500488    0.51999998    2.76999998
   17.82444572  148.11799622    0.51999998    2.76999998
   17.82750130  149.81300354    0.51999998    2.76999998
   17.82805634  147.18699646    0.51999998    2.76999998
   17.83139038  143.10099792    0.51999998    2.76999998
   17.83750153  143.10099792    0.51999998    2.76999998
   17.84166718  144.10099792    0.51999998    2.76999998
   17.84472275  140.85699463    0.50000000    2.76999998
   17.84805679  147.22599792    0.50000000    2.76999998
   17.85111237  150.36900330    0.51999998    2.76999998
   17.85444450  152.17500305    0.52999997    2.76999998
   17.85750008  148.32600403    0.52999997    2.76999998
   17.86083412  144.13699341    0.52999997    2.76999998
   17.86138916  147.26400757    0.52999997    2.76999998
   17.86444473  142.11399841    0.56999999    2.75000000
   17.86750031  147.46600342    0.61000001    2.75000000
   17.87083435  144.68099976    0.61000001    2.75000000
   17.87388992  148.68699646    0.61000001    2.76999998
   17.88027763  148.68699646    0.64999998    2.75000000
   17.88444519  153.64799500    0.64999998    2.75000000
   17.88750076  145.26499939    0.69000000    2.75000000
   17.89083290  151.64799500    0.70999998    2.75000000
   17.89416695  144.70799255    0.70999998    2.75000000
   17.89472198  148.13200378    0.70999998    2.75000000
   17.89777756  147.95899963    0.73000002    2.75000000
   17.90083313  146.34100342    0.69000000    2.75000000
   17.90416718  145.71000671    0.69000000    2.75000000
   17.90722275  143.03199768    0.63000000    2.75000000
   17.91055489  142.72000122    0.61000001    2.75000000
   17.91388893  148.61900330    0.61000001    2.76999998
   17.91694450  143.19700623    0.58999997    2.75000000
   17.92305565  143.19700623    0.58999997    2.76999998
   17.92722130  146.15400696    0.58999997    2.78999996
   17.92805481  142.96499634    0.58999997    2.78999996
   17.93083191  146.79600525    0.61000001    2.75000000
   17.93388748  150.49000549    0.64999998    2.75000000
   17.93722153  138.82699585    0.63000000    2.76999998
   17.94027710  140.99299622    0.64999998    2.75000000
   17.94361115  139.11900330    0.64999998    2.76999998
   17.94694328  144.61000061    0.64999998    2.76999998
   17.95000076  143.37699890    0.63000000    2.76999998
   17.95333481  137.10499573    0.63000000    2.76999998
   17.95694542  148.34300232    0.61000001    2.76999998
   17.96000099  145.46200562    0.63000000    2.75000000
   17.96138954  145.84700012    0.63000000    2.75000000
   17.96611214  145.84700012    0.63000000    2.76999998
   17.97027779  154.71899414    0.61000001    2.75000000
   17.97333336  147.24600220    0.61000001    2.75000000
   17.97666740  148.09700012    0.58999997    2.76999998
   17.98000145  143.72999573    0.56999999    2.76999998
   17.98305511  148.40499878    0.56999999    2.76999998
   17.98638916  147.70700073    0.56999999    2.75000000
   17.98972321  142.15100098    0.56999999    2.75000000
   17.99277878  148.65600586    0.56999999    2.75000000
   17.99472237  148.21800232    0.55000001    2.75000000
   17.99638939  144.84800720    0.55000001    2.75000000
   17.99944496  147.46800232    0.56999999    2.75000000
   18.00277710  149.96800232    0.56999999    2.76999998
   18.00888824  149.96800232    0.58999997    2.75000000
   18.01305580  144.47099304    0.58999997    2.75000000
   18.01611137  151.57699585    0.58999997    2.75000000
   18.01944351  147.17199707    0.63000000    2.76999998
   18.02249908  154.26600647    0.63000000    2.75000000
   18.02583313  149.87500000    0.63000000    2.75000000
   18.02805519  143.87100220    0.63000000    2.75000000
   18.02944374  149.18800354    0.63000000    2.75000000
   18.03249931  148.22799683    0.63000000    2.75000000
   18.03583336  142.47900391    0.63000000    2.75000000
   18.03888893  146.72900391    0.63000000    2.75000000
   18.04222107  144.99299622    0.64999998    2.75000000
   18.04555511  144.37300110    0.63000000    2.76999998
   18.05166626  144.37300110    0.63000000    2.76999998
   18.05583191  142.40499878    0.63000000    2.76999998
   18.05888748  148.73100281    0.63000000    2.76999998
   18.06138802  145.61199951    0.63000000    2.75000000
   18.06277657  152.40199280    0.63000000    2.75000000
   18.06583214  146.56300354    0.63000000    2.75000000
   18.06916809  141.67300415    0.63000000    2.75000000
   18.07222366  147.43699646    0.61000001    2.75000000
   18.07555580  142.34399414    0.61000001    2.75000000
   18.07888985  149.07400513    0.61000001    2.75000000
   18.08194542  148.68800354    0.61000001    2.75000000
   18.08527756  139.25399780    0.61000001    2.75000000
   18.08833313  143.31700134    0.61000001    2.75000000
   18.09444427  143.31700134    0.61000001    2.75000000
   18.09861183  141.22300720    0.61000001    2.75000000
   18.10194397  141.61599731    0.61000001    2.75000000
   18.10499954  144.68800354    0.61000001    2.76999998
   18.10833359  144.75000000    0.61000001    2.75000000
   18.11138916  150.35099792    0.61000001    2.75000000
   18.11472321  144.53300476    0.61000001    2.76999998
   18.11805534  143.17500305    0.61000001    2.75000000
   18.12111092  151.10800171    0.61000001    2.75000000
   18.12444496  149.68499756    0.61000001    2.76999998
   18.12750053  147.11000061    0.61000001    2.75000000
   18.12944412  155.94200134    0.61000001    2.75000000
   18.13111115  141.07099915    0.61000001    2.75000000
   18.13722229  141.07099915    0.61000001    2.75000000
   18.14138794  147.66299438    0.58999997    2.75000000
   18.14472198  141.19799805    0.58999997    2.75000000
   18.14777756  143.96000671    0.58999997    2.75000000
   18.15111160  144.19999695    0.58999997    2.75000000
   18.15444374  149.21499634    0.61000001    2.75000000
   18.15749931  145.72700500    0.61000001    2.75000000
   18.16083336  143.70100403    0.61000001    2.75000000
   18.16277695  146.65299988    0.61000001    2.75000000
   18.16444397  149.22300720    0.61000001    2.75000000
   18.16749954  146.41299438    0.58999997    2.76999998
   18.17083359  148.89500427    0.58999997    2.76999998
   18.17416573  144.89300537    0.58999997    2.75000000
   18.18027687  144.89300537    0.58999997    2.75000000
   18.18444443  149.91299438    0.58999997    2.75000000
   18.18777657  146.29299927    0.58999997    2.75000000
   18.19111061  149.97399902    0.58999997    2.75000000
   18.19444275  147.07499695    0.58999997    2.75000000
   18.19638824  151.58900452    0.58999997    2.75000000
   18.19805527  149.70199585    0.58999997    2.75000000
   18.20111275  153.05099487    0.58999997    2.75000000
   18.20444489  148.46400452    0.58999997    2.75000000
   18.20777893  150.21299744    0.58999997    2.75000000
   18.21083450  146.15899658    0.58999997    2.75000000
   18.21416664  149.66900635    0.58999997    2.75000000
   18.21722221  149.49600220    0.58999997    2.75000000
   18.22305679  149.49600220    0.58999997    2.76999998
   18.22722244  147.91099548    0.58999997    2.75000000
   18.22972298  148.52400208    0.58999997    2.75000000
   18.23083305  142.02099609    0.58999997    2.75000000
   18.23388863  141.61799622    0.58999997    2.75000000
   18.23722267  143.05299377    0.58999997    2.75000000
   18.24027824  141.51699829    0.58999997    2.75000000
   18.24361229  149.43800354    0.58999997    2.75000000
   18.24694443  143.72399902    0.58999997    2.75000000
   18.25000000  150.35000610    0.58999997    2.75000000
   18.25333405  149.82000732    0.58999997    2.75000000
   18.25638962  147.11000061    0.61000001    2.75000000
   18.25972176  153.43899536    0.61000001    2.75000000
   18.26583290  153.43899536    0.61000001    2.75000000
   18.27000046  149.65299988    0.58999997    2.75000000
   18.27333260  149.95100403    0.58999997    2.75000000
   18.27638817  150.41999817    0.58999997    2.75000000
   18.27972221  148.36900330    0.58999997    2.75000000
   18.28277779  147.67799377    0.58999997    2.75000000
   18.28610992  147.36599731    0.58999997    2.75000000
   18.28944397  143.85400391    0.58999997    2.75000000
   18.29249954  144.73199463    0.58999997    2.75000000
   18.29583359  142.33000183    0.58999997    2.75000000
   18.29666710  145.83000183    0.58999997    2.75000000
   18.29916573  143.96400452    0.58999997    2.73000002
   18.30249977  140.51499939    0.58999997    2.75000000
   18.30861092  140.51499939    0.58999997    2.75000000
   18.31277657  147.50000000    0.58999997    2.75000000
   18.31611061  145.03599548    0.58999997    2.75000000
   18.31916809  148.08200073    0.58999997    2.75000000
   18.32250023  151.39100647    0.58999997    2.75000000
   18.32583427  150.92900085    0.56999999    2.75000000
   18.32888985  145.02600098    0.56999999    2.75000000
   18.33000183  141.07899475    0.56999999    2.75000000
   18.33250046  140.19200134    0.56999999    2.75000000
   18.33583450  152.26199341    0.58999997    2.75000000
   18.33889008  153.29100037    0.58999997    2.75000000
   18.34222221  148.14300537    0.61000001    2.75000000
   18.34527779  148.45399475    0.61000001    2.75000000
   18.35166740  148.45399475    0.63000000    2.75000000
   18.35555649  147.53199768    0.63000000    2.73000002
   18.35888863  153.13400269    0.63000000    2.75000000
   18.36222267  150.39900208    0.64999998    2.75000000
   18.36361122  155.91200256    0.64999998    2.75000000
   18.36583328  145.02400208    0.63000000    2.75000000
   18.36888885  143.95700073    0.63000000    2.75000000
   18.37222290  146.79600525    0.64999998    2.75000000
   18.37555504  145.84300232    0.63000000    2.73000002
   18.37861061  145.75700378    0.63000000    2.73000002
   18.38194466  147.50199890    0.64999998    2.75000000
   18.38500023  143.75000000    0.63000000    2.75000000
   18.38833237  147.10699463    0.63000000    2.75000000
   18.39444351  147.10699463    0.63000000    2.73000002
   18.41277695  146.78300476    0.63000000    2.75000000
   18.41611099  136.94799805    0.63000000    2.75000000
   18.41916656  152.18299866    0.64999998    2.73000002
   18.42249870  147.90400696    0.64999998    2.73000002
   18.42555428  152.55799866    0.64999998    2.73000002
   18.42888832  154.34300232    0.64999998    2.73000002
   18.43222237  146.76400757    0.64999998    2.75000000
   18.43750000  146.76400757    0.67000002    2.73000002
   18.44166565  148.82000732    0.64999998    2.73000002
   18.44472122  143.04400635    0.64999998    2.73000002
   18.44583321  140.51499939    0.64999998    2.73000002
   18.44861031  134.56700134    0.63000000    2.75000000
   18.45166779  142.41299438    0.63000000    2.75000000
   18.45499992  149.66900635    0.63000000    2.75000000
   18.45805550  144.12399292    0.63000000    2.73000002
   18.46138954  145.92199707    0.64999998    2.75000000
   18.46444511  148.86300659    0.64999998    2.73000002
   18.46777916  142.40299988    0.64999998    2.73000002
   18.47111130  147.67700195    0.64999998    2.73000002
   18.47416687  146.11300659    0.67000002    2.75000000
   18.48027802  146.11300659    0.67000002    2.75000000
   18.48444557  142.58299255    0.67000002    2.73000002
   18.48777771  144.30000305    0.67000002    2.75000000
   18.49083328  148.39500427    0.67000002    2.73000002
   18.49416733  144.29899597    0.67000002    2.73000002
   18.49722290  145.17500305    0.67000002    2.73000002
   18.50055504  147.83000183    0.67000002    2.73000002
   18.50388908  142.34399414    0.69000000    2.75000000
   18.50694466  148.64300537    0.69000000    2.73000002
   18.51027870  149.24600220    0.67000002    2.73000002
   18.51250076  147.94799805    0.67000002    2.73000002
   18.51388931  151.62399292    0.67000002    2.73000002
   18.51694489  143.04100037    0.67000002    2.73000002
   18.52333260  143.04100037    0.67000002    2.73000002
   18.52722168  144.27499390    0.67000002    2.73000002
   18.53055573  146.10400391    0.67000002    2.73000002
   18.53361130  145.40299988    0.67000002    2.75000000
   18.53694344  146.05200195    0.69000000    2.75000000
   18.54027748  147.50100708    0.69000000    2.73000002
   18.54333305  148.90899658    0.69000000    2.73000002
   18.54583359  150.78599548    0.69000000    2.73000002
   18.54694366  152.72599792    0.69000000    2.73000002
   18.54999924  147.01800537    0.69000000    2.73000002
   18.55333328  152.17799377    0.69000000    2.73000002
   18.55638885  148.51600647    0.70999998    2.73000002
   18.55972099  154.24600220    0.70999998    2.73000002
   18.56611061  154.24600220    0.69000000    2.75000000
   18.57027817  146.69900513    0.70999998    2.73000002
   18.57333374  148.05200195    0.70999998    2.73000002
   18.57666779  148.08700562    0.70999998    2.73000002
   18.57916832  145.83999634    0.70999998    2.75000000
   18.58027840  147.13900757    0.70999998    2.75000000
   18.58333397  149.21400452    0.73000002    2.73000002
   18.58666801  148.91000366    0.75000000    2.73000002
   18.59000015  148.22399902    0.75000000    2.73000002
   18.59305573  146.47000122    0.75000000    2.73000002
   18.59638977  147.38200378    0.75000000    2.73000002
   18.59944534  150.79499817    0.76999998    2.73000002
   18.60277748  142.10499573    0.75000000    2.73000002
   18.60888863  142.10499573    0.75000000    2.73000002
   18.61305618  149.95100403    0.75000000    2.71000004
   18.61638832  147.70599365    0.73000002    2.73000002
   18.61944389  146.96299744    0.73000002    2.73000002
   18.62277794  147.28799438    0.75000000    2.73000002
   18.62583351  151.32400513    0.75000000    2.73000002
   18.62916756  148.91600037    0.76999998    2.73000002
   18.63222313  145.43699646    0.76999998    2.73000002
   18.63555527  143.81500244    0.76999998    2.73000002
   18.63888931  142.50399780    0.76999998    2.73000002
   18.64194489  149.45300293    0.76999998    2.73000002
   18.64527702  141.05299377    0.76999998    2.73000002
   18.64583397  145.11399841    0.76999998    2.73000002
   18.65166664  145.11399841    0.79000002    2.73000002
   18.65583229  148.72099304    0.79000002    2.73000002
   18.65916634  144.99600220    0.80000001    2.73000002
   18.66222191  146.85000610    0.80000001    2.73000002
   18.66555595  139.17599487    0.80000001    2.71000004
   18.66860962  141.42999268    0.80000001    2.71000004
   18.67194366  144.94999695    0.81999999    2.73000002
   18.67499924  147.11399841    0.80000001    2.71000004
   18.67833328  145.28599548    0.80000001    2.71000004
   18.67916679  147.24800110    0.80000001    2.71000004
   18.68194389  146.24400330    0.81999999    2.73000002
   18.68499947  146.94299316    0.83999997    2.73000002
   18.68833160  148.13600159    0.81999999    2.73000002
   18.69444275  148.13600159    0.83999997    2.73000002
   18.69861031  149.69999695    0.86000001    2.73000002
   18.70194435  146.66900635    0.83999997    2.73000002
   18.70499992  145.29100037    0.86000001    2.73000002
   18.70833397  147.77299500    0.83999997    2.73000002
   18.71166801  147.99499512    0.86000001    2.73000002
   18.71250153  145.66900635    0.86000001    2.73000002
   18.71527863  144.61399841    0.86000001    2.73000002
   18.71833420  150.04299927    0.86000001    2.73000002
   18.72166634  146.10200500    0.86000001    2.71000004
   18.72472191  145.37899780    0.86000001    2.73000002
   18.72805595  146.56500244    0.88000000    2.71000004
   18.73139000  152.12199402    0.88000000    2.71000004
   18.73750114  152.12199402    0.88000000    2.71000004
   18.74166679  147.65400696    0.88000000    2.71000004
   18.74472237  150.52299500    0.88000000    2.71000004
   18.74583435  154.62199402    0.88000000    2.71000004
   18.74833298  148.70100403    0.88000000    2.71000004
   18.75138855  149.03900146    0.92000002    2.71000004
   18.75472260  153.10200500    0.94000000    2.71000004
   18.75777817  145.68200684    0.94000000    2.73000002
   18.76111031  154.67399597    0.94000000    2.73000002
   18.76444435  152.64799500    0.94000000    2.71000004
   18.76749992  145.67100525    0.94000000    2.71000004
   18.77083397  148.05700684    0.98000002    2.71000004
   18.77388954  154.11900330    1.00000000    2.71000004
   18.78027725  154.11900330    1.01999998    2.71000004
   18.78444481  149.17199707    1.03999996    2.71000004
   18.78750038  148.41000366    1.05999994    2.71000004
   18.79083252  153.92199707    1.05999994    2.71000004
   18.79388809  150.67900085    1.07000005    2.71000004
   18.79722214  144.14900208    1.07000005    2.71000004
   18.80055428  147.06599426    1.09000003    2.69000006
   18.80360985  151.77099609    1.13000000    2.71000004
   18.80694389  148.23800659    1.13000000    2.71000004
   18.80999947  144.47700500    1.19000006    2.71000004
   18.81250000  146.68200684    1.26999998    2.71000004
   18.81361008  146.71200562    1.26999998    2.71000004
   18.81666756  140.21299744    1.26999998    2.71000004
   18.82305717  140.21299744    1.33000004    2.71000004
   18.82722282  150.09700012    1.33000004    2.71000004
   18.83055687  147.46000671    1.25000000    2.71000004
   18.83361244  152.16400146    1.25000000    2.71000004
   18.83694458  146.60000610    1.23000002    2.69000006
   18.84000015  148.40699768    1.23000002    2.69000006
   18.84333420  148.11999512    1.21000004    2.71000004
   18.84583473  149.21499634    1.21000004    2.71000004
   18.84694481  147.25599670    1.21000004    2.71000004
   18.85000038  147.89500427    1.25000000    2.69000006
   18.85333443  142.80099487    1.28999996    2.71000004
   18.85666656  150.66000366    1.30999994    2.69000006
   18.85972214  150.16600037    1.30999994    2.69000006
   18.86583328  150.16600037    1.33000004    2.69000006
   18.87000084  145.14500427    1.28999996    2.69000006
   18.87333298  154.67300415    1.28999996    2.71000004
   18.87638855  161.04200745    1.28999996    2.69000006
   18.87916756  149.31399536    1.28999996    2.69000006
   18.88027763  146.80599976    1.28999996    2.69000006
   18.88333321  147.69000244    1.28999996    2.71000004
   18.88666725  155.86300659    1.30999994    2.69000006
   18.88999939  149.38400269    1.30999994    2.69000006
   18.89305496  154.56900024    1.33000004    2.71000004
   18.89638901  158.02799988    1.33000004    2.69000006
   18.89944458  150.15400696    1.34000003    2.69000006
   18.90277672  148.26899719    1.34000003    2.69000006
   18.90888786  148.26899719    1.36000001    2.69000006
   18.91277695  148.81900024    1.36000001    2.69000006
   18.91611099  153.80700684    1.34000003    2.69000006
   18.91944313  150.23500061    1.34000003    2.71000004
   18.92249870  153.35600281    1.33000004    2.69000006
   18.92583275  152.77799988    1.30999994    2.69000006
   18.92916679  149.45199585    1.33000004    2.71000004
   18.93222237  150.56700134    1.33000004    2.69000006
   18.93555450  157.18899536    1.33000004    2.69000006
   18.93861008  148.49400330    1.30999994    2.69000006
   18.94194412  150.01199341    1.30999994    2.69000006
   18.94499969  153.26499939    1.30999994    2.69000006
   18.94583321  159.64700317    1.26999998    2.69000006
   18.95166779  159.64700317    1.25000000    2.69000006
   18.95583344  151.83500671    1.21000004    2.71000004
   18.95888901  148.99200439    1.16999996    2.71000004
   18.96222305  146.14900208    1.11000001    2.69000006
   18.96555710  150.87500000    1.09000003    2.71000004
   18.96888924  147.42900085    1.09000003    2.71000004
   18.97194481  149.14900208    1.07000005    2.69000006
   18.97527885  146.74499512    1.07000005    2.69000006
   18.97833443  144.06399536    1.07000005    2.69000006
   18.97916794  146.37699890    1.07000005    2.69000006
   18.98194504  151.81500244    1.07000005    2.69000006
   18.98500061  146.47799683    1.07000005    2.71000004
   18.98833275  141.49800110    1.07000005    2.69000006
   18.99444389  141.49800110    1.07000005    2.71000004
   18.99861145  145.25300598    1.09000003    2.69000006
   19.00194359  145.16000366    1.09000003    2.69000006
   19.00499916  148.34700012    1.11000001    2.71000004
   19.00833321  144.61099243    1.09000003    2.69000006
   19.01138878  145.71000671    1.09000003    2.69000006
   19.01250076  149.69400024    1.09000003    2.69000006
   19.01499939  147.12300110    1.09000003    2.69000006
   19.01805496  143.33299255    1.09000003    2.69000006
   19.02138901  149.84199524    1.09000003    2.67000008
   19.02472115  147.61799622    1.09000003    2.69000006
   19.02777672  150.30400085    1.09000003    2.71000004
   19.03111076  144.20599365    1.09000003    2.69000006
   19.03722191  144.20599365    1.07000005    2.69000006
   19.04138756  148.82200623    1.07000005    2.69000006
   19.04472160  145.95199585    1.05999994    2.69000006
   19.04583359  149.59599304    1.05999994    2.69000006
   19.04833221  150.55299377    1.05999994    2.69000006
   19.05138779  147.53399658    1.05999994    2.69000006
   19.05472183  148.94700623    1.05999994    2.69000006
   19.05805397  145.23100281    1.05999994    2.69000006
   19.06110954  147.90600586    1.05999994    2.69000006
   19.06444359  145.27000427    1.05999994    2.69000006
   19.06750107  144.02000427    1.03999996    2.69000006
   19.07083511  146.37600708    1.01999998    2.69000006
   19.07389069  149.02000427    1.01999998    2.69000006
   19.08027840  149.02000427    1.01999998    2.69000006
   19.08416748  150.22700500    1.01999998    2.69000006
   19.08750153  140.19700623    1.01999998    2.67000008
   19.09083366  153.10099792    1.01999998    2.69000006
   19.09388924  146.33399963    1.01999998    2.69000006
   19.09722328  146.33900452    1.01999998    2.69000006
   19.10027885  147.61900330    1.01999998    2.69000006
   19.10361099  160.23500061    1.00000000    2.69000006
   19.10666656  150.57400513    1.00000000    2.69000006
   19.11000061  148.41000366    0.98000002    2.69000006
   19.11250114  146.83599854    0.98000002    2.69000006
   19.11361122  145.39199829    0.98000002    2.69000006
   19.11666679  149.21200562    1.00000000    2.67000008
   19.12305641  149.21200562    1.00000000    2.69000006
   19.12722206  155.19599915    0.98000002    2.69000006
   19.13055611  150.62500000    0.98000002    2.69000006
   19.13388824  143.19700623    0.98000002    2.69000006
   19.13694382  148.46800232    0.98000002    2.69000006
   19.14027786  151.87100220    0.95999998    2.69000006
   19.14333344  153.21400452    0.95999998    2.69000006
   19.14583397  148.23699951    0.95999998    2.69000006
   19.14694405  152.03500366    0.95999998    2.69000006
   19.14999962  160.76499939    0.94000000    2.69000006
   19.15333366  152.05999756    0.94000000    2.69000006
   19.15666580  149.64599609    0.94000000    2.69000006
   19.15972137  152.40800476    0.94000000    2.69000006
   19.16583252  152.40800476    0.94000000    2.69000006
   19.17000008  156.01499939    0.94000000    2.69000006
   19.17333221  149.15600586    0.94000000    2.67000008
   19.17638779  151.60800171    0.95999998    2.67000008
   19.17916679  151.18099976    0.95999998    2.67000008
   19.18000031  145.90699768    0.95999998    2.67000008
   19.18305397  146.50500488    0.95999998    2.69000006
   19.18638802  157.29899597    0.95999998    2.69000006
   19.18972206  143.38499451    0.95999998    2.69000006
   19.19277763  149.94999695    0.95999998    2.69000006
   19.19610977  151.88299561    0.98000002    2.69000006
   19.19916534  150.87100220    0.98000002    2.69000006
   19.20250130  150.99000549    0.95999998    2.69000006
   19.20861244  150.99000549    0.95999998    2.69000006
   19.21277809  150.01699829    0.95999998    2.69000006
   19.21611214  151.03999329    0.94000000    2.67000008
   19.21916771  150.62500000    0.95999998    2.69000006
   19.22249985  147.50100708    0.98000002    2.69000006
   19.22583389   -1.00000000    0.98000002    2.69000006
   19.22888947   -1.00000000    0.98000002    2.69000006
   19.23222351  170.62800598    0.98000002    2.67000008
   19.23527718  147.94000244    0.98000002    2.69000006
   19.23861122  156.48100281    0.98000002    2.67000008
   19.24166679  152.24000549    0.98000002    2.67000008
   19.24500084  152.75599670    0.98000002    2.67000008
   19.24583435  151.91900635    0.98000002    2.67000008
   19.25166702  151.91900635    0.95999998    2.67000008
   19.25583267  150.48599243    0.95999998    2.67000008
   19.25888824  145.84399414    0.95999998    2.67000008
   19.26222229  147.22700500    0.98000002    2.67000008
   19.26527786  149.46499634    0.95999998    2.67000008
   19.26861000  148.49499512    0.95999998    2.67000008
   19.27166557  144.06100464    0.95999998    2.67000008
   19.27499962  145.10000610    0.95999998    2.67000008
   19.27833366  144.01300049    0.98000002    2.67000008
   19.27916718  146.69400024    0.98000002    2.67000008
   19.28194427  147.06799316    0.95999998    2.67000008
   19.28527641  151.71800232    0.98000002    2.67000008
   19.28833199  146.61300659    1.00000000    2.67000008
   19.29444313  146.61300659    1.00000000    2.67000008
   19.29861069  146.31199646    0.98000002    2.67000008
   19.30166626  146.24200439    1.13000000    2.67000008
   19.30499840  151.86799622    1.14999998    2.67000008
   19.30833244  148.31700134    1.16999996    2.67000008
   19.31138802  149.32699585    1.16999996    2.67000008
   19.31250000  152.39799500    1.19000006    2.67000008
   19.31499863  147.21899414    1.19000006    2.67000008
   19.31833458  151.74000549    1.14999998    2.67000008
   19.32139015  144.66900635    1.13000000    2.66000009
   19.32472229  144.11099243    1.14999998    2.67000008
   19.32777786  145.80900574    1.16999996    2.67000008
   19.33111191  147.89599609    1.16999996    2.67000008
   19.33722305  147.89599609    1.21000004    2.66000009
   19.34138870  148.79499817    1.23000002    2.67000008
   19.34472275  144.38400269    1.23000002    2.67000008
   19.34583473  146.24099731    1.25000000    2.67000008
   19.34833336  144.76300049    1.25000000    2.67000008
   19.35166740  146.43499756    1.33000004    2.66000009
   19.35472298  149.81199646    1.13000000    2.67000008
   19.35805511  146.02000427    1.13000000    2.66000009
   19.36111069  144.48199463    1.13000000    2.67000008
   19.36444473  153.52799988    1.13000000    2.67000008
   19.36750031  142.66999817    1.19000006    2.67000008
   19.37083435  150.55599976    1.19000006    2.67000008
   19.37416649  147.58000183    1.26999998    2.66000009
   19.38000107  147.58000183    1.30999994    2.66000009
   19.38416672  147.97200012    1.26999998    2.66000009
   19.38750076  148.09599304    1.26999998    2.66000009
   19.39055634  152.49000549    1.23000002    2.66000009
   19.39388847  146.87600708    1.23000002    2.67000008
   19.39722252  151.82400513    1.23000002    2.67000008
   19.40027809  146.76600647    1.19000006    2.66000009
   19.40361023  148.69299316    1.16999996    2.66000009
   19.40666580  164.04899597    1.11000001    2.66000009
   19.40999985  149.35699463    1.05999994    2.66000009
   19.41250038  144.63499451    1.05999994    2.66000009
   19.43333244  144.63499451    0.98000002    2.66000009
   19.43722153  146.67300415    0.98000002    2.67000008
   19.44055557  144.38900757    0.95999998    2.67000008
   19.44388771  152.60800171    0.95999998    2.67000008
   19.44583321  148.39500427    0.95999998    2.66000009
   19.44722176  147.92300415    0.95999998    2.66000009
   19.45055580  150.79600525    0.95999998    2.66000009
   19.45361137  150.15600586    0.95999998    2.66000009
   19.45694542  145.94099426    0.94000000    2.66000009
   19.46027946  149.94200134    0.95999998    2.67000008
   19.46333504  142.74299622    0.95999998    2.67000008
   19.46666718  147.23199463    0.95999998    2.66000009
   19.46972275  149.79699707    0.95999998    2.66000009
   19.47583389  149.79699707    0.95999998    2.66000009
   19.48000145  145.97999573    0.95999998    2.66000009
   19.48333359  146.19500732    0.95999998    2.66000009
   19.48638916  145.19500732    0.95999998    2.66000009
   19.48972321  144.32000732    0.98000002    2.66000009
   19.49305534  147.42399597    0.95999998    2.66000009
   19.49611092  147.13000488    0.98000002    2.66000009
   19.49944496  145.91099548    0.98000002    2.66000009
   19.50250053  144.48500061    0.98000002    2.66000009
   19.50583267  144.61000061    0.98000002    2.66000009
   19.50888824  145.04699707    0.98000002    2.66000009
   19.51222229  146.20700073    0.98000002    2.67000008
   19.51277733  152.49499512    0.98000002    2.67000008
   19.51888847  152.49499512    0.98000002    2.67000008
   19.52277756  146.98199463    0.98000002    2.66000009
   19.52611160  151.80799866    0.95999998    2.66000009
   19.52944374  141.92100525    0.95999998    2.66000009
   19.53249931  149.73599243    0.95999998    2.66000009
   19.53583336  150.04299927    0.95999998    2.66000009
   19.53888893  151.24600220    0.98000002    2.64000010
   19.54222107  152.40899658    0.98000002    2.64000010
   19.54527664  149.29400635    0.98000002    2.66000009
   19.54611015  151.21600342    0.98000002    2.66000009
   19.54888916  153.09700012    0.98000002    2.66000009
   19.55222130  145.96499634    0.98000002    2.66000009
   19.55555534  149.25900269    0.95999998    2.66000009
   19.56166649  149.25900269    0.95999998    2.66000009
   19.56583214  148.41900635    0.95999998    2.66000009
   19.56888962  153.77699280    0.95999998    2.66000009
   19.57222366  150.96299744    0.95999998    2.66000009
   19.57527924  146.86500549    0.95999998    2.66000009
   19.57861137  145.71099854    0.94000000    2.66000009
   19.57944489  150.95599365    0.94000000    2.66000009
   19.58194542  147.94700623    0.92000002    2.66000009
   19.58527756  152.00799561    0.92000002    2.66000009
   19.58861160  148.35600281    0.92000002    2.66000009
   19.59166718  149.17799377    0.92000002    2.66000009
   19.59500122  151.37300110    0.92000002    2.66000009
   19.59805679  143.57400513    0.92000002    2.66000009
   19.60444450  143.57400513    0.92000002    2.66000009
   19.60861206  154.77799988    0.92000002    2.66000009
   19.61194420  149.21800232    0.92000002    2.66000009
   19.61277771  149.60600281    0.92000002    2.66000009
   19.61527824  148.63999939    0.92000002    2.66000009
   19.61861038  150.40899658    0.92000002    2.66000009
   19.62194443  148.57400513    0.92000002    2.64000010
   19.62500000  148.39999390    0.92000002    2.64000010
   19.62833405  153.00999451    0.92000002    2.64000010
   19.63138962  153.79200745    0.92000002    2.64000010
   19.63472176  150.84700012    0.94000000    2.64000010
   19.63777733  148.95399475    0.94000000    2.64000010
   19.64111137  152.80499268    0.94000000    2.66000009
   19.64722252  152.80499268    0.95999998    2.66000009
   19.65138817  142.82899475    0.94000000    2.64000010
   19.65472221  146.47999573    0.94000000    2.64000010
   19.65777779  151.28500366    0.95999998    2.66000009
   19.66110992  154.70500183    0.95999998    2.66000009
   19.66444397  154.89999390    0.98000002    2.66000009
   19.66749954  152.13900757    1.01999998    2.66000009
   19.67083359  156.13200378    1.05999994    2.64000010
   19.67388916  154.61999512    1.05999994    2.64000010
   19.67722130  155.70700073    1.05999994    2.64000010
   19.67944336  153.68299866    1.05999994    2.64000010
   19.68083191  154.09800720    1.05999994    2.64000010
   19.68388748  151.96699524    1.05999994    2.64000010
   19.69027710  151.96699524    0.94000000    2.64000010
   19.69444275  149.77200317    0.94000000    2.64000010
   19.69749832  166.75799561    0.94000000    2.64000010
   19.70083427  158.85099792    0.94000000    2.64000010
   19.70388985  157.37199402    0.94000000    2.64000010
   19.70722389  151.36000061    0.94000000    2.64000010
   19.71027946  156.33200073    0.94000000    2.64000010
   19.71277809  154.36199951    0.92000002    2.64000010
   19.71416664  154.46000671    0.92000002    2.64000010
   19.71722221  155.38099670    0.92000002    2.64000010
   19.72055626  157.92900085    0.94000000    2.64000010
   19.72361183  156.25799561    0.94000000    2.64000010
   19.72694588  153.47000122    0.94000000    2.66000009
   19.73305511  153.47000122    0.94000000    2.64000010
   19.73722267  154.50599670    0.92000002    2.64000010
   19.74027824  147.51400757    0.92000002    2.64000010
   19.74361229  157.53399658    0.92000002    2.64000010
   19.74611092  155.99299622    0.89999998    2.61999989
   19.74722290  158.03100586    0.89999998    2.61999989
   19.75027847  154.44200134    0.89999998    2.64000010
   19.75361061  154.12199402    0.89999998    2.64000010
   19.75666618  157.80299377    0.89999998    2.64000010
   19.76000023  156.67300415    0.95999998    2.64000010
   19.76305580  157.24200439    0.98000002    2.64000010
   19.76638794  161.99899292    0.98000002    2.64000010
   19.76972198  158.92900085    1.00000000    2.64000010
   19.77583313  158.92900085    0.95999998    2.64000010
   19.78000069  164.25399780    0.95999998    2.61999989
   19.78333282  154.16200256    0.95999998    2.61999989
   19.78638840  155.99499512    0.98000002    2.64000010
   19.78972244  158.48300171    0.95999998    2.64000010
   19.79277802  166.32400513    0.95999998    2.61999989
   19.79611015  163.40299988    0.98000002    2.64000010
   19.79916573  157.10600281    0.98000002    2.64000010
   19.80277634  159.37199402    1.00000000    2.61999989
   19.80583191  154.93699646    1.00000000    2.61999989
   19.80916595  159.13699341    1.00000000    2.61999989
   19.81222153  153.17199707    1.00000000    2.61999989
   19.81277657  157.20700073    1.00000000    2.61999989
   19.81888962  157.20700073    1.00000000    2.64000010
   19.82305717  159.50300598    1.01999998    2.64000010
   19.82611275  154.35200500    1.01999998    2.64000010
   19.82944489  150.51899719    1.03999996    2.61999989
   19.83277893  162.99600220    1.03999996    2.61999989
   19.83583450  166.22900391    1.05999994    2.61999989
   19.83916664  168.11900330    1.07000005    2.61999989
   19.84222221  165.37199402    1.09000003    2.61999989
   19.84555626  156.94999695    1.11000001    2.61999989
   19.84611130  158.74499512    1.11000001    2.61999989
   19.84916687  173.26300049    1.13000000    2.61999989
   19.85222244  157.07400513    1.13000000    2.64000010
   19.85555649  167.14599609    1.13000000    2.64000010
   19.86166763  167.14599609    1.13000000    2.61999989
   19.86555672  162.74499512    1.13000000    2.61999989
   19.86888885  154.03700256    1.14999998    2.61999989
   19.87194443  150.67799377    1.16999996    2.61999989
   19.87527847  159.65299988    1.19000006    2.61999989
   19.87861061  165.40100098    1.16999996    2.61999989
   19.87944412  175.88800049    1.16999996    2.61999989
   19.88222313  174.54200745    1.16999996    2.61999989
   19.88527679  166.35400391    1.16999996    2.61999989
   19.88861084  167.49699402    1.16999996    2.61999989
   19.89194489  162.54600525    1.16999996    2.59999990
   19.89500046  162.96000671    1.14999998    2.59999990
   19.89833260  163.52000427    1.14999998    2.61999989
   19.90444374  163.52000427    1.13000000    2.59999990
   19.90861130  160.15100098    1.13000000    2.59999990
   19.91166687  157.79699707    1.14999998    2.61999989
   19.91277695  156.49400330    1.16999996    2.59999990
   19.91527748  159.03999329    1.16999996    2.59999990
   19.91833305  160.45199585    1.16999996    2.59999990
   19.92166519  164.80000305    1.16999996    2.59999990
   19.92472076  160.17300415    1.19000006    2.59999990
   19.92805481  161.30299377    1.19000006    2.59999990
   19.93138885  159.43800354    1.19000006    2.59999990
   19.93444443  154.37300110    1.21000004    2.59999990
   19.93777657  162.09899902    1.21000004    2.59999990
   19.94083214  159.17700195    1.19000006    2.59999990
   19.94722176  159.17700195    1.19000006    2.59999990
   19.95138931  164.02400208    1.16999996    2.59999990
   19.95444489  159.72700500    1.16999996    2.59999990
   19.95777893  161.42599487    1.16999996    2.59999990
   19.96111107  167.35099792    1.16999996    2.59999990
   19.96416664  159.77999878    1.16999996    2.59999990
   19.96750069  158.20799255    1.14999998    2.59999990
   19.97055626  157.94099426    1.14999998    2.59999990
   19.97389030  169.92700195    1.14999998    2.59999990
   19.97722244  167.83900452    1.14999998    2.59999990
   19.97972298  158.02400208    1.14999998    2.59999990
   19.98083305  165.53500366    1.14999998    2.59999990
   19.98416710  171.77099609    1.14999998    2.59999990
   19.98999977  171.77099609    1.14999998    2.59999990
   19.99416733  159.30799866    1.14999998    2.59999990
   19.99749947  157.30900574    1.14999998    2.59999990
   20.00055504  176.56599426    1.14999998    2.59999990
   20.00388908  180.54699707    1.16999996    2.59999990
   20.00694466  186.01300049    1.19000006    2.59999990
   20.01027870  194.09399414    1.19000006    2.57999992
   20.01277733  241.15899658    1.19000006    2.57999992
   20.01388931  242.31500244    1.21000004    2.57999992
   20.01694489  288.47399902    1.21000004    2.57999992
   20.02027702  348.95098877    1.21000004    2.57999992
   20.02333260  164.68299866    1.21000004    2.57999992
   20.02666664   -1.00000000    1.23000002    2.59999990
   20.03694344   -1.00000000    1.21000004    2.59999990
   20.04027748   -1.00000000    1.19000006    2.57999992
