    HOUR (UT)   FLARE FACTOR    SKY TESTER    SUN TESTER
   11.58333302   -1.00000000   -1.00000000   -1.00000000
   11.62694454  132.62100220    4.90999985    1.94000006
   11.63027763  108.00199890    4.90999985    1.94000006
   11.63361073  105.13700104    4.90999985    1.96000004
   11.63666630  106.18699646    4.90999985    1.94000006
   11.64000034  110.76200104    4.90999985    1.94000006
   11.64416695  110.76200104    4.90999985    1.96000004
   11.64833355  110.24500275    4.90999985    1.96000004
   11.65138817  116.09600067    4.90999985    1.98000002
   11.65472221  113.84100342    4.90999985    1.98000002
   11.65694427  113.06500244    4.90999985    1.98000002
   11.65833282  110.00800323    4.90999985    1.98000002
   11.66166592  115.05000305    4.90999985    1.98000002
   11.66499996  109.05899811    4.90999985    1.98000002
   11.66805553  107.45999908    4.90999985    1.98000002
   11.67138958  101.59100342    4.90999985    1.98000002
   11.67472267  113.59700012    4.90999985    1.98000002
   11.67777824  109.41500092    4.90999985    2.00000000
   11.68111134  124.36299896    4.90999985    2.00000000
   11.68694496  124.36299896    4.90999985    2.00000000
   11.69111156  113.73699951    4.90999985    2.01999998
   11.69416714  109.40100098    4.90999985    2.01999998
   11.69750023  115.46700287    4.90999985    2.00000000
   11.70083332  114.65599823    4.90999985    2.00000000
   11.70416641  117.50199890    4.90999985    2.01999998
   11.70722198  118.81199646    4.90999985    2.00000000
   11.71055508  113.87100220    4.90999985    2.00000000
   11.71388912  116.30300140    4.90999985    2.01999998
   11.71694374  121.39900208    4.90999985    2.01999998
   11.72027779  119.33799744    4.90999985    2.01999998
   11.72361088  123.93699646    4.90999985    2.01999998
   11.72388840  123.11199951    4.90999985    2.00000000
   11.72972202  123.11199951    4.90999985    2.00000000
   11.73388958  121.82599640    4.90999985    2.01999998
   11.73722267  120.97499847    4.90999985    2.01999998
   11.74027824  114.97599792    4.90999985    2.01999998
   11.74361134  117.25700378    4.90999985    2.01999998
   11.74694443  112.56900024    4.90999985    2.01999998
   11.75000000  118.87500000    4.90999985    2.01999998
   11.75333309  114.97200012    4.90999985    2.03999996
   11.75638866  119.40299988    4.90999985    2.03999996
   11.75722218  119.43399811    4.90999985    2.03999996
   11.76000023  124.37200165    4.90999985    2.03999996
   11.76333332  117.28099823    4.90999985    2.05999994
   11.76638889  127.21600342    4.90999985    2.03999996
   11.77250004  127.21600342    4.90999985    2.03999996
   11.77666664  110.23699951    4.90999985    2.05999994
   11.77999973  119.18099976    4.90999985    2.05999994
   11.78333378  105.38899994    4.90999985    2.05999994
   11.78638935  111.41500092    4.90999985    2.05999994
   11.78972244  114.18699646    4.90999985    2.05999994
   11.79055595  104.82099915    4.90999985    2.05999994
   11.79333401  114.10800171    4.90999985    2.05999994
   11.79666710  128.79699707    4.90999985    2.03999996
   11.79972267  111.66600037    4.90999985    2.01999998
   11.80305576  114.33300018    4.90999985    2.03999996
   11.80611134  114.74600220    4.90999985    2.05999994
   11.80944443  108.74800110    4.90999985    2.07999992
   11.81555557  108.74800110    4.90999985    2.05999994
   11.81972218  120.17500305    4.90999985    2.07999992
   11.82277775  113.52999878    4.90999985    2.07999992
   11.82388878  112.47399902    4.90999985    2.07999992
   11.82638836  115.14399719    4.90999985    2.07999992
   11.82972240  112.47100067    4.90999985    2.07999992
   11.83277798  118.53900146    4.90999985    2.07999992
   11.83611107  111.84300232    4.90999985    2.09999990
   11.83944416  116.65000153    4.90999985    2.07999992
   11.84249973  112.72000122    4.90999985    2.09999990
   11.84583282  106.56900024    4.90999985    2.09999990
   11.84888840  114.80899811    4.90999985    2.07999992
   11.85222244  118.09400177    4.90999985    2.09999990
   11.85833359  118.09400177    4.90999985    2.09999990
   11.86250019  113.13300323    4.90999985    2.09999990
   11.86555576  112.91000366    4.90999985    2.09999990
   11.86888885  110.36699677    4.90999985    2.09999990
   11.87222195  112.65799713    4.90999985    2.09999990
   11.87527752  107.09500122    4.90999985    2.09999990
   11.87861156  117.22699738    4.90999985    2.09999990
   11.88194466  111.64700317    4.90999985    2.09999990
   11.88500023  113.91200256    4.90999985    2.11999989
   11.88833332  116.55999756    4.90999985    2.09999990
   11.89055538  104.71499634    4.90999985    2.11999989
   11.89194393  104.30500031    4.90999985    2.11999989
   11.89527798  102.46600342    4.90999985    2.11999989
   11.90111065  102.46600342    4.90999985    2.11999989
   11.90527725  103.98600006    4.90999985    2.11999989
   11.90861034  107.69100189    4.90999985    2.11999989
   11.91166592  107.86299896    4.90999985    2.11999989
   11.91499996  104.08300018    4.90999985    2.09999990
   11.91833401  104.76699829    4.90999985    2.11999989
   11.92138958  105.42099762    4.90999985    2.13000011
   11.92388916  103.25399780    4.90999985    2.11999989
   11.92500019  107.34500122    4.90999985    2.11999989
   11.92833328  107.10099792    4.90999985    2.13000011
   11.93138885  106.82900238    4.90999985    2.13000011
   11.93472195  103.02400208    4.90999985    2.13000011
   11.93805599  109.69699860    4.90999985    2.13000011
   11.94388866  109.69699860    4.90999985    2.13000011
   11.94805527  105.58599854    4.90999985    2.13000011
   11.95138836  105.80000305    4.90999985    2.13000011
   11.95444393  103.97299957    4.90999985    2.13000011
   11.95722198  106.62799835    4.90999985    2.13000011
   11.95805550  104.30699921    4.90999985    2.13000011
   11.96138859  109.96299744    4.90999985    2.13000011
   11.96444416  112.50399780    4.90999985    2.13000011
   11.96777725  107.24099731    4.90999985    2.15000010
   11.97083282  105.95099640    4.90999985    2.15000010
   11.97416592  105.76100159    4.90999985    2.13000011
   11.97749996  106.03099823    4.90999985    2.13000011
   11.98055553  111.91000366    4.90999985    2.15000010
   11.98694515  111.91000366    4.90999985    2.15000010
   11.99083328  107.64800262    4.90999985    2.15000010
   11.99416733  112.78700256    4.90999985    2.15000010
   11.99750042  112.35700226    4.90999985    2.15000010
   12.00055599  114.30799866    4.90999985    2.15000010
   12.00388908  111.79799652    4.90999985    2.15000010
   12.00722218  115.88700104    4.90999985    2.15000010
   12.01027775  105.79499817    4.90999985    2.15000010
   12.01361084  114.74600220    4.90999985    2.13000011
   12.01666641  107.03199768    4.90999985    2.15000010
   12.01999950  105.25000000    4.90999985    2.17000008
   12.02333355  113.95099640    4.90999985    2.15000010
   12.02388859   99.40119934    4.90999985    2.15000010
   12.02972221   99.40119934    4.90999985    2.17000008
   12.03388977   99.35310364    4.90999985    2.15000010
   12.03722286   99.24199677    4.90999985    2.17000008
   12.04027843  102.16999817    4.90999985    2.17000008
   12.04361153  104.74500275    4.90999985    2.15000010
   12.04666710  109.92199707    4.90999985    2.17000008
   12.05000019  105.58699799    4.90999985    2.15000010
   12.05333328  105.93099976    4.90999985    2.17000008
   12.05638885  101.85700226    4.90999985    2.19000006
   12.05722237  108.83399963    4.90999985    2.19000006
   12.06000042  103.61900330    4.90999985    2.19000006
   12.06333351  106.33699799    4.90999985    2.19000006
   12.06638908  105.09600067    4.90999985    2.19000006
   12.07250023  105.09600067    4.90999985    2.19000006
   12.07666683  105.00900269    4.90999985    2.21000004
   12.07999992  107.13800049    4.90999985    2.19000006
   12.08305550  105.96700287    4.90999985    2.19000006
   12.08638859  103.00599670    4.90999985    2.21000004
   12.08944416  111.44599915    4.90999985    2.17000008
   12.09055519  121.41999817    4.90999985    2.15000010
   12.09305477  111.45300293    4.90999985    2.11999989
   12.09638882   99.13459778    4.90999985    2.09999990
   12.09944439  109.98699951    4.90999985    2.17000008
   12.10277843  109.13700104    4.90999985    2.17000008
   12.10611153  103.44100189    4.90999985    2.21000004
   12.10916710  105.45600128    4.90999985    2.23000002
   12.11527824  105.45600128    4.90999985    2.19000006
   12.11944485  100.55500031    4.90999985    2.19000006
   12.12277794  102.19599915    4.90999985    2.21000004
   12.12388897   98.79530334    4.90999985    2.21000004
   12.12638855   98.84570313    4.90999985    2.21000004
   12.12972260  108.70099640    4.90999985    2.21000004
   12.13277817  106.62500000    4.90999985    2.17000008
   12.13611126  118.04799652    4.90999985    2.19000006
   12.13944435  102.26300049    4.90999985    2.15000010
   12.14249992  112.17600250    4.90999985    2.11999989
   12.14583302  113.83100128    4.90999985    2.17000008
   12.14888859  108.81099701    4.90999985    2.15000010
   12.15222168  106.03800201    4.90999985    2.17000008
   12.15833282  106.03800201    4.90999985    2.21000004
   12.16222191  106.00000000    4.90999985    2.23000002
   12.16555500  102.91100311    4.90999985    2.23000002
   12.16888905  102.84799957    4.90999985    2.23000002
   12.17194462  101.28900146    4.80999994    2.21000004
   12.17527771  105.82199860    4.82999992    2.21000004
   12.17861176   98.14710236    4.80999994    2.23000002
   12.18166733  105.09799957    4.80999994    2.23000002
   12.18500042  105.79799652    4.80000019    2.25000000
   12.18833351  104.53600311    4.78000021    2.23000002
   12.19055557  110.54599762    4.84999990    2.23000002
   12.19166660  104.22200012    4.88999987    2.23000002
   12.19499969  102.16799927    4.90999985    2.21000004
   12.20111084  102.16799927    4.90999985    2.25000000
   12.20527744  105.49500275    4.90999985    2.21000004
   12.20833302  104.82800293    4.90999985    2.23000002
   12.21166611  101.59899902    4.90999985    2.23000002
   12.21500015  112.17199707    4.90999985    2.23000002
   12.21805477  104.13999939    4.90999985    2.25000000
   12.22138882  102.71700287    4.80999994    2.23000002
   12.22416592   99.84140015    4.80999994    2.26999998
   12.22499943  102.92500305    4.80999994    2.26999998
   12.22833252  100.15100098    4.90999985    2.23000002
   12.23138809  102.74800110    4.90999985    2.23000002
   12.23472214  102.14499664    4.90999985    2.23000002
   12.23805618  102.61000061    4.90999985    2.25000000
   12.24388885  102.61000061    4.90999985    2.25000000
   12.24805546  107.29000092    4.90999985    2.23000002
   12.25111103  102.65899658    4.90999985    2.21000004
   12.25444412  101.87400055    4.90999985    2.25000000
   12.25749969  103.38600159    4.90999985    2.25000000
   12.25805569  104.89199829    4.90999985    2.25000000
   12.26138878  101.16300201    4.90999985    2.25000000
   12.26444435   96.61650085    4.90999985    2.25000000
   12.26777744   98.34580231    4.90999985    2.25000000
   12.27111053  101.23999786    4.90999985    2.25000000
   12.27416611  102.00900269    4.90999985    2.25000000
   12.27750015  101.27899933    4.90999985    2.26999998
   12.28083324   97.07430267    4.90999985    2.26999998
   12.28666687   97.07430267    4.90999985    2.26999998
   12.29083347  108.53500366    4.90999985    2.26999998
   12.29416752  105.35700226    4.90999985    2.25000000
   12.29722309  100.32299805    4.90999985    2.26999998
   12.30055618  113.04499817    4.90999985    2.21000004
   12.30388927   97.82180023    4.90999985    2.19000006
   12.30694485  103.28299713    4.90999985    2.26999998
   12.31027794  102.90699768    4.69999981    2.25000000
   12.31333351  105.20800018    4.69999981    2.26999998
   12.31666660   99.33419800    4.69999981    2.25000000
   12.31999969  100.27100372    4.59999990    2.26999998
   12.32305527   94.45510101    4.59999990    2.26999998
   12.32416630   96.46469879    4.59999990    2.26999998
   12.32972240   96.46469879    4.69999981    2.26999998
   12.33361053  103.51599884    4.90999985    2.26999998
   12.33694458  105.45500183    4.90999985    2.26999998
   12.34027767  107.34500122    4.90999985    2.23000002
   12.34333324  106.23999786    4.90999985    2.11999989
   12.34666634   95.95390320    4.90999985    2.15000010
   12.34972191   89.61119843    4.90999985    2.28999996
   12.35305595   95.88130188    4.90999985    2.28999996
   12.35638905   95.56269836    4.61999989    2.26999998
   12.35750008   95.25229645    4.51000023    2.28999996
   12.35972214   95.11209869    4.46999979    2.26999998
   12.36305618   99.17669678    4.61999989    2.28999996
   12.36611176   93.68679810    4.84999990    2.25000000
   12.37250042   93.68679810    4.90999985    2.28999996
   12.37666702  100.35199738    4.90999985    2.30999994
   12.37972260  104.19899750    4.90999985    2.28999996
   12.38305569   99.43379974    4.90999985    2.28999996
   12.38611126  103.84500122    4.90999985    2.28999996
   12.38944435  102.80500031    4.84999990    2.21000004
   12.39083290  101.27899933    4.90999985    2.25000000
   12.39305496  102.96600342    4.90999985    2.26999998
   12.39638901  100.17800140    4.90999985    2.28999996
   12.39944458  100.93699646    4.90999985    2.28999996
   12.40277767  103.16300201    4.44999981    2.28999996
   12.40611076  101.45200348    4.61999989    2.30999994
   12.40916634  102.26799774    4.88999987    2.28999996
   12.41527748  102.26799774    4.90999985    2.28999996
   12.41944504   98.28299713    4.73999977    2.30999994
   12.42250061   97.59320068    4.46999979    2.30999994
   12.42416668   97.47419739    4.40999985    2.30999994
   12.42611122   94.35630035    4.26999998    2.32999992
   12.42944431   99.63120270    4.13999987    2.30999994
   12.43249989   99.37560272    4.17999983    2.30999994
   12.43583298   94.82050323    4.11999989    2.32999992
   12.43916702   93.07279968    4.13999987    2.32999992
   12.44222260   99.33159637    4.19999981    2.32999992
   12.44555569   99.12100220    4.15999985    2.32999992
   12.44888878   93.75039673    4.03999996    2.30999994
   12.45194435   97.81529999    4.03999996    2.30999994
   12.45805550   97.81529999    3.86999989    2.32999992
   12.46222210   96.90799713    3.82999992    2.34999990
   12.46555519   94.66780090    3.82999992    2.32999992
   12.46861076   97.38179779    3.80999994    2.34999990
   12.47194386   98.71990204    3.82999992    2.32999992
   12.47527695  100.23999786    3.84999990    2.34999990
   12.47833252   99.38770294    3.89000010    2.34999990
   12.48166656   93.65129852    3.91000009    2.34999990
   12.48500061   96.34500122    3.95000005    2.32999992
   12.48805618   98.65599823    3.99000001    2.32999992
   12.49083328  100.63300323    4.00000000    2.32999992
   12.49166679  105.03199768    4.01999998    2.32999992
   12.49499989  100.67400360    4.01999998    2.32999992
   12.50083351  100.67400360    4.01999998    2.34999990
   12.50500011   98.02130127    4.00000000    2.34999990
   12.50833321  101.13600159    3.97000003    2.34999990
   12.51166630   99.82440186    3.97000003    2.34999990
   12.51472187   99.37300110    3.91000009    2.36999989
   12.51805496   95.84739685    3.86999989    2.34999990
   12.52111053   99.81240082    3.82999992    2.32999992
   12.52416611   95.14749908    3.82999992    2.34999990
   12.52472210   93.85220337    3.82999992    2.34999990
   12.52805519   94.11730194    3.80999994    2.34999990
   12.53138828  101.41200256    3.80999994    2.34999990
   12.53444481   96.80169678    3.82999992    2.34999990
   12.53777790   97.04299927    3.82999992    2.34999990
   12.54388905   97.04299927    3.86999989    2.34999990
   12.54805565   95.90219879    3.86999989    2.34999990
   12.55111122   94.74400330    3.84999990    2.34999990
   12.55444431   93.92299652    3.82999992    2.36999989
   12.55749989   94.65989685    3.78999996    2.34999990
   12.55777836   96.25509644    3.78999996    2.34999990
   12.56111145   97.29599762    3.75000000    2.36999989
   12.56444454   95.22200012    3.70000005    2.36999989
   12.56750011   94.83959961    3.66000009    2.36999989
   12.57083321   91.70960236    3.61999989    2.36999989
   12.57388878   93.09490204    3.61999989    2.36999989
   12.57722187   92.98639679    3.59999990    2.36999989
   12.58055592   99.29319763    3.61999989    2.36999989
   12.58666611   99.29319763    3.61999989    2.36999989
   12.59083271   97.91670227    3.64000010    2.36999989
   12.59388828   98.91960144    3.66000009    2.34999990
   12.59722233   98.71959686    3.68000007    2.36999989
   12.60055637   96.93209839    3.70000005    2.36999989
   12.60361195   95.79170227    3.70000005    2.36999989
   12.60694504   94.15899658    3.73000002    2.36999989
   12.61027813   95.34470367    3.76999998    2.36999989
   12.61333370   98.45960236    3.80999994    2.36999989
   12.61666679   94.48799896    3.82999992    2.36999989
   12.61972237   99.94599915    3.82999992    2.36999989
   12.62305546   98.44239807    3.84999990    2.36999989
   12.62416649  100.61000061    3.84999990    2.36999989
   12.64472198  100.61000061    3.78999996    2.36999989
   12.64888859   97.50820160    3.76999998    2.36999989
   12.65222168   98.06700134    3.75000000    2.36999989
   12.65527725   93.25189972    3.73000002    2.39000010
   12.65749931   93.23049927    3.72000003    2.36999989
   12.65888882   90.10179901    3.68000007    2.39000010
   12.66222191   94.21299744    3.64000010    2.39000010
   12.66555500   99.20010376    3.59999990    2.39000010
   12.66861153   96.30519867    3.57999992    2.39000010
   12.67194462   99.51349640    3.57999992    2.39000010
   12.67500019  100.14900208    3.59999990    2.39000010
   12.67833328   92.28970337    3.61999989    2.40000010
   12.68166733   93.81700134    3.61999989    2.39000010
   12.68750000   93.81700134    3.64000010    2.39000010
   12.69166660  103.83799744    3.66000009    2.40000010
   12.69472218   98.29620361    3.64000010    2.39000010
   12.69805527   93.23970032    3.66000009    2.36999989
   12.70138836  100.43199921    3.64000010    2.40000010
   12.70444393   95.01799774    3.61999989    2.39000010
   12.70777798  101.80000305    3.59999990    2.40000010
   12.71111107  100.44699860    3.61999989    2.39000010
   12.71416664   97.15529633    3.61999989    2.40000010
   12.71749973   93.16390228    3.64000010    2.39000010
   12.72055531   98.17179871    3.64000010    2.39000010
   12.72388840   93.76170349    3.66000009    2.39000010
   12.72444439  100.91400146    3.66000009    2.39000010
   12.73027706  100.91400146    3.68000007    2.39000010
   12.73444462   91.92130280    3.64000010    2.39000010
   12.73777771   95.70469666    3.61999989    2.39000010
   12.74083328   96.48970032    3.59999990    2.40000010
   12.74416733   91.80100250    3.59999990    2.40000010
   12.74750042   96.53350067    3.59999990    2.39000010
   12.75055599  101.57599640    3.61999989    2.39000010
   12.75388908   93.03579712    3.59999990    2.40000010
   12.75694466   91.92549896    3.61999989    2.39000010
   12.75777817   95.48539734    3.61999989    2.39000010
   12.76083374   91.75019836    3.61999989    2.39000010
   12.76388931   95.63500214    3.64000010    2.40000010
   12.76722240  100.12200165    3.64000010    2.39000010
   12.77333355  100.12200165    3.64000010    2.39000010
   12.77722168   93.76799774    3.64000010    2.39000010
   12.78055573   94.51950073    3.64000010    2.42000008
   12.78388977   95.78829956    3.61999989    2.40000010
   12.78694534   96.25689697    3.61999989    2.39000010
   12.79027843   93.60559845    3.59999990    2.40000010
   12.79111195   96.95649719    3.59999990    2.39000010
   12.79388905   98.31929779    3.55999994    2.40000010
   12.79694462   95.76470184    3.53999996    2.40000010
   12.80027771   95.29290009    3.51999998    2.39000010
   12.80333328   95.79630280    3.51999998    2.40000010
   12.80666733   96.49720001    3.53999996    2.40000010
   12.81000042   92.33249664    3.53999996    2.40000010
   12.81611156   92.33249664    3.51999998    2.40000010
   12.82027817   99.06089783    3.51999998    2.42000008
   12.82333374   99.72299957    3.51999998    2.40000010
   12.82444477   95.54209900    3.51999998    2.42000008
   12.82722187   92.25800323    3.50000000    2.42000008
   12.83027744   95.25740051    3.48000002    2.40000010
   12.83361053   95.02690125    3.46000004    2.40000010
   12.83666611   90.79889679    3.43000007    2.40000010
   12.84000015   96.15039825    3.41000009    2.40000010
   12.84333324   92.38379669    3.39000010    2.42000008
   12.84638882   96.05639648    3.34999990    2.42000008
   12.84972191   90.02850342    3.34999990    2.42000008
   12.85305595   95.07279968    3.32999992    2.42000008
   12.85888958   95.07279968    3.32999992    2.42000008
   12.86305618   96.70290375    3.34999990    2.40000010
   12.86611176   94.04219818    3.36999989    2.42000008
   12.86944485   96.56020355    3.39000010    2.40000010
   12.87277794   94.08899689    3.39000010    2.42000008
   12.87583351   95.70010376    3.36999989    2.42000008
   12.87916660   96.74890137    3.36999989    2.42000008
   12.88249969   96.00330353    3.36999989    2.42000008
   12.88555527   95.03569794    3.39000010    2.42000008
   12.88888836   91.87500000    3.41000009    2.42000008
   12.89111137   95.96929932    3.41000009    2.42000008
   12.89249992   93.03710175    3.41000009    2.42000008
   12.89555550   94.90899658    3.43000007    2.40000010
   12.90166664   94.90899658    3.39000010    2.42000008
   12.90583324   92.21179962    3.34999990    2.42000008
   12.90916634   91.45600128    3.32999992    2.42000008
   12.91222191   95.24749756    3.32999992    2.42000008
   12.91555500   94.44719696    3.30999994    2.42000008
   12.91888905   88.07299805    3.30999994    2.42000008
   12.92194462   95.16179657    3.30999994    2.42000008
   12.92444515   95.03579712    3.30999994    2.44000006
   12.92583370   95.52310181    3.30999994    2.42000008
   12.92888927   88.17289734    3.32999992    2.42000008
   12.93222237   94.87930298    3.39000010    2.42000008
   12.93527794   95.60669708    3.41000009    2.42000008
   12.93861103   96.93650055    3.39000010    2.42000008
   12.94472218   96.93650055    3.34999990    2.42000008
   12.94861126   97.51080322    3.34999990    2.42000008
   12.95194435   95.37059784    3.36999989    2.42000008
   12.95527744   93.78510284    3.36999989    2.42000008
   12.95777798   95.86190033    3.36999989    2.44000006
   12.95888901   92.09220123    3.36999989    2.42000008
   12.96194458   96.31539917    3.34999990    2.42000008
   12.96527767   91.62760162    3.32999992    2.44000006
   12.96833324   91.98650360    3.26999998    2.44000006
   12.97166634   94.82900238    3.23000002    2.42000008
   12.97499943   90.91850281    3.20000005    2.44000006
   12.97805500   94.43299866    3.16000009    2.44000006
   12.98138809   94.60880280    3.09999990    2.44000006
   12.98750019   94.60880280    3.07999992    2.44000006
   12.99166679   91.55100250    3.07999992    2.44000006
   12.99472237   92.99800110    3.09999990    2.44000006
   12.99805546   91.39600372    3.16000009    2.44000006
   13.00111103   90.55950165    3.20000005    2.44000006
   13.00444412   92.34300232    3.21000004    2.44000006
   13.00777817   92.81759644    3.21000004    2.42000008
   13.01083374   95.30239868    3.25000000    2.44000006
   13.01416683   92.99019623    3.23000002    2.42000008
   13.01749992   95.59159851    3.23000002    2.46000004
   13.02055550   90.45559692    3.21000004    2.46000004
   13.02388859   90.79119873    3.16000009    2.44000006
   13.02444458   90.21970367    3.16000009    2.44000006
   13.03027725   90.21970367    3.11999989    2.48000002
   13.03444481   90.62020111    3.07999992    2.46000004
   13.03777790  100.14600372    3.05999994    2.46000004
   13.04083347   95.69809723    3.07999992    2.46000004
   13.04416752   94.45400238    3.11999989    2.46000004
   13.04722309   92.42040253    3.11999989    2.46000004
   13.05055618   96.87020111    3.16000009    2.46000004
   13.05388927   92.91680145    3.18000007    2.46000004
   13.05694485   96.41609955    3.20000005    2.46000004
   13.05777836   94.59960175    3.20000005    2.46000004
   13.06083393   90.25779724    3.20000005    2.44000006
   13.06388950   94.53320313    3.18000007    2.46000004
   13.06722260   96.59349823    3.16000009    2.46000004
   13.07305527   96.59349823    3.18000007    2.44000006
   13.07722187   91.34310150    3.14000010    2.46000004
   13.08055592   89.05519867    3.11999989    2.46000004
   13.08361053   87.47339630    3.07999992    2.46000004
   13.08694458   88.05359650    3.05999994    2.48000002
   13.09027767   87.03459930    3.07999992    2.48000002
   13.09111118   84.54409790    3.07999992    2.46000004
   13.09388828   90.73509979    3.07999992    2.44000006
   13.09694386   91.63269806    3.09999990    2.46000004
   13.10027790   90.25869751    3.14000010    2.46000004
   13.10361195   96.89649963    3.18000007    2.46000004
   13.10666752   94.79250336    3.20000005    2.46000004
   13.11000061   91.71340179    3.20000005    2.46000004
   13.11583328   91.71340179    3.18000007    2.46000004
   13.11999989   95.11789703    3.16000009    2.46000004
   13.12333393   95.62789917    3.18000007    2.46000004
   13.12444496   90.44660187    3.18000007    2.48000002
   13.12694454   93.21289825    3.20000005    2.46000004
   13.13000011   92.02899933    3.20000005    2.46000004
   13.13333321   91.26329803    3.21000004    2.46000004
   13.13666630   89.12249756    3.20000005    2.46000004
   13.13972187   90.73829651    3.18000007    2.46000004
   13.14305496   99.34519958    3.18000007    2.46000004
   13.14611053   90.28299713    3.16000009    2.46000004
   13.14944458   89.44270325    3.09999990    2.46000004
   13.15277767   88.45379639    3.07999992    2.46000004
   13.15888882   88.45379639    3.01999998    2.48000002
   13.16305542   94.93080139    3.00000000    2.48000002
   13.16611099   94.49459839    3.01999998    2.48000002
   13.16944504   90.41300201    3.03999996    2.48000002
   13.17250061   92.71389771    3.01999998    2.48000002
   13.17583370   92.74990082    2.98000002    2.48000002
   13.17916679   96.68840027    2.98000002    2.48000002
   13.18222237   99.00910187    2.96000004    2.48000002
   13.18555546   97.59909821    2.98000002    2.48000002
   13.18888855   92.28199768    2.96000004    2.46000004
   13.19111156   99.25879669    2.96000004    2.48000002
   13.19250011   94.35260010    2.96000004    2.48000002
   13.19555569   96.66750336    3.00000000    2.48000002
   13.20166683   96.66750336    3.00000000    2.48000002
   13.20583344   94.17639923    3.00000000    2.48000002
   13.20888901   91.91359711    3.03999996    2.46000004
   13.21222210   90.27210236    3.09999990    2.46000004
   13.21555519  101.23600006    3.11999989    2.46000004
   13.21861076   92.27480316    3.14000010    2.48000002
   13.22194386   95.95629883    3.11999989    2.48000002
   13.22444439   92.07810211    3.11999989    2.48000002
   13.22555542   95.65859985    3.11999989    2.46000004
   13.22861099   93.14179993    3.09999990    2.46000004
   13.23194408   95.56289673    3.09999990    2.46000004
   13.23527813   92.56289673    3.07999992    2.48000002
   13.23833370   92.62889862    3.03999996    2.46000004
   13.24444485   92.62889862    2.98000002    2.48000002
   13.24861145   97.15540314    2.94000006    2.48000002
   13.25194454   98.09470367    2.96000004    2.48000002
   13.25500011   94.78919983    2.96000004    2.48000002
   13.25777817   93.89559937    2.96000004    2.48000002
   13.25888920   95.19190216    2.96000004    2.48000002
   13.26194477  102.33399963    2.94000006    2.48000002
   13.26527786   97.56150055    2.94000006    2.48000002
   13.26861095   93.26609802    2.93000007    2.48000002
   13.27166653   90.22899628    2.86999989    2.50000000
   13.27499962   97.84380341    2.84999990    2.50000000
   13.27805519   99.05989838    2.82999992    2.48000002
   13.28138828   94.34259796    2.80999994    2.50000000
   13.28722286   94.34259796    2.86999989    2.48000002
   13.29138947   96.59230042    2.82999992    2.50000000
   13.29472256   93.07399750    2.78999996    2.48000002
   13.29805565   95.00340271    2.73000002    2.48000002
   13.30111122   98.50540161    2.71000004    2.50000000
   13.30444431   85.59449768    2.71000004    2.50000000
   13.30749989   88.28240204    2.71000004    2.50000000
   13.31083393   90.75520325    2.69000006    2.50000000
   13.31416702   93.95500183    2.69000006    2.50000000
   13.31722260   90.93820190    2.69000006    2.48000002
   13.32055569   96.63259888    2.71000004    2.48000002
   13.32388878   97.49310303    2.71000004    2.50000000
   13.32444477   92.38539886    2.71000004    2.50000000
   13.33027744   92.38539886    2.71000004    2.50000000
   13.33444405   96.05509949    2.66000009    2.50000000
   13.33749962   88.63059998    2.61999989    2.51999998
   13.34083271   86.16909790    2.57999992    2.50000000
   13.34388828   95.38410187    2.55999994    2.50000000
   13.34722233   91.43499756    2.55999994    2.51999998
   13.35055637   94.73500061    2.53999996    2.51999998
   13.35361195   93.68430328    2.51999998    2.51999998
   13.35694504   92.55809784    2.51999998    2.51999998
   13.35777855   91.83360291    2.51999998    2.51999998
   13.36055565   93.19760132    2.50000000    2.51999998
   13.36361122   93.95770264    2.50000000    2.51999998
   13.36694431   95.31849670    2.50000000    2.51999998
   13.37305546   95.31849670    2.51999998    2.51999998
   13.37722206   95.15550232    2.48000002    2.50000000
   13.38027763   90.48690033    2.48000002    2.51999998
   13.38361073   98.13919830    2.46000004    2.51999998
   13.38694477   94.50810242    2.44000006    2.51999998
   13.39000034   93.78209686    2.46000004    2.51999998
   13.39111137   95.42259979    2.46000004    2.51999998
   13.39361095   86.26650238    2.46000004    2.51999998
   13.39666653   86.58630371    2.44000006    2.51999998
   13.39999962   87.59140015    2.44000006    2.51999998
   13.40333271   84.32749939    2.40000010    2.51999998
   13.40638828   91.54270172    2.39000010    2.51999998
   13.40972137   96.97779846    2.39000010    2.53999996
   13.41583252   96.97779846    2.42000008    2.51999998
   13.42000008   92.95079803    2.44000006    2.51999998
   13.42333412   89.75099945    2.48000002    2.51999998
   13.42444515   87.32769775    2.48000002    2.51999998
   13.42694473   93.81050110    2.48000002    2.51999998
   13.43000031   91.44680023    2.44000006    2.51999998
   13.43333340   88.98539734    2.46000004    2.51999998
   13.43666649   89.17910004    2.51999998    2.51999998
   13.43972206   91.76170349    2.53999996    2.51999998
   13.44305515   89.22090149    2.55999994    2.51999998
   13.44638920   92.17849731    2.55999994    2.51999998
   13.44944477   86.92690277    2.55999994    2.51999998
   13.45277786   89.00150299    2.55999994    2.51999998
   13.45861053   89.00150299    2.55999994    2.51999998
   13.46277714   91.51419830    2.55999994    2.51999998
   13.46611118   88.38800049    2.55999994    2.51999998
   13.46944427   86.27839661    2.55999994    2.51999998
   13.47249985   91.17859650    2.55999994    2.51999998
   13.47583294   86.17340088    2.55999994    2.51999998
   13.47916603   90.71269989    2.51999998    2.51999998
   13.48222160   91.56849670    2.53999996    2.51999998
   13.48555565   92.20890045    2.51999998    2.51999998
   13.48888874   90.62729645    2.50000000    2.51999998
   13.49111176   89.11029816    2.50000000    2.51999998
   13.49250031   93.58080292    2.50000000    2.53999996
   13.49555588   90.74739838    2.50000000    2.51999998
   13.50166702   90.74739838    2.51999998    2.53999996
   13.50583363   83.76049805    2.53999996    2.51999998
   13.50888920   91.06259918    2.53999996    2.51999998
   13.51222229   86.26490021    2.55999994    2.51999998
   13.51527786   91.39659882    2.57999992    2.51999998
   13.51861095   93.44229889    2.61999989    2.51999998
   13.52194405   89.24919891    2.64000010    2.51999998
   13.52444458   91.42720032    2.66000009    2.51999998
   13.52555561   87.94850159    2.66000009    2.50000000
   13.52861118   88.05560303    2.66000009    2.51999998
   13.53194427   90.29540253    2.66000009    2.50000000
   13.53527832   86.22810364    2.64000010    2.51999998
   13.53833389   88.66709900    2.59999990    2.51999998
   13.54444504   88.66709900    2.57999992    2.51999998
   13.54861164   87.06469727    2.53999996    2.53999996
   13.55166721   87.15889740    2.48000002    2.53999996
   13.55500031   85.02220154    2.44000006    2.53999996
   13.55777836   87.57640076    2.42000008    2.53999996
   13.55861092   87.48889923    2.42000008    2.53999996
   13.56166649   90.61789703    2.42000008    2.53999996
   13.56500053   89.25309753    2.42000008    2.53999996
   13.56833363   86.19879913    2.40000010    2.53999996
   13.57138920   88.85489655    2.40000010    2.53999996
   13.57472229   87.85800171    2.39000010    2.53999996
   13.57805538   83.03289795    2.40000010    2.53999996
   13.58111095   91.41220093    2.40000010    2.53999996
   13.58722210   91.41220093    2.42000008    2.53999996
   13.59138870   85.95110321    2.40000010    2.53999996
   13.59472179   88.77860260    2.42000008    2.53999996
   13.59777737   90.31199646    2.44000006    2.53999996
   13.60111141   84.69879913    2.46000004    2.53999996
   13.60444450   88.79019928    2.46000004    2.53999996
   13.60750008   93.27189636    2.46000004    2.53999996
   13.61083412   93.26770020    2.48000002    2.55999994
   13.61388969   91.79640198    2.48000002    2.53999996
   13.61722279   88.44090271    2.46000004    2.53999996
   13.62055588   90.58170319    2.44000006    2.53999996
   13.62361145   86.44560242    2.42000008    2.53999996
   13.62444496   89.64749908    2.44000006    2.53999996
   13.63000011   89.64749908    2.44000006    2.53999996
   13.63416672   91.89170074    2.48000002    2.53999996
   13.63749981   85.73320007    2.50000000    2.53999996
   13.64083290   89.90879822    2.50000000    2.55999994
   13.65833282   92.33070374    2.44000006    2.55999994
   13.66055489   99.22660065    2.42000008    2.55999994
   13.66388893   91.07689667    2.40000010    2.55999994
   13.66722298   95.55429840    2.39000010    2.55999994
   13.67305565   95.55429840    2.39000010    2.53999996
   13.67722225   91.93209839    2.39000010    2.55999994
   13.68055630   90.58650208    2.40000010    2.55999994
   13.68361092   90.87930298    2.44000006    2.55999994
   13.68694496   91.47810364    2.46000004    2.55999994
   13.69000053   89.19470215    2.48000002    2.55999994
   13.69138908   94.38639832    2.50000000    2.53999996
   13.69361115   93.72389984    2.50000000    2.55999994
   13.69694424   92.24739838    2.51999998    2.53999996
   13.69999981   92.19860077    2.53999996    2.53999996
   13.70333290   88.49490356    2.53999996    2.53999996
   13.70666695   90.91649628    2.51999998    2.51999998
   13.70972157   88.45970154    2.50000000    2.53999996
   13.71583271   88.45970154    2.46000004    2.55999994
   13.71999931   86.29540253    2.42000008    2.57999992
   13.72333336   86.22699738    2.40000010    2.57999992
   13.72472191   90.39550018    2.39000010    2.55999994
   13.72694397   85.20500183    2.34999990    2.55999994
   13.73027706   86.94480133    2.32999992    2.55999994
   13.73333359   91.26329803    2.32999992    2.55999994
   13.73666668   92.55699921    2.32999992    2.53999996
   13.74000072   91.54229736    2.32999992    2.55999994
   13.74305534   92.66670227    2.30999994    2.57999992
   13.74638939   84.79709625    2.30999994    2.55999994
   13.74944496   88.36160278    2.28999996    2.55999994
   13.75277805   90.32440186    2.26999998    2.55999994
   13.75888920   90.32440186    2.25000000    2.55999994
   13.76277733   89.14479828    2.23000002    2.55999994
   13.76611137   90.60209656    2.23000002    2.53999996
   13.76944447   92.57790375    2.25000000    2.55999994
   13.77250004   87.20459747    2.23000002    2.55999994
   13.77583313   90.39959717    2.23000002    2.55999994
   13.77916622   89.59239960    2.23000002    2.57999992
   13.78222179   87.96279907    2.23000002    2.55999994
   13.78555584   86.60320282    2.21000004    2.57999992
   13.78861141   88.90699768    2.19000006    2.57999992
   13.79166698   90.47429657    2.19000006    2.55999994
   13.79222298   93.78070068    2.19000006    2.57999992
   13.79555607   82.30740356    2.19000006    2.55999994
   13.80166721   82.30740356    2.25000000    2.57999992
   13.80583382   91.79979706    2.28999996    2.55999994
   13.80888939   87.91989899    2.32999992    2.55999994
   13.81222248   91.52380371    2.36999989    2.55999994
   13.81555557   90.90059662    2.40000010    2.55999994
   13.81861115   81.21769714    2.42000008    2.55999994
   13.82194424   86.08779907    2.42000008    2.55999994
   13.82499981   93.63200378    2.42000008    2.57999992
   13.82555580   83.76229858    2.40000010    2.55999994
   13.82888889   95.70780182    2.39000010    2.57999992
   13.83194447   88.23739624    2.34999990    2.57999992
   13.83527756   84.82140350    2.34999990    2.55999994
   13.83861065   84.49230194    2.32999992    2.55999994
   13.84444427   84.49230194    2.28999996    2.57999992
   13.84861088   89.97129822    2.26999998    2.57999992
   13.85194492   92.66359711    2.25000000    2.57999992
   13.85500050   88.01940155    2.25000000    2.55999994
   13.85833359   90.05740356    2.25000000    2.57999992
   13.85861111   88.19129944    2.25000000    2.57999992
   13.86194515   83.80629730    2.23000002    2.57999992
   13.86500072   86.29170227    2.23000002    2.57999992
   13.86833382   84.90190125    2.23000002    2.57999992
   13.87166691   83.27919769    2.23000002    2.55999994
   13.87472248   94.54910278    2.19000006    2.57999992
   13.87805557   85.93319702    2.17000008    2.55999994
   13.88138866   88.02120209    2.15000010    2.57999992
   13.88722229   88.02120209    2.11999989    2.57999992
   13.89138889   92.06629944    2.07999992    2.57999992
   13.89194393   93.42620087    2.07999992    2.57999992
   13.89527798   96.50140381    2.07999992    2.59999990
   13.89833355   89.36260223    2.07999992    2.57999992
   13.90166664   89.43869781    2.09999990    2.57999992
   13.90499973   86.43730164    2.11999989    2.59999990
   13.90805531   94.26480103    2.13000011    2.57999992
   13.91138840   94.40899658    2.13000011    2.57999992
   13.91472149   88.35240173    2.13000011    2.59999990
   13.91777802   92.17510223    2.13000011    2.59999990
   13.92111111   94.45870209    2.11999989    2.59999990
   13.92444515   93.15460205    2.09999990    2.59999990
   13.92527771   91.17259979    2.09999990    2.57999992
   13.93027782   91.17259979    2.07999992    2.59999990
   13.93416691   92.14019775    2.07999992    2.57999992
   13.93750000   86.06169891    2.09999990    2.59999990
   13.94083309   90.80889893    2.13000011    2.57999992
   13.94388866   90.04489899    2.15000010    2.55999994
   13.94722271   91.48429871    2.15000010    2.57999992
   13.95055580   88.67240143    2.19000006    2.59999990
   13.95361137   97.43190002    2.21000004    2.59999990
   13.95694447   87.10559845    2.21000004    2.57999992
   13.95861053   86.19290161    2.23000002    2.59999990
   13.96055508   88.65799713    2.25000000    2.55999994
   13.96361065   90.41020203    2.26999998    2.57999992
   13.96694374   88.44680023    2.28999996    2.57999992
   13.97305489   88.44680023    2.30999994    2.57999992
   13.97722149   87.09349823    2.32999992    2.57999992
   13.98027706   85.77390289    2.36999989    2.55999994
   13.98361111   84.55690002    2.39000010    2.57999992
   13.98694515   83.73500061    2.40000010    2.55999994
   13.99000072   82.81079865    2.42000008    2.55999994
   13.99194431   86.27619934    2.42000008    2.57999992
   13.99361134   85.17539978    2.40000010    2.57999992
   13.99666691   83.31590271    2.40000010    2.57999992
   14.00000000   91.74929810    2.36999989    2.55999994
   14.00333309   85.01339722    2.32999992    2.57999992
   14.00638866   85.60559845    2.26999998    2.57999992
   14.00972176   84.99490356    2.25000000    2.57999992
   14.01583290   84.99490356    2.19000006    2.59999990
   14.01999950   84.18620300    2.13000011    2.57999992
   14.02333355   88.88970184    2.11999989    2.59999990
   14.02527714   85.96589661    2.11999989    2.59999990
   14.02694416   86.47200012    2.09999990    2.59999990
   14.02999973   86.40979767    2.09999990    2.57999992
   14.03333378   86.51100159    2.11999989    2.59999990
   14.03666687   83.32409668    2.17000008    2.59999990
   14.03972244   84.28040314    2.23000002    2.57999992
   14.04305553   82.42680359    2.25000000    2.57999992
   14.04611111   85.73750305    2.25000000    2.57999992
   14.04944515   88.07489777    2.25000000    2.57999992
   14.05277824   86.56629944    2.25000000    2.57999992
   14.05861092   86.56629944    2.25000000    2.59999990
   14.06277752   86.63069916    2.23000002    2.57999992
   14.06611156   90.11669922    2.19000006    2.59999990
   14.06916618   84.93520355    2.17000008    2.59999990
   14.07250023   86.90809631    2.15000010    2.59999990
   14.07583332   86.76879883    2.13000011    2.59999990
   14.07888889   90.50499725    2.09999990    2.57999992
   14.08222198   85.89209747    2.07999992    2.59999990
   14.08555508   86.47470093    2.05999994    2.59999990
   14.08861065   92.89109802    2.03999996    2.59999990
   14.09194374   91.35829926    2.01999998    2.59999990
   14.09249973   89.64289856    2.01999998    2.59999990
   14.09555531   84.99549866    2.00000000    2.59999990
   14.10166740   84.99549866    2.05999994    2.59999990
   14.10555553   90.26799774    2.07999992    2.59999990
   14.10888958   85.26969910    2.05999994    2.59999990
   14.11222267   97.51999664    2.05999994    2.59999990
   14.11527824   84.78089905    2.05999994    2.59999990
   14.11861134   88.77159882    2.07999992    2.61999989
   14.12194443   85.21289825    2.07999992    2.59999990
   14.12500000   90.08180237    2.07999992    2.57999992
   14.12555599   88.54309845    2.07999992    2.57999992
   14.12888908   87.24289703    2.09999990    2.59999990
   14.13194466   90.23529816    2.09999990    2.59999990
   14.13527775   91.64610291    2.11999989    2.59999990
   14.13833332   88.80780029    2.13000011    2.59999990
   14.14444447   88.80780029    2.13000011    2.59999990
   14.14861107   84.43399811    2.15000010    2.59999990
   14.15166664   87.90989685    2.15000010    2.59999990
   14.15499973   89.47049713    2.15000010    2.61999989
   14.15833282   87.97250366    2.15000010    2.59999990
   14.15888882   85.76239777    2.15000010    2.59999990
   14.16194439   86.34400177    2.15000010    2.59999990
   14.16499996   86.91960144    2.15000010    2.59999990
   14.16833401   84.53900146    2.13000011    2.59999990
   14.17166710   84.99109650    2.11999989    2.61999989
   14.17472267   92.27259827    2.11999989    2.59999990
   14.17805576   92.02050018    2.13000011    2.59999990
   14.18138885   91.25569916    2.15000010    2.59999990
   14.18722248   91.25569916    2.15000010    2.57999992
   14.19138908   87.13839722    2.15000010    2.59999990
   14.19222260   91.66000366    2.15000010    2.59999990
   14.19499969   82.39119720    2.15000010    2.59999990
   14.19805527   91.51290131    2.15000010    2.59999990
   14.20138836   89.69850159    2.13000011    2.59999990
   14.20472240   91.18609619    2.11999989    2.59999990
   14.20777798   84.61869812    2.11999989    2.61999989
   14.21111107   83.95439911    2.09999990    2.59999990
   14.21416664   83.35549927    2.09999990    2.59999990
   14.21749973   83.59600067    2.09999990    2.59999990
   14.22083282   82.16709900    2.09999990    2.59999990
   14.22388840   84.43080139    2.09999990    2.61999989
   14.22555542   87.46549988    2.09999990    2.59999990
   14.22999954   87.46549988    2.07999992    2.59999990
   14.23416710   83.63220215    2.07999992    2.61999989
   14.23750019   80.82869720    2.07999992    2.59999990
   14.24055576   86.98169708    2.03999996    2.61999989
   14.24388885   86.40329742    2.03999996    2.61999989
   14.24722290   85.27799988    2.03999996    2.61999989
   14.25055599   84.59940338    2.05999994    2.61999989
   14.25361156   83.94120026    2.05999994    2.61999989
   14.25694466   84.42389679    2.03999996    2.61999989
   14.25888920   87.00000000    2.03999996    2.61999989
   14.26055527   81.40049744    2.01999998    2.61999989
   14.26361084   88.06089783    2.00000000    2.61999989
   14.26694393   84.98840332    1.96000004    2.61999989
   14.27305508   84.98840332    1.94000006    2.59999990
   14.27694416   87.05860138    1.94000006    2.59999990
   14.28027725   84.52290344    1.91999996    2.59999990
   14.28361130   84.34809875    1.91999996    2.61999989
   14.28666687   83.68260193    1.94000006    2.61999989
   14.29000092   80.83920288    1.94000006    2.61999989
   14.29222298   83.94029999    1.94000006    2.61999989
   14.29361153   85.53050232    1.94000006    2.61999989
   14.29666710   81.24990082    1.94000006    2.61999989
   14.30000019   82.22949982    1.96000004    2.61999989
   14.30333328   88.39610291    1.96000004    2.61999989
   14.30638885   85.50939941    1.96000004    2.61999989
   14.30972195   83.21640015    1.96000004    2.61999989
   14.31583309   83.21640015    1.96000004    2.64000010
   14.31999969   84.11820221    1.94000006    2.61999989
   14.32305527   91.64759827    1.94000006    2.59999990
   14.32555580   91.47889709    1.94000006    2.59999990
   14.32694435   87.18180084    1.94000006    2.59999990
   14.32999992   88.56469727    1.94000006    2.61999989
   14.33333302   87.18959808    1.91999996    2.61999989
   14.33666611   87.01689911    1.94000006    2.64000010
   14.33972168   82.92659760    1.96000004    2.64000010
   14.34305477   83.74700165    1.96000004    2.61999989
   14.34638882   78.10179901    2.00000000    2.61999989
   14.34944439   85.39890289    2.03999996    2.61999989
   14.35277843   86.73819733    2.05999994    2.61999989
   14.35861111   86.73819733    2.09999990    2.61999989
   14.36277771   88.20269775    2.09999990    2.61999989
   14.36611176   87.71880341    2.11999989    2.59999990
   14.36916637   81.93900299    2.13000011    2.61999989
   14.37250042   83.48709869    2.13000011    2.61999989
   14.37555599   78.84680176    2.15000010    2.61999989
   14.37888908   80.15239716    2.13000011    2.59999990
   14.38222218   84.87429810    2.13000011    2.61999989
   14.38527775   80.27279663    2.11999989    2.61999989
   14.38861084   83.76760101    2.09999990    2.61999989
   14.39194393   84.39669800    2.07999992    2.61999989
   14.39361095   84.28659821    2.07999992    2.59999990
   14.39555550   87.48699951    2.07999992    2.61999989
   14.40138817   87.48699951    2.03999996    2.59999990
   14.40555477   84.00499725    2.03999996    2.61999989
   14.40888882   84.90450287    2.03999996    2.61999989
   14.41222191   89.22229767    2.01999998    2.61999989
   14.41527748   82.02880096    2.01999998    2.61999989
   14.41861153   78.78600311    2.03999996    2.59999990
   14.42194462   82.67929840    2.03999996    2.59999990
   14.42500019   85.50180054    2.05999994    2.61999989
   14.42694473   84.45539856    2.05999994    2.61999989
   14.42888927   80.17630005    2.03999996    2.61999989
   14.43194485   82.70659637    2.01999998    2.61999989
   14.43527794   81.09539795    2.01999998    2.59999990
   14.43861103   89.18900299    2.00000000    2.61999989
   14.44444466   89.18900299    2.00000000    2.61999989
   14.44833374   83.84850311    1.96000004    2.64000010
   14.45166683   87.13800049    1.94000006    2.59999990
   14.45499992   83.24780273    1.89999998    2.64000010
   14.45805550   87.78620148    1.89999998    2.61999989
   14.46055508   80.13970184    1.86000001    2.64000010
   14.46166611   83.50189972    1.85000002    2.61999989
   14.46500015   84.92430115    1.83000004    2.61999989
   14.46833324   80.77149963    1.80999994    2.61999989
   14.47138882   90.25109863    1.80999994    2.61999989
   14.47472191   83.71949768    1.80999994    2.61999989
   14.47805500   87.04969788    1.78999996    2.64000010
   14.48111057   84.78309631    1.78999996    2.64000010
   14.48722267   84.78309631    1.80999994    2.64000010
   14.49138927   83.09809875    1.85000002    2.64000010
   14.49388885   79.77400208    1.85000002    2.64000010
   14.49472237   81.03919983    1.85000002    2.64000010
   14.49805546   85.18379974    1.86000001    2.66000009
   14.50138855   78.04889679    1.88000000    2.61999989
   14.50444412   85.77310181    1.89999998    2.64000010
   14.50777817   82.45619965    1.89999998    2.61999989
   14.51111126   81.64070129    1.94000006    2.64000010
   14.51416683   84.00209808    1.94000006    2.64000010
   14.51749992   80.59729767    1.94000006    2.64000010
   14.52055550   81.16600037    1.94000006    2.64000010
   14.52388859   85.62860107    1.94000006    2.61999989
   14.52999973   85.62860107    1.91999996    2.64000010
   14.53416729   81.87940216    1.89999998    2.64000010
   14.53750038   81.28880310    1.89999998    2.64000010
   14.54055595   78.82270050    1.88000000    2.61999989
   14.54388905   89.20829773    1.89999998    2.61999989
   14.54694462   84.72530365    1.89999998    2.61999989
   14.55027771   84.45970154    1.89999998    2.61999989
   14.55361176   84.92549896    1.89999998    2.64000010
   14.55666733   83.56700134    1.89999998    2.66000009
   14.56000042   82.36060333    1.89999998    2.64000010
   14.56083393   83.95850372    1.89999998    2.64000010
   14.56361103   79.57689667    1.88000000    2.64000010
   14.56694412   78.94049835    1.88000000    2.64000010
   14.57277775   78.94049835    1.88000000    2.64000010
   14.57694435   85.39019775    1.85000002    2.61999989
   14.58027744   83.53970337    1.86000001    2.64000010
   14.58361053   78.40419769    1.85000002    2.64000010
   14.58666611   80.63819885    1.83000004    2.64000010
   14.59000015   80.02850342    1.85000002    2.64000010
   14.59333324   80.54109955    1.85000002    2.64000010
   14.59416676   86.90869904    1.85000002    2.64000010
   14.59722233   86.57340240    1.86000001    2.64000010
   14.60027790   83.32669830    1.89999998    2.64000010
   14.60361195   81.42970276    1.91999996    2.64000010
   14.60666752   81.62830353    1.91999996    2.64000010
   14.61000061   81.61070251    1.98000002    2.64000010
   14.61583328   81.61070251    1.98000002    2.61999989
   14.61999989   86.09799957    1.98000002    2.64000010
   14.62305546   90.15779877    1.98000002    2.64000010
   14.62638855   83.80619812    1.98000002    2.64000010
   14.62777805   84.99759674    1.98000002    2.64000010
   14.63000011   82.68669891    1.96000004    2.64000010
   14.63305569   83.12940216    1.94000006    2.64000010
   14.63638878   85.47840118    1.91999996    2.61999989
   14.63972187   86.58630371    1.88000000    2.61999989
   14.64277744   88.01599884    1.86000001    2.64000010
   14.64611053   84.43560028    1.86000001    2.64000010
   14.64944458   87.53450012    1.85000002    2.61999989
   14.65249920   86.92749786    1.86000001    2.64000010
   14.65861034   86.92749786    1.88000000    2.64000010
   14.67694473   91.37349701    1.91999996    2.64000010
   14.68027782   88.78859711    1.91999996    2.64000010
   14.68361092   84.92690277    1.91999996    2.61999989
   14.68666649   81.23739624    1.89999998    2.64000010
   14.69000053   86.68990326    1.91999996    2.64000010
   14.69305515   84.60749817    2.03999996    2.61999989
   14.69638920   83.60079956    2.05999994    2.64000010
   14.70166683   83.60079956    2.05999994    2.61999989
   14.70583344   86.15339661    2.09999990    2.61999989
   14.70916653   83.12969971    2.09999990    2.61999989
   14.71000004   85.49130249    2.09999990    2.64000010
   14.71277714   82.34790039    2.07999992    2.61999989
   14.71583271   87.23159790    2.05999994    2.61999989
   14.71916580   81.43479919    2.03999996    2.64000010
   14.72249985   82.94560242    2.00000000    2.64000010
   14.72555542   84.19069672    1.98000002    2.64000010
   14.72888851   82.51760101    1.96000004    2.64000010
   14.73194408   84.79779816    1.94000006    2.61999989
   14.73527813   82.92759705    1.91999996    2.64000010
   14.73861122   84.62899780    1.91999996    2.64000010
   14.74444485   84.62899780    1.91999996    2.61999989
   14.74861145   86.84739685    1.94000006    2.66000009
   14.75194454   83.97149658    1.94000006    2.66000009
   14.75500011   91.17189789    1.98000002    2.64000010
   14.75833321   91.80049896    2.05999994    2.61999989
   14.76166630   92.23860168    2.09999990    2.64000010
   14.76500034   88.04599762    2.11999989    2.64000010
   14.76805496   94.92639923    2.11999989    2.64000010
   14.77138901   85.02919769    2.09999990    2.64000010
   14.77472210   86.92389679    2.07999992    2.61999989
   14.77666664   88.62779999    2.09999990    2.64000010
   14.77833271   88.08750153    2.07999992    2.61999989
   14.78138828   80.32379913    2.05999994    2.64000010
   14.78722286   80.32379913    2.09999990    2.64000010
   14.79138947   91.81710052    2.07999992    2.61999989
   14.79472256   89.62090302    2.03999996    2.64000010
   14.79805565   89.12079620    2.03999996    2.64000010
   14.80111122   88.58470154    2.01999998    2.64000010
   14.80444431   86.88279724    2.00000000    2.64000010
   14.80777836   88.53820038    2.00000000    2.64000010
   14.81000042   82.25740051    2.00000000    2.61999989
   14.81138897   85.38800049    2.00000000    2.64000010
   14.81444454   83.06420135    2.00000000    2.64000010
   14.81777763   88.27980042    2.00000000    2.64000010
   14.82111073   90.32530212    2.00000000    2.64000010
   14.82416630   81.75949860    1.98000002    2.64000010
   14.83027744   81.75949860    1.98000002    2.64000010
   14.83444405   84.04080200    1.96000004    2.64000010
   14.83749962   84.36070251    1.94000006    2.66000009
   14.84083271   84.07119751    1.94000006    2.64000010
   14.84333324   89.22509766    2.01999998    2.64000010
   14.84444427   88.66860199    2.01999998    2.64000010
   14.84777737   91.43209839    2.03999996    2.64000010
   14.85083389   85.72540283    2.03999996    2.64000010
   14.85416698   88.26689911    2.03999996    2.64000010
   14.85750008   88.09220123    2.05999994    2.61999989
   14.86055565   89.82659912    2.07999992    2.64000010
   14.86388969   88.93199921    2.07999992    2.64000010
   14.86694431   91.01760101    2.05999994    2.64000010
   14.87305546   91.01760101    2.05999994    2.64000010
   14.87722206   92.20500183    2.05999994    2.61999989
   14.88055611   81.40720367    2.03999996    2.64000010
   14.88361073   88.97689819    2.05999994    2.64000010
   14.88694477   88.42829895    2.05999994    2.64000010
   14.89000034   85.55680084    2.07999992    2.61999989
   14.89333344   86.95459747    2.09999990    2.64000010
   14.89666653   83.14749908    2.11999989    2.64000010
   14.89972210   87.37449646    2.13000011    2.64000010
   14.90305519   83.35050201    2.15000010    2.61999989
   14.90638828   86.94280243    2.17000008    2.61999989
   14.90944386   83.41989899    2.17000008    2.64000010
   14.90999985   85.94879913    2.17000008    2.64000010
   14.91583252   85.94879913    2.15000010    2.61999989
   14.92000008   86.25000000    2.15000010    2.64000010
   14.92333412   84.84010315    2.13000011    2.64000010
   14.92638874   90.92900085    2.09999990    2.64000010
   14.92972279   87.52739716    2.09999990    2.64000010
   14.93305588   77.46730042    2.09999990    2.64000010
   14.93611145   77.23619843    2.09999990    2.64000010
   14.93944454   85.97689819    2.11999989    2.64000010
   14.94277763   87.52600098    2.17000008    2.66000009
   14.94333363   84.69049835    2.19000006    2.64000010
   14.94638920   84.08200073    2.21000004    2.64000010
   14.94944477   84.04879761    2.23000002    2.61999989
   14.95277786   86.75229645    2.25000000    2.64000010
   14.95861053   86.75229645    2.28999996    2.64000010
   14.96277714   84.80889893    2.26999998    2.64000010
   14.96611118   90.02570343    2.25000000    2.66000009
   14.96916580   88.27380371    2.25000000    2.64000010
   14.97249985   85.61419678    2.23000002    2.64000010
   14.97583294   86.62950134    2.17000008    2.64000010
   14.97666645   82.58869934    2.17000008    2.64000010
   14.97944355   83.71869659    2.13000011    2.64000010
   14.98249912   83.25050354    2.11999989    2.64000010
   14.98583317   79.44750214    2.07999992    2.66000009
   14.98916721   84.42410278    2.03999996    2.66000009
   14.99222279   80.56649780    2.01999998    2.66000009
   14.99555588   82.48120117    2.00000000    2.66000009
   15.00166702   82.48120117    1.96000004    2.66000009
   15.00583363   77.18599701    1.96000004    2.66000009
   15.00888920   88.63490295    1.94000006    2.66000009
   15.01000023   80.86599731    1.94000006    2.66000009
   15.01249981   85.32109833    1.94000006    2.66000009
   15.01555538   83.49629974    1.94000006    2.66000009
   15.01888847   85.20670319    1.94000006    2.66000009
   15.02222157   82.23159790    1.94000006    2.66000009
   15.02527714   82.15850067    1.91999996    2.66000009
   15.02861118   85.55809784    1.91999996    2.64000010
   15.03194427   86.46910095    1.94000006    2.66000009
   15.03500080   86.13249969    1.94000006    2.66000009
   15.03833389   84.73419952    2.01999998    2.66000009
   15.04444504   84.73419952    2.01999998    2.66000009
   15.04861164   88.84700012    2.03999996    2.66000009
   15.05194473   80.08370209    2.05999994    2.64000010
   15.05500031   82.64540100    2.05999994    2.64000010
   15.05833340   80.55889893    2.09999990    2.64000010
   15.06138897   79.40000153    2.09999990    2.64000010
   15.06472206   82.22940063    2.09999990    2.64000010
   15.06805515   81.91539764    2.09999990    2.64000010
   15.07111073   86.86650085    2.07999992    2.66000009
   15.07444477   80.96990204    2.07999992    2.64000010
   15.07666683   82.83070374    2.05999994    2.64000010
   15.07805538   81.94100189    2.05999994    2.64000010
   15.08138847   84.94129944    2.03999996    2.66000009
   15.08722210   84.94129944    1.98000002    2.66000009
   15.09138870   83.01509857    1.98000002    2.64000010
   15.09472179   89.39589691    1.98000002    2.66000009
   15.09777737   84.47869873    1.96000004    2.66000009
   15.20083332   -1.00000000   -1.00000000   -1.00000000
   15.29888916   -1.00000000   -1.00000000   -1.00000000
   15.40444374   -1.00000000   -1.00000000   -1.00000000
   15.45666695  121.63999939    1.98000002    2.67000008
   15.45972157  112.11900330    1.96000004    2.66000009
   15.46305561  101.78500366    1.96000004    2.66000009
   15.46638870  101.85700226    1.94000006    2.66000009
   15.46944427   96.94969940    1.94000006    2.66000009
   15.47277737   96.87999725    1.91999996    2.67000008
   15.47694397   96.87999725    1.89999998    2.66000009
   15.48083305   94.71810150    1.89999998    2.67000008
   15.48416710   97.94329834    1.89999998    2.67000008
   15.48750019   87.30660248    1.85000002    2.66000009
   15.48972225   89.35479736    1.85000002    2.67000008
   15.49111176   91.57160187    1.85000002    2.67000008
   15.49444485   86.86640167    1.85000002    2.67000008
   15.49750042   96.43170166    1.83000004    2.67000008
   15.50083351   89.90110016    1.80999994    2.66000009
   15.50388908   88.10649872    1.83000004    2.66000009
   15.50722218   89.40650177    1.83000004    2.66000009
   15.51055527   90.59649658    1.85000002    2.67000008
   15.51361084   89.40879822    1.83000004    2.67000008
   15.51972198   89.40879822    1.78999996    2.67000008
   15.52388859   89.92839813    1.80999994    2.67000008
   15.52722168   94.28869629    1.80999994    2.67000008
   15.53027725   89.44390106    1.86000001    2.67000008
   15.53361130   91.05419922    1.86000001    2.67000008
   15.53666687   86.38069916    1.89999998    2.69000006
   15.54000092   94.39739990    2.05999994    2.67000008
   15.54333401  100.84200287    2.17000008    2.67000008
   15.54638958   99.82990265    2.39000010    2.67000008
   15.54972267   96.72190094    2.53999996    2.67000008
   15.55305576   83.77870178    2.05999994    2.67000008
   15.55611134  101.21099854    1.96000004    2.67000008
   15.55666733   98.71140289    1.98000002    2.67000008
   15.56250000   98.71140289    1.86000001    2.66000009
   15.56666660   99.12380219    1.89999998    2.67000008
   15.56999969   92.59519958    1.89999998    2.67000008
   15.57305527   89.64160156    1.91999996    2.67000008
   15.57638836   89.03500366    1.91999996    2.67000008
   15.57944393   98.62220001    1.86000001    2.69000006
   15.58277798   94.97740173    1.86000001    2.67000008
   15.58611107   93.51629639    1.86000001    2.67000008
   15.58916664   85.34600067    1.85000002    2.67000008
   15.59000015   88.28479767    1.85000002    2.67000008
   15.59305477   87.50299835    1.85000002    2.67000008
   15.59611034   89.56410217    1.83000004    2.67000008
   15.59944439   86.66510010    1.83000004    2.67000008
   15.60527802   86.66510010    1.78999996    2.66000009
   15.60944462   91.32070160    1.78999996    2.66000009
   15.61277771   88.41269684    1.80999994    2.67000008
   15.61611176   91.14430237    1.83000004    2.66000009
   15.61916637   89.93550110    1.83000004    2.66000009
   15.62250042   89.88549805    1.83000004    2.66000009
   15.62333393   84.70010376    1.89999998    2.67000008
   15.62611103   92.07969666    1.89999998    2.67000008
   15.62916660   96.92420197    1.75000000    2.67000008
   15.63249969   91.41919708    1.71000004    2.67000008
   15.63583279   91.07199860    1.71000004    2.67000008
   15.63888836  104.46499634    1.71000004    2.67000008
   15.64222240   91.31990051    1.71000004    2.66000009
   15.64833355   91.31990051    1.73000002    2.66000009
   15.65222168   93.66909790    1.76999998    2.67000008
   15.65555477   98.38649750    1.75000000    2.67000008
   15.65666676   95.39320374    1.75000000    2.67000008
   15.65916634   95.39350128    1.76999998    2.67000008
   15.66222191   89.81500244    1.76999998    2.67000008
   15.66555500   90.54560089    1.78999996    2.67000008
   15.66888905   96.06449890    1.78999996    2.67000008
   15.67194462   93.47250366    1.78999996    2.67000008
   15.67527771   95.12460327    1.83000004    2.66000009
   15.67861176   93.23459625    1.86000001    2.66000009
   15.68166733   89.81649780    1.91999996    2.66000009
   15.68500042  100.82399750    1.86000001    2.67000008
   15.69111156  100.82399750    1.80999994    2.67000008
   15.69527817   99.62049866    1.78999996    2.67000008
   15.69833374   97.74579620    1.80999994    2.66000009
   15.70166683   96.79699707    1.80999994    2.67000008
   15.70499992   92.96890259    1.80999994    2.67000008
   15.70805550   91.46489716    1.80999994    2.67000008
   15.71138859   93.99109650    1.78999996    2.67000008
   15.71444416   99.87879944    1.78999996    2.66000009
   15.71777725   91.06819916    1.80999994    2.67000008
   15.72111034   89.37989807    1.83000004    2.67000008
   15.72333336   83.29160309    1.83000004    2.67000008
   15.72472191   88.37239838    1.85000002    2.67000008
   15.72777748   94.30039978    1.85000002    2.67000008
   15.73388958   94.30039978    1.85000002    2.66000009
   15.73805618   97.59929657    1.83000004    2.67000008
   15.74138927   89.54309845    1.83000004    2.67000008
   15.74444485   88.26399994    1.78999996    2.67000008
   15.74777794   94.69770050    1.78999996    2.67000008
   15.75083351   96.95480347    1.78999996    2.67000008
   15.75416660   92.08689880    1.80999994    2.67000008
   15.75666714   93.16220093    1.83000004    2.67000008
   15.75777817   96.13400269    1.83000004    2.67000008
   15.76083374   90.89009857    1.86000001    2.67000008
   15.76416683   86.62329865    1.88000000    2.67000008
   15.76749992   95.88349915    1.89999998    2.67000008
   15.77055550   86.41439819    1.89999998    2.67000008
   15.77666664   86.41439819    1.89999998    2.67000008
   15.78083324   92.10119629    1.94000006    2.67000008
   15.78416729   93.67720032    1.88000000    2.67000008
   15.78722286   88.80059814    1.85000002    2.67000008
   15.79000092   92.75689697    1.85000002    2.67000008
   15.79111195   89.39990234    1.85000002    2.67000008
   15.79416752   87.59999847    2.19000006    2.67000008
   15.79750061   85.39160156    1.78999996    2.67000008
   15.80083370   92.12180328    1.73000002    2.69000006
   15.80388927   92.96659851    1.71000004    2.67000008
   15.80722237   91.75939941    1.71000004    2.69000006
   15.81027794   84.05020142    1.71000004    2.67000008
   15.81361103   92.27249908    1.71000004    2.67000008
   15.81972218   92.27249908    2.36999989    2.66000009
   15.82361126   88.66510010    1.98000002    2.67000008
   15.82694435   88.56849670    1.98000002    2.67000008
   15.83027744   88.36319733    1.85000002    2.67000008
   15.83333302   93.11849976    1.83000004    2.67000008
   15.83666611   88.68910217    1.83000004    2.67000008
   15.84000015   93.65699768    1.98000002    2.69000006
   15.84305477   88.53610229    2.78999996    2.64000010
   15.84638882   93.50969696    2.98000002    2.64000010
   15.84972191   87.66899872    3.25000000    2.66000009
   15.85277843   87.64720154    2.32999992    2.67000008
   15.85611153   90.40190125    2.34999990    2.67000008
   15.85666752   92.26380157    2.39000010    2.67000008
   15.86250019   92.26380157    3.21000004    2.66000009
   15.86666679   88.67680359    2.93000007    2.67000008
   15.86972237   85.90280151    2.28999996    2.67000008
   15.87305546   87.83619690    2.53999996    2.67000008
   15.87638855   94.78589630    4.53000021    2.61999989
   15.87944412   92.58350372    4.90999985    2.53999996
   15.88277817   89.40830231    4.51000023    2.66000009
   15.88583279   92.81120300    4.42999983    2.66000009
   15.88916683   92.16600037    4.90999985    2.46000004
   15.89000034   91.14330292    4.90999985    2.67000008
   15.89277744   89.28089905    4.90999985    2.59999990
   15.89583302   88.77300262    4.90999985    2.64000010
   15.89916611   89.43450165    4.36999989    2.66000009
   15.90527725   89.43450165    3.26999998    2.67000008
   15.90944386   93.60980225    3.61999989    2.67000008
   15.91277695   85.06729889    4.90999985    2.64000010
   15.91583252   91.99970245    3.55999994    2.66000009
   15.91916656   91.56050110    3.16000009    2.64000010
   15.92222214   87.82990265    4.23999977    2.66000009
   15.92333412   91.03489685    4.86999989    2.66000009
   15.92611122   94.94779968    4.78000021    2.66000009
   15.92916679   98.22450256    4.90999985    2.66000009
   15.93249989   89.04450226    4.90999985    2.44000006
   15.93583298   96.07599640    4.90999985    2.61999989
   15.93888855   86.43360138    4.84999990    2.64000010
   15.94222260   85.13259888    4.69999981    2.66000009
   15.94805527   85.13259888    4.19999981    2.66000009
   15.95222187   97.37550354    4.90999985    2.67000008
   15.95555496   88.54989624    4.90999985    2.55999994
   15.95666695   98.29910278    4.90999985    2.57999992
   15.95916653   92.90589905    4.84999990    2.61999989
   15.96222210  100.88800049    4.90999985    2.61999989
   15.96555519   89.94660187    4.90999985    2.59999990
   15.96888828   89.55059814    4.57999992    2.67000008
   15.97194386   86.28649902    4.90999985    2.59999990
   15.97527695   84.46489716    4.36999989    2.59999990
   15.97861099   83.55660248    2.93000007    2.64000010
   15.98166656   85.39489746    2.19000006    2.67000008
   15.98500061   92.68710327    2.76999998    2.64000010
   15.99111176   92.68710327    3.09999990    2.67000008
   15.99499989   84.39019775    3.70000005    2.57999992
   15.99833393   89.79509735    3.09999990    2.67000008
   16.00166702   93.82969666    3.50000000    2.69000006
   16.00472260   94.70020294    4.90999985    2.64000010
   16.00805473   98.18630219    4.90999985    2.48000002
   16.01138878   92.25589752    4.90999985    2.51999998
   16.01444435  102.43900299    4.90999985    2.57999992
   16.01777840  100.33300018    4.90999985    2.50000000
   16.02111053   90.88899994    4.90999985    2.53999996
   16.02333260  100.88200378    4.90999985    2.46000004
   16.02472115  100.44000244    4.90999985    2.64000010
   16.02777672   88.33239746    4.90999985    2.57999992
   16.03388786   88.33239746    4.90999985    2.55999994
   16.03805542   88.86530304    4.90999985    2.64000010
   16.04111099   92.59999847    4.90999985    2.57999992
   16.04444313   89.26640320    4.90999985    2.64000010
   16.04777718   94.84580231    4.32999992    2.61999989
   16.05083275   91.53800201    3.70000005    2.66000009
   16.05416679   93.63719940    4.90999985    2.57999992
   16.05666542  105.94400024    3.32999992    2.69000006
   16.05777740  105.24400330    3.91000009    2.64000010
   16.06083298  111.50399780    4.90999985    2.55999994
   16.06416512  110.37500000    4.90999985    2.59999990
   16.06750107   97.87989807    4.90999985    2.64000010
   16.07055664  117.31099701    4.73999977    2.59999990
   16.07666779  117.31099701    3.57999992    2.66000009
   16.08083344  116.30000305    4.78000021    2.57999992
   16.08416748  106.87799835    3.70000005    2.66000009
   16.08722305  120.01699829    4.86999989    2.64000010
   16.09000015  115.14600372    3.95000005    2.66000009
   16.09083366  114.16300201    2.71000004    2.67000008
   16.09388924  122.94000244    2.21000004    2.67000008
   16.09722328  119.33899689    2.32999992    2.69000006
   16.10055542  105.63099670    2.32999992    2.69000006
   16.10361099  112.39499664    2.09999990    2.67000008
   16.10694504  108.48100281    2.09999990    2.69000006
   16.11027908  102.04199982    2.03999996    2.67000008
   16.11333466   96.37400055    2.28999996    2.66000009
   16.11944389   96.37400055    1.91999996    2.67000008
   16.12361145   90.46730042    1.71000004    2.69000006
   16.12694550   97.67610168    1.71000004    2.67000008
   16.13000107   93.18650055    1.71000004    2.67000008
   16.13333321   98.57399750    1.71000004    2.67000008
   16.13666725   97.76820374    1.83000004    2.67000008
   16.13972282  101.21600342    1.86000001    2.69000006
   16.14305496  101.36199951    1.86000001    2.69000006
   16.14638901   93.75740051    1.89999998    2.67000008
   16.14944458   96.10459900    2.32999992    2.66000009
   16.15277672   94.97660065    2.01999998    2.67000008
   16.15583229   94.82099915    2.09999990    2.69000006
   16.15666580   93.88110352    2.40000010    2.67000008
   16.16250038   93.88110352    4.48999977    2.66000009
   16.16638756   89.08940125    3.25000000    2.67000008
   16.16972160   90.19760132    2.34999990    2.69000006
   16.17305565   92.99859619    2.57999992    2.67000008
   16.17611122   89.01509857    3.26999998    2.61999989
   16.17944336   93.16349792    2.69000006    2.67000008
   16.18277740   89.51460266    2.61999989    2.67000008
   16.18583298   84.40370178    2.93000007    2.64000010
   16.18916512   89.10780334    3.11999989    2.64000010
   16.18999863   87.91870117    3.09999990    2.66000009
   16.19277763   86.60130310    3.03999996    2.67000008
   16.19610977   85.52330017    3.41000009    2.67000008
   16.19916534   85.61699677    2.71000004    2.67000008
   16.20527840   85.61699677    1.83000004    2.67000008
   16.20944595   92.41560364    2.00000000    2.69000006
   16.21250153   94.18440247    3.36999989    2.57999992
   16.21583366   88.20659637    2.94000006    2.69000006
   16.21916771   90.85330200    3.00000000    2.67000008
   16.22222328   91.57029724    4.13999987    2.64000010
   16.22333336   93.20880127    3.53999996    2.64000010
   16.22583389  100.11000061    4.21999979    2.66000009
   16.22916794   93.56700134    4.90999985    2.57999992
   16.23222351   88.81999969    4.90999985    2.64000010
   16.23555565   92.51439667    4.90999985    2.59999990
   16.23861122   94.38279724    4.90999985    2.59999990
   16.24194527   88.40750122    4.90999985    2.57999992
   16.24805641   88.40750122    2.57999992    2.67000008
   16.25222206   91.37390137    4.13999987    2.61999989
   16.25555611   94.30660248    4.90999985    2.66000009
   16.25666618   88.75299835    4.90999985    2.66000009
   16.25916672   89.42310333    4.90999985    2.53999996
   16.26250076   95.39689636    4.90999985    2.39000010
   16.26555634  100.54900360    4.90999985    2.50000000
   16.26888847   88.46070099    4.90999985    2.44000006
   16.27194405   96.85870361    4.90999985    2.61999989
   16.27527809   93.81839752    4.90999985    2.55999994
   16.27861023   90.88690186    4.90999985    2.55999994
   16.28166580   95.22640228    4.90999985    2.53999996
   16.28499985   99.37159729    4.90999985    2.59999990
   16.29083252   99.37159729    4.90999985    2.61999989
   16.29500008   94.17469788    4.90999985    2.61999989
   16.29833221   92.14029694    3.82999992    2.67000008
   16.30138779   93.30889893    3.99000001    2.64000010
   16.30472183   92.85330200    4.90999985    2.59999990
   16.30805397   91.10079956    4.90999985    2.61999989
   16.31110954   89.39880371    4.90999985    2.64000010
   16.31444359   91.76470184    4.90999985    2.66000009
   16.31777954   91.76719666    4.90999985    2.64000010
   16.32083511   88.09539795    4.82999992    2.64000010
   16.32333374   90.43589783    4.90999985    2.57999992
   16.32444572   91.61879730    4.90999985    2.57999992
   16.32777786   96.79440308    4.90999985    2.61999989
   16.33388901   96.79440308    4.90999985    2.55999994
   16.33777809   85.27590179    4.90999985    2.61999989
   16.34111214   88.71019745    4.82999992    2.64000010
   16.34444427   91.73609924    4.90999985    2.59999990
   16.34749985   99.68070221    4.90999985    2.50000000
   16.35083389  104.66799927    4.90999985    2.50000000
   16.35416794   93.06790161    4.90999985    2.55999994
   16.35666656  104.55500031    4.90999985    2.61999989
   16.35777855  103.58699799    4.90999985    2.61999989
   16.36111069  105.16500092    4.90999985    2.50000000
   16.36416626   89.98500061    4.90999985    2.46000004
   16.36750031   96.14790344    4.90999985    2.50000000
   16.37055588   93.02519989    4.90999985    2.59999990
   16.37666702   93.02519989    4.90999985    2.59999990
   16.38083267   90.60510254    4.90999985    2.61999989
   16.38388824   85.28679657    3.70000005    2.67000008
   16.38722229   85.69499969    4.80999994    2.61999989
   16.38999939   84.30280304    4.90999985    2.64000010
   16.39083290   85.87629700    4.90999985    2.64000010
   16.39416695   93.85769653    4.03999996    2.66000009
   16.39722252   97.11370087    3.34999990    2.67000008
   16.40055466   90.33570099    4.13999987    2.66000009
   16.40361023   96.19349670    4.90999985    2.61999989
   16.40694427   93.21160126    4.90999985    2.64000010
   16.41027832   94.21829987    4.90999985    2.57999992
   16.41333389   99.09580231    4.90999985    2.61999989
   16.41944313   99.09580231    4.90999985    2.61999989
   16.42361069   95.47239685    4.90999985    2.59999990
   16.42694473   89.36080170    4.09999990    2.64000010
   16.43000031   87.86910248    2.73000002    2.66000009
   16.43333244   87.88870239    2.30999994    2.69000006
   16.43666649   94.89129639    2.03999996    2.67000008
   16.43972206   96.59639740    2.25000000    2.67000008
   16.44305420   98.04910278    2.69000006    2.67000008
   16.44638824   99.18820190    3.64000010    2.67000008
   16.44944382   98.48500061    4.90999985    2.61999989
   16.45277786   96.17259979    4.90999985    2.46000004
   16.45583344   95.08799744    4.90999985    2.48000002
   16.45666695   95.83730316    4.90999985    2.48000002
   16.47750092   95.83730316    4.90999985    2.50000000
   16.48139000  103.61100006    4.90999985    2.50000000
   16.48472214  100.11599731    4.90999985    2.48000002
   16.48805618  104.68699646    4.90999985    2.40000010
   16.48999977   98.33850098    4.90999985    2.44000006
   16.49166679   95.40899658    4.90999985    2.50000000
   16.49500084  106.10500336    4.90999985    2.50000000
   16.49805641  104.79599762    4.90999985    2.46000004
   16.50138855  111.18599701    4.90999985    2.25000000
   16.50472260  120.03700256    4.90999985    2.25000000
   16.50777817  109.32299805    4.90999985    2.30999994
   16.51111031  160.01600647    4.90999985    2.26999998
   16.51416588  157.99899292    4.90999985    2.05999994
   16.52000046  157.99899292    4.90999985    1.94000006
   16.52416611  110.21199799    4.90999985    2.28999996
   16.52750015  100.46700287    4.90999985    2.25000000
   16.53083229  104.65100098    4.90999985    2.32999992
   16.53388786  102.88999939    4.90999985    2.30999994
   16.53722191  103.75499725    4.90999985    2.28999996
   16.54027748   98.67230225    4.90999985    2.46000004
   16.54361153   98.44349670    4.90999985    2.53999996
   16.54694366  100.62999725    4.90999985    2.53999996
   16.54999924   99.46189880    4.90999985    2.55999994
   16.55333328   94.29370117    4.90999985    2.57999992
   16.55666542   95.89759827    4.90999985    2.57999992
   16.55694389   93.63099670    4.90999985    2.57999992
   16.56305504   93.63099670    4.90999985    2.50000000
   16.56722260  117.47599792    4.90999985    2.39000010
   16.57027817  105.72499847    4.90999985    2.44000006
   16.57361221  102.64499664    4.90999985    2.42000008
   16.57666779  131.10000610    4.90999985    2.30999994
   16.58000183  128.65400696    4.90999985    2.25000000
   16.58333397  132.43600464    4.90999985    2.25000000
   16.58638954  134.95100403    4.90999985    2.17000008
   16.58972359  141.28399658    4.90999985    2.17000008
   16.59027863  125.29000092    4.90999985    2.17000008
   16.59333420  142.50700378    4.90999985    2.19000006
   16.59666824  143.19900513    4.90999985    2.09999990
   16.59972191  129.76199341    4.90999985    2.00000000
   16.60583305  129.76199341    4.90999985    2.01999998
   16.61000061  102.69400024    4.90999985    2.25000000
   16.61305618  114.54299927    4.90999985    2.39000010
   16.61638832  131.24000549    4.90999985    2.32999992
   16.61972237  105.36900330    4.90999985    2.28999996
   16.62277794  142.62600708    4.90999985    2.26999998
   16.62361145  169.20500183    4.90999985    2.26999998
   16.62638855  123.24900055    4.90999985    2.01999998
   16.62972260  163.50900269    4.90999985    2.07999992
   16.63277817  283.35198975    4.90999985    2.01999998
   16.63611031  103.51100159    4.90999985    1.98000002
   16.63916588  112.40499878    4.90999985    2.44000006
   16.64249992   98.18319702    4.90999985    2.28999996
   16.64861107   98.18319702    4.90999985    2.21000004
   16.65277672   92.65850067    4.90999985    2.30999994
   16.65611076  100.60600281    4.90999985    2.50000000
   16.65694427  107.00000000    4.90999985    2.48000002
   16.65972137  101.54100037    4.90999985    2.46000004
   16.66305542   99.76860046    4.90999985    2.48000002
   16.66611099  112.96800232    4.90999985    2.46000004
   16.66944313  104.63400269    4.90999985    2.40000010
   16.67277718  106.61299896    4.90999985    2.36999989
   16.67583275   94.04599762    4.90999985    2.46000004
   16.67916679   98.52749634    4.90999985    2.48000002
   16.68222237   96.33350372    4.90999985    2.53999996
   16.68555450   96.17449951    4.90999985    2.51999998
   16.69138718   96.17449951    4.90999985    2.50000000
   16.69555473  112.29000092    4.90999985    2.46000004
   16.69888878  105.35800171    4.90999985    2.39000010
   16.70222282  120.50299835    4.90999985    2.42000008
   16.70527840  115.20999908    4.90999985    2.26999998
   16.70861244  111.39099884    4.90999985    2.28999996
   16.71166801  114.04699707    4.90999985    2.21000004
   16.71500015  150.83000183    4.90999985    2.25000000
   16.71833420  120.62899780    4.90999985    2.13000011
   16.72138977  111.12999725    4.90999985    2.23000002
   16.72361183  139.31599426    4.90999985    2.19000006
   16.72500038  187.98100281    4.90999985    2.17000008
   16.72833443  258.22100830    4.90999985    2.05999994
   16.73444557  258.22100830    4.90999985    1.94000006
   16.73861122  105.92500305    4.90999985    2.19000006
   16.74166679  127.85500336    4.90999985    2.30999994
   16.74500084  130.11300659    4.90999985    2.21000004
   16.74805641  116.73300171    4.90999985    2.32999992
   16.75138855  113.08499908    4.90999985    2.36999989
   16.75472260  109.92800140    4.90999985    2.30999994
   16.75694466  125.00800323    4.90999985    2.32999992
   16.75833321  117.54299927    4.90999985    2.30999994
   16.76166725  113.45800018    4.90999985    2.21000004
   16.76472282  122.03399658    4.90999985    2.26999998
   16.76805496  154.21699524    4.90999985    2.19000006
   16.77138901  235.23199463    4.90999985    1.96000004
   16.77722168  235.23199463    4.90999985    1.94000006
   16.78138924  133.65899658    4.90999985    2.09999990
   16.78444481  181.38000488    4.90999985    2.03999996
   16.78777695  164.47900391    4.90999985    1.98000002
   16.79027748  135.10600281    4.90999985    2.00000000
   16.79138756  186.15699768    4.90999985    2.03999996
   16.79472160  152.85499573    4.90999985    1.98000002
   16.79805565  125.81400299    4.90999985    2.11999989
   16.80111122  113.26100159    4.90999985    2.28999996
   16.80444336  105.80999756    4.90999985    2.34999990
   16.80749893  113.50099945    4.90999985    2.34999990
   16.81083298  103.82399750    4.90999985    2.32999992
   16.81416512  111.60800171    4.90999985    2.34999990
   16.82000160  111.60800171    4.90999985    2.42000008
   16.82416725   97.48529816    4.90999985    2.44000006
   16.82750130  103.67400360    4.90999985    2.44000006
   16.83055687   96.65229797    4.90999985    2.46000004
   16.83388901  106.58499908    4.90999985    2.44000006
   16.83722305  116.58300018    4.90999985    2.44000006
   16.84027863  133.71000671    4.90999985    2.28999996
   16.84361267  147.72300720    4.90999985    2.09999990
   16.84666824  186.60499573    4.90999985    1.98000002
   16.85000038  190.88499451    4.90999985    1.89999998
   16.85333443  227.08200073    4.90999985    1.94000006
   16.85639000   -1.00000000    4.90999985    1.89999998
   16.85694504  112.55400085    4.90999985    1.88000000
   16.86277771  112.55400085    4.90999985    2.05999994
   16.86694527   -1.00000000    4.90999985    1.69000006
   16.87027740   -1.00000000    4.90999985    1.66999996
   16.87361145   -1.00000000    4.90999985    1.46000004
   16.87666702   -1.00000000    4.90999985    1.28999996
   16.88000107   -1.00000000    4.90999985    1.28999996
   16.88305473  121.53600311    4.90999985    1.48000002
   16.88638878   -1.00000000    4.90999985    1.78999996
   16.88972282  120.13400269    4.90999985    2.01999998
   16.89027786  206.60600281    4.90999985    2.01999998
   16.89305496  179.40199280    4.90999985    2.01999998
   16.89638901  164.13000488    4.90999985    1.91999996
   16.89944458  147.28399658    4.90999985    2.05999994
   16.90583229  147.28399658    4.90999985    1.91999996
   16.90999985  140.30900574    4.90999985    2.13000011
   16.91305542  111.45800018    4.90999985    2.17000008
   16.91638756  122.99199677    4.90999985    2.19000006
   16.91944313  116.92900085    4.90999985    2.28999996
   16.92277718  109.45300293    4.90999985    2.19000006
   16.92361069  112.00800323    4.90999985    2.32999992
   16.92638779  144.70899963    4.90999985    2.25000000
   16.92972183   -1.00000000    4.90999985    2.00000000
   16.93277740   -1.00000000    4.90999985    1.53999996
   16.93610954   -1.00000000    4.90999985    1.44000006
   16.93944359   -1.00000000    4.90999985    1.13000000
   16.94249916   -1.00000000    4.90999985    0.94000000
   16.95277786   -1.00000000    4.90999985    1.13000000
   16.95583344   -1.00000000    4.90999985    0.98000002
   16.95944595   -1.00000000    4.90999985    1.11000001
   16.96277809   -1.00000000    4.90999985    0.94000000
   16.96583366   -1.00000000    4.90999985    1.07000005
   16.96916771   -1.00000000    4.90999985    1.46000004
   16.97222328   -1.00000000    4.90999985    1.60000002
   16.97555542  131.18299866    4.90999985    1.96000004
   16.97888947  139.57299805    4.90999985    2.07999992
   16.98194504  182.96699524    4.90999985    2.01999998
   16.98527718  224.22099304    4.90999985    1.96000004
   16.99138832  224.22099304    4.90999985    1.98000002
   16.99555588  208.66299438    4.90999985    1.98000002
   16.99888992   -1.00000000    4.90999985    1.76999998
   17.00194359  134.48500061    4.90999985    1.66999996
   17.00527763  144.65899658    4.90999985    1.98000002
   17.00861168  113.97599792    4.90999985    2.21000004
   17.01166725  107.42900085    4.90999985    2.32999992
   17.01499939  137.26499939    4.90999985    2.26999998
   17.01805496  200.97900391    4.90999985    2.15000010
   17.02138901  115.75700378    4.90999985    2.03999996
   17.02499962   -1.00000000    4.90999985    2.00000000
   17.02833366   -1.00000000    4.90999985    1.64999998
   17.03416634   -1.00000000    4.90999985    1.61000001
   17.03833199  248.62399292    4.90999985    1.88000000
   17.04166603   -1.00000000    4.90999985    1.94000006
   17.04500008   -1.00000000    4.90999985    1.73000002
   17.04805565   -1.00000000    4.90999985    1.63000000
   17.05138779   -1.00000000    4.90999985    1.75000000
   17.05444336   -1.00000000    4.90999985    1.38000000
   17.05805397   -1.00000000    4.90999985    1.33000004
   17.06138802   -1.00000000    4.90999985    1.25000000
   17.06444359   -1.00000000    4.90999985    1.25000000
   17.06777954   -1.00000000    4.90999985    1.19000006
   17.07083511   -1.00000000    4.90999985    1.34000003
   17.07722282   -1.00000000    4.90999985    1.46000004
   17.08139038   -1.00000000    4.90999985    1.69000006
   17.08444595   -1.00000000    4.90999985    1.64999998
   17.08777809   -1.00000000    4.90999985    1.60000002
   17.09138870   -1.00000000    4.90999985    1.58000004
   17.09472275   -1.00000000    4.90999985    1.55999994
   17.09777832   -1.00000000    4.90999985    1.64999998
   17.10111237   -1.00000000    4.90999985    1.66999996
   17.10444450   -1.00000000    4.90999985    1.63000000
   17.10750008   -1.00000000    4.90999985    1.53999996
   17.11083412   -1.00000000    4.90999985    1.41999996
   17.11388969   -1.00000000    4.90999985    1.14999998
   17.12416649   -1.00000000    4.90999985    1.48000002
   17.12722206  126.88899994    4.90999985    1.75000000
   17.13055611  139.96099854    4.90999985    1.75000000
   17.13361168  156.99099731    4.90999985    1.80999994
   17.13694382  240.26600647    4.90999985    1.73000002
   17.14027786   -1.00000000    4.90999985    1.83000004
   17.14333344   -1.00000000    4.90999985    1.63000000
   17.14666748   -1.00000000    4.90999985    1.63000000
   17.14999962   -1.00000000    4.90999985    1.61000001
   17.15305519   -1.00000000    4.90999985    1.60000002
   17.15638924   -1.00000000    4.90999985    1.36000001
   17.16694450   -1.00000000    4.90999985    1.30999994
   17.17000008   -1.00000000    4.90999985    1.34000003
   17.17333221   -1.00000000    4.90999985    1.01999998
   17.17666626   -1.00000000    4.90999985    1.00000000
   17.17972183   -1.00000000    4.90999985    1.07000005
   17.18305397   -1.00000000    4.90999985    1.01999998
   17.18638802   -1.00000000    4.90999985    0.92000002
   17.18944359   -1.00000000    4.90999985    1.21000004
   17.19305420   -1.00000000    4.90999985    1.50000000
   17.19638824   -1.00000000    4.90999985    1.48000002
   17.19944382   -1.00000000    4.90999985    1.36000001
   17.20555687   -1.00000000    4.90999985    1.50000000
   17.20972252   -1.00000000    4.90999985    1.71000004
   17.21305656   -1.00000000    4.90999985    1.55999994
   17.21611214   -1.00000000    4.90999985    1.34000003
   17.21944427   -1.00000000    4.90999985    1.39999998
   17.22277832   -1.00000000    4.90999985    1.23000002
   17.22611237   -1.00000000    4.90999985    1.26999998
   17.22944450   -1.00000000    4.90999985    1.13000000
   17.23250008   -1.00000000    4.90999985    1.33000004
   17.23583412   -1.00000000    4.90999985    1.46000004
   17.23916626   -1.00000000    4.90999985    1.41999996
   17.24222183   -1.00000000    4.90999985    1.58000004
   17.24861145   -1.00000000    4.90999985    1.80999994
   17.25250053   98.42289734    4.90999985    1.76999998
   17.25583267  251.55200195    4.90999985    1.78999996
   17.25722313  180.34800720    4.90999985    1.86000001
   17.25944519  273.02301025    4.90999985    1.96000004
   17.26277733  243.61300659    4.90999985    1.96000004
   17.26611137  245.70700073    4.90999985    1.94000006
   17.26916695  290.93701172    4.90999985    1.89999998
   17.27249908  282.17498779    4.90999985    1.85000002
   17.27555466  148.53100586    4.90999985    1.96000004
   17.27888870  226.21899414    4.90999985    2.13000011
   17.28222275   79.60710144    4.90999985    1.88000000
   17.28527641   -1.00000000    4.90999985    1.69000006
   17.29138756   -1.00000000    4.90999985    1.50000000
   17.29555511   -1.00000000    4.90999985    1.50000000
   17.29861069   -1.00000000    4.90999985    1.61000001
   17.30194283   -1.00000000    4.90999985    1.60000002
   17.30527687   -1.00000000    4.90999985    1.64999998
   17.30833244   -1.00000000    4.90999985    1.69000006
   17.31166649   26.69680023    4.90999985    1.71000004
   17.31499863   -1.00000000    4.90999985    1.75000000
   17.31805611   -1.00000000    4.90999985    1.66999996
   17.32139015   -1.00000000    4.90999985    1.53999996
   17.32472229   -1.00000000    4.90999985    1.63000000
   17.32805634   -1.00000000   -1.00000000   -1.00000000
   17.33416748   -1.00000000   -1.00000000   -1.00000000
   17.33833313   -1.00000000    4.90999985    1.51999998
   17.34166718   -1.00000000    4.90999985    1.33000004
   17.34472275   -1.00000000    4.90999985    1.26999998
   17.34805679   -1.00000000    4.90999985    1.26999998
   17.35111237   -1.00000000    4.90999985    1.28999996
   17.35444450   -1.00000000    4.90999985    1.30999994
   17.35805511   -1.00000000    4.90999985    1.36000001
   17.36138916   -1.00000000    4.90999985    1.05999994
   17.36444473   -1.00000000    4.90999985    1.19000006
   17.36777878   -1.00000000    4.90999985    1.25000000
   17.37111092   -1.00000000    4.90999985    1.34000003
   17.37694550   -1.00000000    4.90999985    1.36000001
   17.38111115   -1.00000000    4.90999985    1.48000002
   17.38444519   -1.00000000    4.90999985    1.64999998
   17.38750076   -1.00000000    4.90999985    1.61000001
   17.39111137   -1.00000000    4.90999985    1.53999996
   17.39444351   -1.00000000    4.90999985    1.60000002
   17.39749908   89.34140015    4.90999985    1.75000000
   17.40083313  264.27499390    4.90999985    1.83000004
   17.40416718  221.40899658    4.90999985    1.86000001
   17.40722275  252.08999634    4.90999985    1.86000001
   17.41055489  284.60000610    4.90999985    1.91999996
   17.41388893  252.33700562    4.90999985    1.88000000
   17.42000008  252.33700562    4.90999985    1.83000004
   17.42388916   -1.00000000    4.90999985    1.71000004
   17.42722130   -1.00000000    4.90999985    1.46000004
   17.43055534   -1.00000000    4.90999985    1.21000004
   17.43361092   -1.00000000    4.90999985    1.07000005
   17.43694305   -1.00000000    4.90999985    1.09000003
   17.44027710   -1.00000000    4.90999985    1.26999998
   17.44333267   95.37599945    4.90999985    1.51999998
   17.44666672  317.16400146    4.90999985    1.78999996
   17.44861031  237.67100525    4.90999985    1.83000004
   17.45000076  202.57800293    4.90999985    1.89999998
   17.45000076   -1.00000000    4.90999985    1.09000003
   17.45000076   -1.00000000    4.90999985    1.26999998
   17.45000076   95.37599945    4.90999985    1.51999998
   17.45000076  317.16400146    4.90999985    1.78999996
   17.45027924  252.33700562    4.90999985    1.88000000
   17.45027924   -1.00000000    4.90999985    1.71000004
   17.45027924   -1.00000000    4.90999985    1.46000004
   17.45027924   -1.00000000    4.90999985    1.21000004
   17.45055580   -1.00000000    4.90999985    1.07000005
   17.45166779  271.96200562    4.90999985    1.98000002
   17.45472336  245.52400208    4.90999985    1.91999996
   17.45805550  109.44200134    4.90999985    1.86000001
   17.46111107   23.57019997    4.90999985    1.85000002
   17.46444511   -1.00000000    4.90999985    1.78999996
   17.47055626   -1.00000000    4.90999985    1.71000004
   17.49111176  134.68200684    4.90999985    2.11999989
   17.49416733  143.61900330    4.90999985    2.19000006
   17.49749947  243.25100708    4.90999985    2.05999994
   17.50083351  104.59500122    4.90999985    1.83000004
   17.50388908   -1.00000000    4.90999985    1.69000006
   17.50722313   75.08300018    4.90999985    1.80999994
   17.51388931   75.08300018    4.90999985    1.98000002
   17.51777840  233.94299316    4.90999985    2.00000000
   17.52111053   -1.00000000    4.90999985    1.69000006
   17.52472115   -1.00000000    4.90999985    1.28999996
   17.52805519   -1.00000000    4.90999985    1.64999998
   17.53111076   -1.00000000    4.90999985    1.73000002
   17.53444481  141.61700439    4.90999985    1.69000006
   17.53777695   -1.00000000    4.90999985    1.76999998
   17.54083252   -1.00000000    4.90999985    1.76999998
   17.54416656   -1.00000000    4.90999985    1.63000000
   17.54749870   -1.00000000    4.90999985    1.66999996
   17.55055428   -1.00000000    4.90999985    1.51999998
   17.55666542   -1.00000000    4.90999985    1.83000004
   17.56083298  225.37300110    4.90999985    1.89999998
   17.56388855  136.95700073    4.90999985    1.85000002
   17.56722260   50.10609818    4.90999985    1.83000004
   17.57055664  258.82400513    4.90999985    1.78999996
   17.57361221   30.44219971    4.90999985    1.85000002
   17.57694626   -1.00000000    4.90999985    1.75000000
   17.58000183   -1.00000000    4.90999985    1.64999998
   17.58333397   -1.00000000    4.90999985    1.69000006
   17.58666801   -1.00000000    4.90999985    1.71000004
   17.58972359   -1.00000000    4.90999985    1.48000002
   17.59333420   -1.00000000    4.90999985    1.30999994
   17.60361099   -1.00000000    4.90999985    1.21000004
   17.60666656   -1.00000000    4.90999985    1.30999994
   17.61000061   -1.00000000    4.90999985    1.48000002
   17.61333466   -1.00000000    4.90999985    1.51999998
   17.61638832   -1.00000000    4.90999985    1.46000004
   17.61972237   -1.00000000    4.90999985    1.46000004
   17.62305641   -1.00000000    4.90999985    1.71000004
   17.62666702   -1.00000000    4.90999985    1.63000000
   17.62972260   -1.00000000    4.90999985    1.60000002
   17.63305473   -1.00000000    4.90999985    1.50000000
   17.63611031   -1.00000000    4.90999985    1.75000000
   17.64222145   -1.00000000    4.90999985    1.63000000
   17.64638901   78.46479797    4.90999985    1.75000000
   17.64972115   -1.00000000    4.90999985    1.66999996
   17.65277672   -1.00000000    4.90999985    1.53999996
   17.65611076   -1.00000000    4.90999985    1.44000006
   17.65972137   -1.00000000    4.90999985    1.55999994
   17.66305542   36.77999878    4.90999985    1.61000001
   17.66611099   43.31570053    4.90999985    1.80999994
   17.66944313   23.57019997    4.90999985    1.73000002
   17.67277718   -1.00000000    4.90999985    1.75000000
   17.67583275   -1.00000000    4.90999985    1.41999996
   17.67916679   -1.00000000    4.90999985    1.53999996
   17.68499947   -1.00000000    4.90999985    1.53999996
   17.68916512   -1.00000000    4.90999985    1.60000002
   17.69277763   -1.00000000    4.90999985    1.73000002
   17.69610977   -1.00000000    4.90999985    1.73000002
   17.69916534  190.23599243    4.90999985    1.69000006
   17.70250130  215.40499878    4.90999985    1.89999998
   17.70583344  183.66200256    4.90999985    2.03999996
   17.70888901  132.01600647    4.90999985    1.88000000
   17.71222305   -1.00000000    4.90999985    1.78999996
   17.71555710   81.15619659    4.90999985    1.76999998
   17.71861076   -1.00000000    4.90999985    1.69000006
   17.72194481   -1.00000000    4.90999985    1.71000004
   17.72805595   -1.00000000    4.90999985    1.73000002
   17.73222351   -1.00000000    4.90999985    1.76999998
   17.73527718   -1.00000000    4.90999985    1.71000004
   17.73861122   -1.00000000    4.90999985    1.64999998
   17.74194527   -1.00000000    4.90999985    1.73000002
   17.74500084  111.98899841    4.90999985    1.69000006
   17.74833298   -1.00000000   -1.00000000   -1.00000000
   17.75138855   -1.00000000    4.90999985    1.73000002
   17.75472260   -1.00000000    4.90999985    1.75000000
   17.75805473   -1.00000000    4.90999985    1.60000002
   17.76166725   -1.00000000    4.90999985    1.58000004
   17.76472282   -1.00000000    4.90999985    1.63000000
   17.77083397   -1.00000000    4.90999985    1.55999994
   17.77499962   -1.00000000    4.90999985    1.60000002
   17.77833366   -1.00000000    4.90999985    1.60000002
   17.78138924   -1.00000000    4.90999985    1.64999998
   17.78472137   -1.00000000    4.90999985    1.71000004
   17.78777695   -1.00000000    4.90999985    1.66999996
   17.79111099   -1.00000000    4.90999985    1.61000001
   17.79222107   -1.00000000   -1.00000000   -1.00000000
   17.79472160  149.51800537    4.90999985    1.73000002
   17.79805565  270.52398682    4.90999985    1.75000000
   17.80111122  258.54098511    4.90999985    1.86000001
   17.80444336  247.96400452    4.90999985    1.94000006
   17.80777740  302.01800537    4.90999985    1.94000006
   17.80972099  248.09700012    4.90999985    1.88000000
   17.81083298  268.72900391    4.90999985    1.89999998
   17.81222153  271.09500122    4.90999985    1.89999998
   17.81361008  250.87199402    4.90999985    1.88000000
   17.81499863  148.70300293    4.90999985    1.88000000
   17.81527710   -1.00000000    4.90999985    1.66999996
   17.81527710   -1.00000000    4.90999985    1.61000001
   17.81527710  149.51800537    4.90999985    1.73000002
   17.81527710  270.52398682    4.90999985    1.75000000
   17.81527710  258.54098511    4.90999985    1.86000001
   17.81555557  247.96400452    4.90999985    1.94000006
   17.81555557  302.01800537    4.90999985    1.94000006
   17.81555557   -1.00000000    4.90999985    1.64999998
   17.81555557   -1.00000000    4.90999985    1.71000004
   17.81611061  239.87899780    4.90999985    1.86000001
   17.81944466   37.59030151    4.90999985    1.80999994
   17.82277870  114.52600098    4.90999985    1.75000000
   17.82583427   58.97919846    4.90999985    1.75000000
   17.82916832   -1.00000000   -1.00000000   -1.00000000
   17.83583450   -1.00000000   -1.00000000   -1.00000000
   17.84000015   -1.00000000    4.90999985    1.63000000
   17.84333420   -1.00000000    4.90999985    1.66999996
   17.84638977   -1.00000000    4.90999985    1.63000000
   17.85000038   -1.00000000    4.90999985    1.63000000
   17.85305595   -1.00000000    4.90999985    1.53999996
   17.85639000   -1.00000000    4.90999985    1.46000004
   17.85944557   -1.00000000    4.90999985    1.05999994
   17.86277771   -1.00000000    4.90999985    0.83999997
   17.86611176   -1.00000000    4.90999985    0.76999998
   17.86916733   -1.00000000    4.90999985    0.86000001
   17.87249947   -1.00000000    4.90999985    1.19000006
   17.87861061   -1.00000000    4.90999985    1.55999994
   17.88277817   37.12200165    4.90999985    1.75000000
   17.88611031  310.05899048    4.90999985    1.88000000
   17.88805580  304.00698853    4.90999985    1.86000001
   17.88944435  210.12199402    4.90999985    1.86000001
   17.88944435   -1.00000000    4.90999985    1.53999996
   17.88944435   -1.00000000    4.90999985    1.46000004
   17.88944435   -1.00000000    4.90999985    1.05999994
   17.88944435   -1.00000000    4.90999985    0.83999997
   17.88972282   -1.00000000    4.90999985    0.76999998
   17.88972282   -1.00000000    4.90999985    0.86000001
   17.88972282   -1.00000000    4.90999985    1.19000006
   17.88972282   37.12200165    4.90999985    1.75000000
   17.88999939  310.05899048    4.90999985    1.88000000
   17.89083290  302.74099731    4.90999985    1.86000001
   17.89277840  247.95399475    4.90999985    1.86000001
   17.89388847  223.65699768    4.90999985    1.85000002
   17.89416695  302.74099731    4.90999985    1.86000001
   17.89527702  227.61599731    4.90999985    1.88000000
   17.89833260  185.38900757    4.90999985    1.94000006
   17.90166664  147.49699402    4.90999985    1.98000002
   17.90499878  137.77699280    4.90999985    2.15000010
   17.90805435  120.69100189    4.90999985    2.17000008
   17.91472244  120.69100189    4.90999985    2.21000004
   17.91888809  141.44299316    4.90999985    2.09999990
   17.92222214  146.96699524    4.90999985    2.09999990
   17.92527771  122.59400177    4.90999985    2.07999992
   17.92777634  173.40600586    4.90999985    2.11999989
   17.92888832  214.54899597    4.90999985    2.05999994
   17.93222237  207.81199646    4.90999985    1.91999996
   17.93527603   -1.00000000    4.90999985    1.80999994
   17.93861008   -1.00000000    4.90999985    1.69000006
   17.94166565  157.64700317    4.90999985    1.75000000
   17.94499969  241.33000183    4.90999985    1.94000006
   17.94833183   -1.00000000    4.90999985    1.80999994
   17.95138931   -1.00000000    4.90999985    1.71000004
   17.95750046   -1.00000000    4.90999985    1.50000000
   17.96166801   -1.00000000    4.90999985    1.58000004
   17.96500015   -1.00000000    4.90999985    1.75000000
   17.96833420   -1.00000000    4.90999985    1.71000004
   17.97138977   -1.00000000    4.90999985    1.71000004
   17.97472191   -1.00000000    4.90999985    1.64999998
   17.97777748   -1.00000000    4.90999985    1.38000000
   17.98111153   -1.00000000    4.90999985    1.41999996
   17.98444557   -1.00000000    4.90999985    1.51999998
   17.98750114   -1.00000000    4.90999985    1.46000004
   17.99083328   -1.00000000    4.90999985    1.48000002
   17.99416733   -1.00000000    4.90999985    1.36000001
   18.00444412   -1.00000000    4.90999985    1.30999994
   18.00777817   -1.00000000    4.90999985    1.38000000
   18.01111031   -1.00000000    4.90999985    1.34000003
   18.01416588   -1.00000000    4.90999985    1.48000002
   18.01749992   -1.00000000    4.90999985    1.55999994
   18.02055550   -1.00000000    4.90999985    1.73000002
   18.02388954   -1.00000000    4.90999985    1.63000000
   18.02722168   34.92990112    4.90999985    1.66999996
   18.02777672  180.72799683    4.90999985    1.76999998
   18.03083229  119.04399872    4.90999985    1.83000004
   18.03416634  230.51800537    4.90999985    1.85000002
   18.03722191  117.59300232    4.90999985    1.85000002
   18.04333305  117.59300232    4.90999985    1.83000004
   18.04749870   -1.00000000    4.90999985    1.76999998
   18.05055428   -1.00000000    4.90999985    1.61000001
   18.05388832   -1.00000000    4.90999985    1.71000004
   18.05722237   -1.00000000    4.90999985    1.61000001
   18.06027794   -1.00000000    4.90999985    1.39999998
   18.06388855   -1.00000000    4.90999985    1.61000001
   18.06722260   -1.00000000    4.90999985    1.71000004
   18.07027817   -1.00000000    4.90999985    1.63000000
   18.07361221   -1.00000000    4.90999985    1.60000002
   18.07694626   -1.00000000    4.90999985    1.66999996
   18.08000183   -1.00000000    4.90999985    1.48000002
   18.09027863   -1.00000000    4.90999985    1.09000003
   18.09361267   -1.00000000    4.90999985    1.28999996
   18.09694481   -1.00000000    4.90999985    1.16999996
   18.10000038   -1.00000000    4.90999985    1.11000001
   18.10333443   -1.00000000    4.90999985    1.14999998
   18.10666656   -1.00000000    4.90999985    1.14999998
   18.10972214   -1.00000000    4.90999985    1.11000001
   18.11305618   -1.00000000    4.90999985    1.00000000
   18.11638832   -1.00000000    4.90999985    1.03999996
   18.11944389   -1.00000000    4.90999985    1.13000000
   18.12277794   -1.00000000    4.90999985    1.28999996
   18.13305473   -1.00000000    4.90999985    1.30999994
   18.13638878   -1.00000000    4.90999985    1.21000004
   18.13944435   -1.00000000    4.90999985    1.16999996
   18.14277840   -1.00000000    4.90999985    1.25000000
   18.14611053   -1.00000000    4.90999985    1.25000000
   18.14916611   -1.00000000    4.90999985    1.33000004
   18.15250015   -1.00000000    4.90999985    1.23000002
   18.15583229   -1.00000000    4.90999985    1.44000006
   18.15888786   -1.00000000    4.90999985    1.41999996
   18.16250038   -1.00000000    4.90999985    1.55999994
   18.16583252   -1.00000000    4.90999985    1.55999994
   18.17583275   -1.00000000    4.90999985    1.33000004
   18.17916679   -1.00000000    4.90999985    1.48000002
   18.18249893   -1.00000000    4.90999985    1.58000004
   18.18555450  288.20001221    4.90999985    1.73000002
   18.18888855  356.34799194    4.90999985    1.88000000
   18.19083214  141.56700134    4.90999985    1.86000001
   18.19083214   -1.00000000    4.90999985    1.48000002
   18.19111061   -1.00000000    4.90999985    1.58000004
   18.19111061  288.20001221    4.90999985    1.73000002
   18.19111061  356.34799194    4.90999985    1.88000000
   18.19111061   -1.00000000    4.90999985    1.44000006
   18.19111061   -1.00000000    4.90999985    1.41999996
   18.19138718   -1.00000000    4.90999985    1.55999994
   18.19138718   -1.00000000    4.90999985    1.55999994
