    HOUR (UT)   FLARE FACTOR    SKY TESTER    SUN TESTER
   12.44972229   -1.00000000   -1.00000000   -1.00000000
   12.47916603  195.09899902    4.90999985    1.98000002
   12.48249912  178.34399414    4.90999985    1.98000002
   12.48583317  192.75199890    4.90999985    1.98000002
   12.48888874  182.31300354    4.90999985    1.98000002
   12.49222279  173.05599976    4.90999985    1.98000002
   12.49527836  158.07899475    4.90999985    2.00000000
   12.49944496  158.07899475    4.90999985    1.98000002
   12.50361156  167.55599976    4.90999985    2.00000000
   12.50694466  172.57499695    4.90999985    2.01999998
   12.51000023  194.50100708    4.90999985    2.00000000
   12.51249981  165.96600342    4.90999985    2.00000000
   12.51361084  165.75999451    4.90999985    2.01999998
   12.51666641  163.75900269    4.90999985    2.00000000
   12.51999950  160.13099670    4.90999985    2.01999998
   12.52333355  175.02999878    4.90999985    2.01999998
   12.52638817  174.80700684    4.90999985    2.01999998
   12.52972221  178.36500549    4.90999985    2.01999998
   12.53277779  185.72399902    4.90999985    2.01999998
   12.53611183  185.60099792    4.90999985    2.03999996
   12.54222298  185.60099792    4.90999985    2.03999996
   12.54638958  178.82200623    4.90999985    2.03999996
   12.54972267  168.21899414    4.90999985    2.03999996
   12.55305576  168.62899780    4.90999985    2.03999996
   12.55611134  170.18600464    4.90999985    2.03999996
   12.55944443  164.95100403    4.90999985    2.03999996
   12.56250000  179.88699341    4.90999985    2.05999994
   12.56583309  195.05999756    4.90999985    2.05999994
   12.56916618  193.71499634    4.90999985    2.05999994
   12.57222176  183.11000061    4.90999985    2.05999994
   12.57555580  193.23899841    4.90999985    2.05999994
   12.57888889  182.19900513    4.90999985    2.05999994
   12.57916641  184.73500061    4.90999985    2.07999992
   12.58527756  184.73500061    4.90999985    2.07999992
   12.58944416  188.61599731    4.90999985    2.05999994
   12.59249973  178.74499512    4.90999985    2.07999992
   12.59583282  178.34899902    4.90999985    2.07999992
   12.59888840  194.15100098    4.90999985    2.07999992
   12.60222244  167.73599243    4.90999985    2.07999992
   12.60555553  164.99099731    4.90999985    2.07999992
   12.60861111  175.57499695    4.90999985    2.09999990
   12.61194515  168.18299866    4.90999985    2.09999990
   12.61250019  172.11599731    4.90999985    2.09999990
   12.61555576  172.08099365    4.90999985    2.09999990
   12.61888885  179.79299927    4.90999985    2.09999990
   12.62194443  169.09899902    4.90999985    2.09999990
   12.62805557  169.09899902    4.90999985    2.11999989
   12.63222218  154.65499878    4.90999985    2.11999989
   12.63555527  173.11399841    4.90999985    2.09999990
   12.63861084  168.31100464    4.90999985    2.11999989
   12.64194393  186.12699890    4.90999985    2.09999990
   12.64527798  181.78300476    4.90999985    2.11999989
   12.64583302  176.27400208    4.90999985    2.11999989
   12.64861107  187.38999939    4.90999985    2.11999989
   12.65194416  174.19900513    4.90999985    2.11999989
   12.65499973  170.89799500    4.90999985    2.11999989
   12.65833282  167.69799805    4.90999985    2.11999989
   12.66138840  173.19900513    4.90999985    2.11999989
   12.66472149  178.60800171    4.90999985    2.11999989
   12.67083359  178.60800171    4.90999985    2.11999989
   12.67500019  173.90100098    4.90999985    2.11999989
   12.67833328  168.15199280    4.90999985    2.13000011
   12.67916679  184.47000122    4.90999985    2.13000011
   12.68194485  175.80499268    4.90999985    2.13000011
   12.68527794  162.85899353    4.90999985    2.13000011
   12.68833351  172.51100159    4.90999985    2.13000011
   12.69166660  185.70199585    4.90999985    2.13000011
   12.69499969  167.22399902    4.90999985    2.11999989
   12.69805527  154.06300354    4.90999985    2.13000011
   12.70138836  158.25799561    4.90999985    2.13000011
   12.70444393  163.41499329    4.90999985    2.13000011
   12.70777798  160.03700256    4.90999985    2.13000011
   12.71361065  160.03700256    4.90999985    2.13000011
   12.71777725  171.52000427    4.90999985    2.13000011
   12.72111034  182.45700073    4.90999985    2.13000011
   12.72444439  173.86999512    4.90999985    2.13000011
   12.72749996  179.95899963    4.90999985    2.13000011
   12.73083305  196.24699402    4.90999985    2.15000010
   12.73388958  191.02900696    4.90999985    2.15000010
   12.73722267  181.93499756    4.90999985    2.15000010
   12.74055576  192.43299866    4.90999985    2.15000010
   12.74361134  180.15199280    4.90999985    2.15000010
   12.74583340  185.98100281    4.90999985    2.17000008
   12.74722290  183.31900024    4.90999985    2.17000008
   12.75055599  164.10699463    4.90999985    2.17000008
   12.75666714  164.10699463    4.90999985    2.17000008
   12.76083374  179.18099976    4.90999985    2.17000008
   12.76388931  162.63299561    4.90999985    2.17000008
   12.76722240  166.42700195    4.90999985    2.17000008
   12.77027798  162.91499329    4.90999985    2.17000008
   12.77361107  157.51199341    4.90999985    2.17000008
   12.77694416  166.99499512    4.90999985    2.17000008
   12.77916622  171.11000061    4.90999985    2.17000008
   12.78055573  172.59500122    4.90999985    2.19000006
   12.78388977  165.33200073    4.90999985    2.17000008
   12.78694534  162.65299988    4.90999985    2.19000006
   12.79027843  151.13099670    4.90999985    2.19000006
   12.79361153  173.89199829    4.90999985    2.19000006
   12.79944515  173.89199829    4.90999985    2.19000006
   12.80361176  160.68699646    4.90999985    2.21000004
   12.80666733  158.95100403    4.90999985    2.19000006
   12.81000042  167.91900635    4.90999985    2.19000006
   12.81250000  154.40100098    4.90999985    2.21000004
   12.81361103  153.77499390    4.90999985    2.19000006
   12.81694412  169.06500244    4.90999985    2.21000004
   12.81999969  146.26600647    4.90999985    2.21000004
   12.82333374  160.38600159    4.90999985    2.21000004
   12.82666683  163.67199707    4.90999985    2.21000004
   12.82972240  168.91000366    4.90999985    2.21000004
   12.83305550  175.94900513    4.90999985    2.21000004
   12.83611107  186.47399902    4.90999985    2.21000004
   12.84222221  186.47399902    4.90999985    2.21000004
   12.84638882  172.31799316    4.90999985    2.21000004
   12.84972191  174.15199280    4.90999985    2.23000002
   12.85277843  178.17799377    4.90999985    2.23000002
   12.85611153  180.50000000    4.90999985    2.23000002
   12.85944462  172.62600708    4.90999985    2.23000002
   12.86250019  169.90199280    4.90999985    2.23000002
   12.86583328  179.38299561    4.90999985    2.23000002
   12.86888885  164.14999390    4.90999985    2.23000002
   12.87222195  179.61500549    4.90999985    2.23000002
   12.87555599  186.18899536    4.90999985    2.23000002
   12.87861156  173.57600403    4.90999985    2.23000002
   12.87916660  177.21699524    4.90999985    2.23000002
   12.88500023  177.21699524    4.90999985    2.25000000
   12.88916683  162.07899475    4.90999985    2.25000000
   12.89249992  161.47399902    4.90999985    2.25000000
   12.89583302  176.84500122    4.90999985    2.23000002
   12.89888859  156.58299255    4.90999985    2.25000000
   12.90222168  171.59100342    4.90999985    2.25000000
   12.90527725  162.63800049    4.90999985    2.25000000
   12.90861034  158.89500427    4.90999985    2.25000000
   12.91194439  155.46600342    4.90999985    2.25000000
   12.91249943  153.72000122    4.90999985    2.25000000
   12.91527748  140.24099731    4.90999985    2.25000000
   12.91861153  140.66299438    4.90999985    2.25000000
   12.92166710  156.74699402    4.90999985    2.26999998
   12.92805576  156.74699402    4.90999985    2.25000000
   12.93222237  151.23500061    4.90999985    2.25000000
   12.93527794  154.18800354    4.90999985    2.26999998
   12.93861103  142.47999573    4.90999985    2.26999998
   12.94166660  157.15100098    4.90999985    2.26999998
   12.94499969  153.68899536    4.90999985    2.26999998
   12.94583321  149.46200562    4.90999985    2.26999998
   12.94861126  156.57299805    4.90999985    2.26999998
   12.95194435  165.02099609    4.90999985    2.26999998
   12.95499992  160.87300110    4.90999985    2.28999996
   12.95833302  167.57200623    4.90999985    2.26999998
   12.96166611  163.24400330    4.90999985    2.26999998
   12.96472168  171.34700012    4.90999985    2.26999998
   12.97083282  171.34700012    4.90999985    2.26999998
   12.97499943  164.10000610    4.90999985    2.26999998
   12.97805500  156.52900696    4.90999985    2.26999998
   12.97916603  157.11700439    4.90999985    2.26999998
   12.98166656  162.63800049    4.90999985    2.28999996
   12.98500061  152.73899841    4.90999985    2.28999996
   12.98833370  156.48300171    4.90999985    2.28999996
   12.99138927  161.11700439    4.90999985    2.28999996
   12.99472237  156.51800537    4.90999985    2.28999996
   12.99777794  167.90600586    4.90999985    2.28999996
   13.00111103  161.38699341    4.90999985    2.28999996
   13.00444412  166.46299744    4.90999985    2.28999996
   13.00749969  173.94299316    4.90999985    2.28999996
   13.01361084  173.94299316    4.90999985    2.28999996
   13.01777744  169.11399841    4.90999985    2.28999996
   13.02111053  173.90600586    4.90999985    2.28999996
   13.02416611  179.49899292    4.90999985    2.28999996
   13.02750015  178.20399475    4.90999985    2.28999996
   13.03055573  180.87899780    4.90999985    2.28999996
   13.03388977  168.56500244    4.90999985    2.28999996
   13.03722286  171.02299500    4.90999985    2.28999996
   13.04027843  181.15400696    4.90999985    2.28999996
   13.04361153  183.78999329    4.90999985    2.30999994
   13.04611111  174.79899597    4.90999985    2.30999994
   13.04722309  158.48599243    4.90999985    2.28999996
   13.05055618  167.41700745    4.90999985    2.30999994
   13.05638885  167.41700745    4.90999985    2.30999994
   13.06055546  163.41000366    4.90999985    2.30999994
   13.06388950  159.90600586    4.90999985    2.30999994
   13.06694412  169.09599304    4.90999985    2.30999994
   13.07027817  162.11000061    4.90999985    2.30999994
   13.07361126  164.05400085    4.90999985    2.30999994
   13.07694435  151.70599365    4.90999985    2.30999994
   13.07944393  169.19200134    4.90999985    2.30999994
   13.08027744  171.97599792    4.90999985    2.30999994
   13.08361053  169.06100464    4.90999985    2.30999994
   13.08666611  157.26699829    4.90999985    2.32999992
   13.09000015  166.64399719    4.90999985    2.32999992
   13.09333324  175.19599915    4.90999985    2.30999994
   13.09944439  175.19599915    4.90999985    2.30999994
   13.10361195  167.93200684    4.90999985    2.30999994
   13.10666752  170.10699463    4.90999985    2.30999994
   13.11000061  177.31799316    4.90999985    2.30999994
   13.11277771  172.21499634    4.90999985    2.30999994
   13.11361122  158.85200500    4.90999985    2.30999994
   13.11694431  169.93099976    4.90999985    2.32999992
   13.11999989  178.41600037    4.90999985    2.32999992
   13.12333393  163.04800415    4.90999985    2.32999992
   13.12666702  158.22300720    4.90999985    2.32999992
   13.12972260  165.26699829    4.90999985    2.32999992
   13.13305569  170.75300598    4.90999985    2.32999992
   13.13638878  165.37699890    4.90999985    2.32999992
   13.14222240  165.37699890    4.90999985    2.32999992
   13.14638901  152.34800720    4.90999985    2.32999992
   13.14944458  147.84700012    4.90999985    2.32999992
   13.15277767  160.66400146    4.90999985    2.32999992
   13.15611076  154.99499512    4.90999985    2.34999990
   13.15916634  157.46800232    4.90999985    2.32999992
   13.16249943  157.90400696    4.90999985    2.32999992
   13.16583252  162.79200745    4.90999985    2.34999990
   13.16888905  160.90600586    4.90999985    2.34999990
   13.17222214  150.44000244    4.90999985    2.34999990
   13.17527771  162.72700500    4.90999985    2.34999990
   13.17861176  151.70799255    4.90999985    2.34999990
   13.17944431  153.46899414    4.90999985    2.34999990
   13.18500042  153.46899414    4.90999985    2.34999990
   13.18916702  160.13400269    4.90999985    2.34999990
   13.19250011  153.60699463    4.90999985    2.34999990
   13.19555569  160.44099426    4.90999985    2.36999989
   13.19888878  161.90499878    4.90999985    2.34999990
   13.20222187  150.99800110    4.90999985    2.34999990
   13.20527744  154.79100037    4.90999985    2.34999990
   13.20861053  152.86900330    4.90999985    2.36999989
   13.21166611  160.83099365    4.90999985    2.34999990
   13.21277714  146.83700562    4.90999985    2.34999990
   13.21527767  157.67900085    4.90999985    2.34999990
   13.21861076  158.09300232    4.90999985    2.34999990
   13.22166634  169.12699890    4.90999985    2.34999990
   13.22777748  169.12699890    4.90999985    2.36999989
   13.23194408  159.43899536    4.90999985    2.34999990
   13.23527813  145.22999573    4.90999985    2.34999990
   13.23861122  146.59300232    4.90999985    2.36999989
   13.24166679  146.34800720    4.90999985    2.34999990
   13.24499989  148.74099731    4.90999985    2.36999989
   13.24611092  156.88400269    4.90999985    2.36999989
   13.24833393  145.26899719    4.90999985    2.36999989
   13.25166702  142.69900513    4.90999985    2.36999989
   13.25500011  139.24299622    4.90999985    2.36999989
   13.25805569  143.87800598    4.90999985    2.36999989
   13.26138878  151.03700256    4.90999985    2.34999990
   13.26444435  153.51699829    4.90999985    2.36999989
   13.27083302  153.51699829    4.90999985    2.36999989
   13.27472210  150.37399292    4.90999985    2.39000010
   13.27805519  146.10200500    4.90999985    2.39000010
   13.27944374  149.16000366    4.90999985    2.39000010
   13.28166676  137.18200684    4.90999985    2.39000010
   13.28500080  140.11599731    4.90999985    2.39000010
   13.28805637  144.15199280    4.90999985    2.39000010
   13.29138947  153.12600708    4.90999985    2.36999989
   13.29472256  147.15600586    4.90999985    2.36999989
   13.29777813  149.25700378    4.90999985    2.39000010
   13.30111122  153.58900452    4.90999985    2.36999989
   13.30444431  148.83900452    4.90999985    2.39000010
   13.30749989  134.62199402    4.90999985    2.39000010
   13.31361103  134.62199402    4.90999985    2.39000010
   13.31777763  142.89100647    4.90999985    2.36999989
   13.32083321  140.94200134    4.90999985    2.39000010
   13.32416630  148.66600037    4.90999985    2.39000010
   13.32750034  137.45899963    4.90999985    2.39000010
   13.33055592  124.79599762    4.90999985    2.39000010
   13.33388901  146.76600647    4.90999985    2.39000010
   13.33694458  145.58599854    4.90999985    2.39000010
   13.34027767  152.65499878    4.90999985    2.36999989
   13.34361076  144.32899475    4.90999985    2.36999989
   13.34611034  153.90699768    4.90999985    2.39000010
   13.34694386  148.32899475    4.90999985    2.39000010
   13.35027790  143.47799683    4.90999985    2.39000010
   13.35638905  143.47799683    4.90999985    2.40000010
   13.36055565  159.95199585    4.90999985    2.40000010
   13.36388969  148.67599487    4.90999985    2.40000010
   13.36694431  150.37699890    4.90999985    2.39000010
   13.37027836  161.97999573    4.90999985    2.39000010
   13.37361145  156.75500488    4.90999985    2.40000010
   13.37666702  151.39700317    4.90999985    2.40000010
   13.37944412  159.55099487    4.90999985    2.39000010
   13.38027763  151.82800293    4.90999985    2.39000010
   13.38361073  149.42900085    4.90999985    2.40000010
   13.38694477  155.61000061    4.90999985    2.40000010
   13.39000034  162.72900391    4.90999985    2.40000010
   13.39333344  166.83900452    4.90999985    2.40000010
   13.39916611  166.83900452    4.90999985    2.40000010
   13.40333271  163.39700317    4.90999985    2.40000010
   13.40666676  159.54600525    4.90999985    2.40000010
   13.40999985  169.55700684    4.90999985    2.40000010
   13.41277695  168.50100708    4.90999985    2.40000010
   13.41333294  157.08900452    4.90999985    2.42000008
   13.41666698  155.94799805    4.90999985    2.40000010
   13.42000008  164.92999268    4.90999985    2.40000010
   13.42305565  148.41900635    4.90999985    2.40000010
   13.42638874  143.16999817    4.90999985    2.40000010
   13.42944431  149.55900574    4.90999985    2.40000010
   13.43277836  150.60000610    4.90999985    2.40000010
   13.43611145  158.33299255    4.90999985    2.40000010
   13.44222260  158.33299255    4.90999985    2.39000010
   13.44638920  156.64399719    4.90999985    2.40000010
   13.44944477  157.33500671    4.90999985    2.40000010
   13.45277786  159.37600708    4.90999985    2.40000010
   13.45611095  148.16400146    4.90999985    2.40000010
   13.45916653  160.30400085    4.90999985    2.40000010
   13.46249962  154.58399963    4.90999985    2.40000010
   13.46555519  159.47500610    4.90999985    2.40000010
   13.46888828  126.98999786    4.90999985    2.40000010
   13.47222137  160.45100403    4.90999985    2.40000010
   13.47527695  164.62199402    4.90999985    2.40000010
   13.47861099  154.25199890    4.90999985    2.40000010
   13.47944355  153.20899963    4.90999985    2.40000010
   13.50000000  153.20899963    4.90999985    2.42000008
   13.50416660  144.33900452    4.90999985    2.42000008
   13.50749969  149.68400574    4.90999985    2.42000008
   13.51055527  149.85200500    4.90999985    2.42000008
   13.51277733  149.62199402    4.90999985    2.40000010
   13.51416683  151.88600159    4.90999985    2.40000010
   13.51749992  148.61399841    4.90999985    2.42000008
   13.52083302  159.87399292    4.90999985    2.42000008
   13.52388859  152.11900330    4.90999985    2.42000008
   13.52722168  152.63800049    4.90999985    2.42000008
   13.53055573  146.47099304    4.90999985    2.42000008
   13.53361130  147.06900024    4.90999985    2.42000008
   13.53694534  156.50799561    4.90999985    2.42000008
   13.54277802  156.50799561    4.90999985    2.42000008
   13.54694462  155.26100159    4.90999985    2.44000006
   13.55027771  146.57000732    4.90999985    2.42000008
   13.55333328  148.81399536    4.90999985    2.42000008
   13.55666733  145.47000122    4.90999985    2.42000008
   13.56000042  144.54899597    4.90999985    2.44000006
   13.56305599  144.89100647    4.90999985    2.42000008
   13.56638908  149.97999573    4.90999985    2.44000006
   13.56972218  146.18600464    4.90999985    2.42000008
   13.57277775  147.63999939    4.90999985    2.44000006
   13.57611084  145.28199768    4.90999985    2.44000006
   13.57916641  148.27200317    4.90999985    2.44000006
   13.57972240  145.09300232    4.90999985    2.44000006
   13.58583260  145.09300232    4.90999985    2.44000006
   13.58972168  149.76400757    4.90999985    2.44000006
   13.59305477  145.55299377    4.90999985    2.44000006
   13.59638882  143.81300354    4.90999985    2.44000006
   13.59944439  154.76699829    4.90999985    2.44000006
   13.60277843  150.69700623    4.90999985    2.46000004
   13.60611153  150.90299988    4.90999985    2.46000004
   13.60916710  154.68099976    4.90999985    2.46000004
   13.61250019  157.57499695    4.90999985    2.44000006
   13.61305618  160.55000305    4.90999985    2.44000006
   13.61611176  152.55099487    4.90999985    2.46000004
   13.61916637  159.02900696    4.90999985    2.46000004
   13.62250042  146.24000549    4.90999985    2.44000006
   13.62861156  146.24000549    4.90999985    2.46000004
   13.63277817  147.35299683    4.90999985    2.46000004
   13.63583279  152.51899719    4.90999985    2.44000006
   13.63916683  155.91499329    4.90999985    2.46000004
   13.64249992  143.35699463    4.90999985    2.46000004
   13.64555550  148.15299988    4.90999985    2.46000004
   13.64638901  142.05200195    4.90999985    2.46000004
   13.64916611  152.64700317    4.90999985    2.44000006
   13.65222168  157.27499390    4.90999985    2.46000004
   13.65555477  144.34800720    4.90999985    2.44000006
   13.65888882  155.08700562    4.90999985    2.46000004
   13.66194439  144.56599426    4.90999985    2.44000006
   13.66527748  141.76699829    4.90999985    2.46000004
   13.67138958  141.76699829    4.90999985    2.46000004
   13.67555618  154.58200073    4.90999985    2.46000004
   13.67888927  151.21699524    4.90999985    2.46000004
   13.67972279  148.36700439    4.90999985    2.46000004
   13.68249989  143.23699951    4.90999985    2.46000004
   13.68555546  148.01300049    4.90999985    2.46000004
   13.68888855  138.81900024    4.90999985    2.46000004
   13.69222260  151.80299377    4.90999985    2.46000004
   13.69527817  149.98300171    4.90999985    2.48000002
   13.69861126  146.90499878    4.90999985    2.46000004
   13.70166683  140.00799561    4.90999985    2.48000002
   13.70499992  152.89799500    4.90999985    2.46000004
   13.70833302  158.84599304    4.90999985    2.46000004
   13.71416664  158.84599304    4.90999985    2.46000004
   13.71833324  146.61599731    4.90999985    2.46000004
   13.72166634  153.99000549    4.90999985    2.46000004
   13.72472191  144.97300720    4.90999985    2.46000004
   13.72805500  143.80900574    4.90999985    2.46000004
   13.73138809  148.49499512    4.90999985    2.48000002
   13.73444462  154.50399780    4.90999985    2.48000002
   13.73777771  136.29499817    4.90999985    2.46000004
   13.74083328  139.55700684    4.90999985    2.46000004
   13.74416733  152.38699341    4.90999985    2.46000004
   13.74638939  150.62600708    4.90999985    2.46000004
   13.74777794  150.44999695    4.90999985    2.46000004
   13.75083351  153.54100037    4.90999985    2.46000004
   13.75694466  153.54100037    4.90999985    2.46000004
   13.76111126  149.83099365    4.90999985    2.46000004
   13.76444435  154.71800232    4.90999985    2.48000002
   13.76777744  154.03500366    4.90999985    2.48000002
   13.77083302  149.57000732    4.90999985    2.46000004
   13.77416611  164.07099915    4.90999985    2.46000004
   13.77722168  171.17300415    4.90999985    2.46000004
   13.77972221  166.03100586    4.90999985    2.46000004
   13.78111076  162.46600342    4.90999985    2.46000004
   13.78416729  163.44900513    4.90999985    2.48000002
   13.78750038  171.92999268    4.90999985    2.48000002
   13.79083347  181.51499939    4.90999985    2.46000004
   13.79388905  184.55999756    4.90999985    2.48000002
   13.80000019  184.55999756    4.90999985    2.48000002
   13.80416679  199.58999634    4.90999985    2.48000002
   13.80722237  207.80900574    4.90999985    2.48000002
   13.81055546  211.85499573    4.90999985    2.48000002
   13.81305599  213.87300110    4.90999985    2.48000002
   13.81416702  233.44500732    4.90999985    2.48000002
   13.81722260  242.82400513    4.90999985    2.48000002
   13.82055569  232.28199768    4.90999985    2.48000002
   13.82388878  253.58099365    4.90999985    2.50000000
   13.82694435  291.20098877    4.90999985    2.48000002
   13.83027744  309.11801147    4.90999985    2.48000002
   13.83222198  311.45800781    4.90999985    2.48000002
   13.83361053  358.74398804    4.90999985    2.48000002
   13.83500004  372.19699097    4.90999985    2.48000002
   13.83638859  376.62399292    4.90999985    2.50000000
   13.83777714  404.21798706    4.90999985    2.48000002
   13.83916664  446.92999268    4.90999985    2.48000002
   13.84055519  430.41198730    4.90999985    2.48000002
   13.84194374  369.86700439    4.90999985    2.50000000
   13.84333324  370.74798584    4.90999985    2.48000002
   13.84472179  305.50601196    4.90999985    2.48000002
   13.84611034  247.62399292    4.90999985    2.48000002
   13.84749985  199.90600586    4.90999985    2.48000002
   13.84749985  291.20098877    4.90999985    2.48000002
   13.84749985  309.11801147    4.90999985    2.48000002
   13.84749985  199.58999634    4.90999985    2.48000002
   13.84777737  207.80900574    4.90999985    2.48000002
   13.84777737  211.85499573    4.90999985    2.48000002
   13.84777737  233.44500732    4.90999985    2.48000002
   13.84777737  242.82400513    4.90999985    2.48000002
   13.84777737  232.28199768    4.90999985    2.48000002
   13.84805489  253.58099365    4.90999985    2.50000000
   13.84861088  171.05299377    4.90999985    2.50000000
   13.85166740  118.02400208    4.90999985    2.48000002
   13.85500050  121.38999939    4.90999985    2.48000002
   13.85805607  126.54599762    4.90999985    2.50000000
   13.86138916   86.25939941    4.90999985    2.48000002
   13.86833382   86.25939941    4.90999985    2.48000002
   13.87222195   23.57019997    4.90999985    2.48000002
   13.87555599   -1.00000000   -1.00000000   -1.00000000
   13.87888908   -1.00000000    4.90999985    2.48000002
   13.88222218   -1.00000000    4.90999985    2.50000000
   13.88555527   -1.00000000    4.90999985    2.48000002
   13.88861084   -1.00000000    4.90999985    2.48000002
   13.89194393   -1.00000000    4.90999985    2.48000002
   13.89499950   -1.00000000    4.90999985    2.48000002
   13.89833355   -1.00000000    4.90999985    2.50000000
   13.90166664   -1.00000000    4.90999985    2.48000002
   13.90472221   -1.00000000    4.90999985    2.48000002
   13.91499996   -1.00000000    4.90999985    2.48000002
   13.91833401   -1.00000000    4.90999985    2.50000000
   13.92166710   -1.00000000    4.90999985    2.50000000
   13.92472267   -1.00000000    4.90999985    2.50000000
   13.92805576   -1.00000000    4.90999985    2.48000002
   13.93138885   -1.00000000    4.90999985    2.48000002
   13.93444443   -1.00000000    4.90999985    2.48000002
   13.93777752   -1.00000000    4.90999985    2.48000002
   13.94083309   -1.00000000    4.90999985    2.50000000
   13.94416714   -1.00000000    4.90999985    2.48000002
   13.94750023   -1.00000000    4.90999985    2.50000000
   13.95805550   -1.00000000    4.90999985    2.50000000
   13.96111107   -1.00000000    4.90999985    2.51999998
   13.96444416   -1.00000000    4.90999985    2.51999998
   13.96777725   -1.00000000    4.90999985    2.51999998
   13.97083282   -1.00000000    4.90999985    2.50000000
   13.97416592   -1.00000000    4.90999985    2.50000000
   13.97722149   -1.00000000    4.90999985    2.50000000
   13.98055553   -1.00000000    4.90999985    2.50000000
   13.98416710   -1.00000000    4.90999985    2.50000000
   13.98750019   -1.00000000    4.90999985    2.50000000
   13.99055576   -1.00000000    4.90999985    2.50000000
   14.00083351   -1.00000000    4.90999985    2.50000000
   14.00416660   -1.00000000    4.90999985    2.50000000
   14.00722218   -1.00000000    4.90999985    2.50000000
   14.01055527   -1.00000000    4.90999985    2.51999998
   14.01388931   -1.00000000    4.90999985    2.50000000
   14.01722240   -1.00000000    4.90999985    2.50000000
   14.02055550   -1.00000000    4.90999985    2.51999998
   14.02361107   -1.00000000    4.90999985    2.51999998
   14.02694416   -1.00000000    4.90999985    2.51999998
   14.03027725   -1.00000000    4.90999985    2.51999998
   14.03333378   -1.00000000    4.90999985    2.51999998
   14.04361153   -1.00000000    4.90999985    2.51999998
   14.05694485  136.89300537    4.90999985    2.51999998
   14.06000042  146.56399536    4.90999985    2.51999998
   14.06333351  147.47599792    4.90999985    2.51999998
   14.06638908  142.57099915    4.90999985    2.51999998
   14.06972218  145.38000488    4.90999985    2.51999998
   14.07305527  133.10499573    4.90999985    2.53999996
   14.07722187  133.10499573    4.90999985    2.51999998
   14.08111095  147.11300659    4.90999985    2.51999998
   14.08444405  148.80499268    4.90999985    2.51999998
   14.08777714  151.70599365    4.90999985    2.51999998
   14.09027767  141.00199890    4.90999985    2.51999998
   14.09111118  151.64999390    4.90999985    2.51999998
   14.09444427  139.90299988    4.90999985    2.51999998
   14.09749985  157.46099854    4.90999985    2.51999998
   14.10083389  152.72900391    4.90999985    2.51999998
   14.10416698  141.48199463    4.90999985    2.51999998
   14.10722256  151.30700684    4.90999985    2.51999998
   14.11055565  154.48300171    4.90999985    2.51999998
   14.11361122  158.90199280    4.90999985    2.53999996
   14.11999989  158.90199280    4.90999985    2.51999998
   14.12416649  150.91099548    4.90999985    2.51999998
   14.12722206  151.39700317    4.90999985    2.51999998
   14.13055611  152.83099365    4.90999985    2.51999998
   14.13361073  155.53999329    4.90999985    2.53999996
   14.13694477  146.71299744    4.90999985    2.53999996
   14.14027786  144.43200684    4.90999985    2.51999998
   14.14333344  144.82899475    4.90999985    2.53999996
   14.14666653  143.17700195    4.90999985    2.51999998
   14.14999962  156.54699707    4.90999985    2.51999998
   14.15305519  149.51199341    4.90999985    2.51999998
   14.15638828  143.05700684    4.90999985    2.53999996
   14.15694427  146.26400757    4.90999985    2.53999996
   14.16277695  146.26400757    4.90999985    2.53999996
   14.16694450  145.36900330    4.90999985    2.51999998
   14.17000008  145.72900391    4.90999985    2.53999996
   14.17333412  144.13900757    4.90999985    2.51999998
   14.17666721  147.94299316    4.90999985    2.51999998
   14.17972279  149.12500000    4.90999985    2.51999998
   14.18305588  150.93200684    4.90999985    2.51999998
   14.18638897  143.60000610    4.90999985    2.51999998
   14.18944454  147.22999573    4.90999985    2.53999996
   14.19027805  143.95899963    4.90999985    2.53999996
   14.19305515  148.95399475    4.90999985    2.53999996
   14.19638920  145.77999878    4.90999985    2.53999996
   14.19944477  145.61199951    4.90999985    2.53999996
   14.20555496  145.61199951    4.90999985    2.53999996
   14.20972157  158.15699768    4.90999985    2.53999996
   14.21305561  145.19599915    4.90999985    2.53999996
   14.21611118  156.53700256    4.90999985    2.53999996
   14.21944427  154.59399414    4.90999985    2.53999996
   14.22277737  156.08799744    4.90999985    2.53999996
   14.22361088  153.41200256    4.90999985    2.53999996
   14.22611046  144.69400024    4.90999985    2.53999996
   14.22944355  156.36000061    4.90999985    2.53999996
   14.23249912  149.19400024    4.90999985    2.53999996
   14.23583317  160.34599304    4.90999985    2.53999996
   14.23916721  155.89300537    4.90999985    2.53999996
   14.24222279  156.61799622    4.90999985    2.53999996
   14.24861145  156.61799622    4.90999985    2.53999996
   14.25249958  154.24600220    4.90999985    2.53999996
   14.25583363  153.02799988    4.90999985    2.53999996
   14.25694466  151.63600159    4.90999985    2.53999996
   14.25944424  148.77999878    4.90999985    2.55999994
   14.26277733  156.49000549    4.90999985    2.53999996
   14.26611137  150.73199463    4.90999985    2.55999994
   14.26916599  146.36599731    4.90999985    2.55999994
   14.27250004  148.20700073    4.90999985    2.55999994
   14.27555561  147.52799988    4.90999985    2.55999994
   14.27888870  157.62300110    4.90999985    2.53999996
   14.28222179  160.75500488    4.90999985    2.53999996
   14.28527832  152.19500732    4.90999985    2.53999996
   14.29138947  152.19500732    4.90999985    2.53999996
   14.29555607  158.00000000    4.90999985    2.53999996
   14.29861164  156.95700073    4.90999985    2.55999994
   14.30194473  165.26300049    4.90999985    2.55999994
   14.30500031  155.12199402    4.90999985    2.53999996
   14.30833340  158.17300415    4.90999985    2.53999996
   14.31166649  150.95500183    4.90999985    2.53999996
   14.31472206  153.34199524    4.90999985    2.53999996
   14.31805515  156.12399292    4.90999985    2.53999996
   14.32138920  161.03799438    4.90999985    2.53999996
   14.32361126  157.22099304    4.90999985    2.55999994
   14.32472229  152.61599731    4.90999985    2.55999994
   14.32805538  158.03700256    4.90999985    2.53999996
   14.33416653  158.03700256    4.90999985    2.55999994
   14.33833313  145.25100708    4.90999985    2.55999994
   14.34138870  145.04200745    4.90999985    2.55999994
   14.34472179  143.97799683    4.90999985    2.55999994
   14.34805489  149.78999329    4.90999985    2.55999994
   14.35111141  151.41900635    4.90999985    2.55999994
   14.35444450  162.92100525    4.90999985    2.53999996
   14.35694504  147.79200745    4.90999985    2.53999996
   14.35805607  159.46699524    4.90999985    2.55999994
   14.36138916  150.75300598    4.90999985    2.55999994
   14.36472225  156.32699585    4.90999985    2.55999994
   14.36777782  154.69299316    4.90999985    2.55999994
   14.37111092  154.19099426    4.90999985    2.55999994
   14.37694454  154.19099426    4.90999985    2.55999994
   14.38111115  141.95500183    4.90999985    2.55999994
   14.38444424  158.10400391    4.90999985    2.55999994
   14.38777733  154.99499512    4.90999985    2.55999994
   14.39027786  149.75700378    4.90999985    2.55999994
   14.39111137  151.67199707    4.90999985    2.55999994
   14.39444447  154.61599731    4.90999985    2.55999994
   14.39777756  158.86199951    4.90999985    2.55999994
   14.40083313  162.35600281    4.90999985    2.55999994
   14.40416622  153.77299500    4.90999985    2.55999994
   14.40722179  157.23500061    4.90999985    2.55999994
   14.41055489  150.20700073    4.90999985    2.55999994
   14.41388893  164.65299988    4.90999985    2.55999994
   14.41972256  164.65299988    4.90999985    2.55999994
   14.42388916  155.49099731    4.90999985    2.55999994
   14.42722225  161.05700684    4.90999985    2.55999994
   14.43055630  145.65299988    4.90999985    2.55999994
   14.43361092  151.65800476    4.90999985    2.55999994
   14.43694496  154.48100281    4.90999985    2.57999992
   14.44000053  155.69000244    4.90999985    2.55999994
   14.44333363  162.04499817    4.90999985    2.57999992
   14.44666672  156.53199768    4.90999985    2.57999992
   14.44972229  152.67599487    4.90999985    2.55999994
   14.45305538  155.50999451    4.90999985    2.57999992
   14.45638847  153.35499573    4.90999985    2.57999992
   14.45694447  152.50100708    4.90999985    2.57999992
   14.46277714  152.50100708    4.90999985    2.57999992
   14.46694374  151.45799255    4.90999985    2.57999992
   14.46999931  150.64399719    4.90999985    2.55999994
   14.47333336  151.84599304    4.90999985    2.55999994
   14.47638798  147.39599609    4.90999985    2.55999994
   14.47972202  153.81599426    4.90999985    2.55999994
   14.48305511  153.47700500    4.90999985    2.55999994
   14.48611164  143.97500610    4.90999985    2.55999994
   14.48944473  145.88000488    4.90999985    2.55999994
   14.49027824  154.52400208    4.90999985    2.55999994
   14.49277782  148.82800293    4.90999985    2.55999994
   14.49611092  146.53900146    4.90999985    2.55999994
   14.49944496  149.93200684    4.90999985    2.55999994
   14.50555515  149.93200684    4.90999985    2.55999994
   14.50972176  144.18499756    4.90999985    2.57999992
   14.51277733  150.86000061    4.90999985    2.55999994
   14.51611137  149.03799438    4.90999985    2.57999992
   14.51944447  145.83500671    4.90999985    2.55999994
   14.52250004  150.65299988    4.90999985    2.55999994
   14.52361107  150.61199951    4.90999985    2.57999992
   14.52611065  151.34500122    4.90999985    2.55999994
   14.52944374  144.75000000    4.90999985    2.57999992
   14.53277779  159.23500061    4.90999985    2.57999992
   14.53583336  159.15100098    4.90999985    2.57999992
   14.53916740  152.83200073    4.90999985    2.57999992
   14.54222298  148.83099365    4.90999985    2.55999994
   14.54833412  148.83099365    4.90999985    2.55999994
   14.55249977  150.10499573    4.90999985    2.55999994
   14.55583382  158.07299805    4.90999985    2.57999992
   14.55694485  151.85400391    4.90999985    2.57999992
   14.55916691  148.09800720    4.90999985    2.55999994
   14.56250000  151.29699707    4.90999985    2.55999994
   14.56583309  158.75300598    4.90999985    2.57999992
   14.56888866  156.09100342    4.90999985    2.55999994
   14.57222176  145.58700562    4.90999985    2.55999994
   14.57527733  153.65499878    4.90999985    2.55999994
   14.57861137  157.50700378    4.90999985    2.57999992
   14.58194447  151.92900085    4.90999985    2.55999994
   14.58500004  151.35499573    4.90999985    2.55999994
   14.59111118  151.35499573    4.90999985    2.57999992
   14.59527779  152.88800049    4.90999985    2.55999994
   14.59861088  156.53300476    4.90999985    2.57999992
   14.60194492  160.96899414    4.90999985    2.55999994
   14.60500050  166.71299744    4.90999985    2.55999994
   14.60833359  160.85800171    4.90999985    2.57999992
   14.61138916  152.18299866    4.90999985    2.57999992
   14.61472225  159.53399658    4.90999985    2.55999994
   14.61805534  161.84199524    4.90999985    2.57999992
   14.62111092  159.93400574    4.90999985    2.55999994
   14.62361145  159.43699646    4.90999985    2.57999992
   14.62472248  157.08299255    4.90999985    2.57999992
   14.62805557  163.03100586    4.90999985    2.55999994
   14.63416672  163.03100586    4.90999985    2.57999992
   14.63805580  153.93699646    4.90999985    2.57999992
   14.64138889  162.09500122    4.90999985    2.57999992
   14.64472198  161.13400269    4.90999985    2.57999992
   14.64777756  156.32499695    4.90999985    2.55999994
   14.65111065  163.47200012    4.90999985    2.57999992
   14.65444374  162.30599976    4.90999985    2.57999992
   14.65694427  157.43800354    4.90999985    2.57999992
   14.65777779  159.87899780    4.90999985    2.55999994
   14.66111088  156.69299316    4.90999985    2.55999994
   14.66444397  152.27099609    4.90999985    2.57999992
   14.66750050  156.02200317    4.90999985    2.57999992
   14.67083359  155.37600708    4.90999985    2.57999992
   14.67694473  155.37600708    4.90999985    2.55999994
   14.68111134  152.50100708    4.90999985    2.57999992
   14.68416691  159.23399353    4.90999985    2.55999994
   14.68750000  155.14399719    4.90999985    2.59999990
   14.69027805  150.13699341    4.90999985    2.57999992
   14.69111156  157.57800293    4.90999985    2.57999992
   14.69444466  150.82600403    4.90999985    2.57999992
   14.69777775  155.04699707    4.90999985    2.57999992
   14.70083332  156.31300354    4.90999985    2.57999992
   14.70416641  140.12800598    4.90999985    2.57999992
   14.70749950  150.93099976    4.90999985    2.57999992
   14.71055508  159.67300415    4.90999985    2.59999990
   14.71388912  160.62699890    4.90999985    2.57999992
   14.71972179  160.62699890    4.90999985    2.57999992
   14.72388840  148.13999939    4.90999985    2.57999992
   14.72722149  153.92999268    4.90999985    2.59999990
   14.73027706  146.98100281    4.90999985    2.57999992
   14.73361111  148.96600342    4.90999985    2.57999992
   14.73694515  155.08399963    4.90999985    2.57999992
   14.74000072  154.98500061    4.90999985    2.57999992
   14.74333382  153.10699463    4.90999985    2.59999990
   14.74666691  151.22399902    4.90999985    2.57999992
   14.74972248  157.18099976    4.90999985    2.57999992
   14.75305557  150.51899719    4.90999985    2.57999992
   14.75638866  158.98599243    4.90999985    2.57999992
   14.75694466  166.83500671    4.90999985    2.57999992
   14.76249981  166.83500671    4.90999985    2.57999992
   14.76666641  159.01199341    4.90999985    2.57999992
   14.76999950  175.26400757    4.90999985    2.59999990
   14.77333355  160.07099915    4.90999985    2.59999990
   14.77638817  151.89399719    4.90999985    2.59999990
   14.77972221  163.30999756    4.90999985    2.59999990
   14.78277779  145.88900757    4.90999985    2.59999990
   14.78611183  152.00000000    4.90999985    2.57999992
   14.78944492  155.80599976    4.90999985    2.57999992
   14.79027843  148.55299377    4.90999985    2.59999990
   14.79305553  137.07800293    4.90999985    2.57999992
   14.79611111  157.51400757    4.90999985    2.59999990
   14.79944515  151.80400085    4.90999985    2.57999992
   14.80555534  151.80400085    4.90999985    2.57999992
   14.80972195  153.84500122    4.90999985    2.57999992
   14.81277752  152.89799500    4.90999985    2.57999992
   14.81611156  159.00199890    4.90999985    2.57999992
   14.81916618  147.07000732    4.90999985    2.57999992
   14.82250023  149.98899841    4.90999985    2.59999990
   14.82361126  150.13000488    4.90999985    2.57999992
   14.82638836  157.65800476    4.90999985    2.59999990
   14.82944393  158.21600342    4.90999985    2.59999990
   14.83277798  155.10800171    4.90999985    2.57999992
   14.83583260  141.51899719    4.90999985    2.59999990
   14.83916664  149.93200684    4.90999985    2.59999990
   14.84249973  141.52000427    4.90999985    2.59999990
   14.84833336  141.52000427    4.90999985    2.59999990
   14.85249996  153.09700012    4.90999985    2.59999990
   14.85555553  149.61700439    4.90999985    2.59999990
   14.85694504  148.83500671    4.90999985    2.59999990
   14.85944462  146.26100159    4.90999985    2.59999990
   14.86250019  148.31300354    4.90999985    2.59999990
   14.86583328  153.08200073    4.90999985    2.59999990
   14.86888885  145.72599792    4.90999985    2.59999990
   14.87222195  149.25199890    4.90999985    2.59999990
   14.87555599  150.68099976    4.90999985    2.59999990
   14.87861156  151.70100403    4.90999985    2.59999990
   14.88194466  150.55599976    4.90999985    2.59999990
   14.88527775  152.06500244    4.90999985    2.59999990
   14.89111137  152.06500244    4.90999985    2.57999992
   14.89527798  154.46699524    4.90999985    2.59999990
   14.89861107  155.21600342    4.90999985    2.59999990
   14.90166664  151.46499634    4.90999985    2.59999990
   14.90499973  153.06900024    4.90999985    2.59999990
   14.90833282  146.58599854    4.90999985    2.59999990
   14.91138840  149.64599609    4.90999985    2.61999989
   14.91472149  151.69700623    4.90999985    2.61999989
   14.91777802  143.01699829    4.90999985    2.59999990
   14.92111111  152.94999695    4.90999985    2.59999990
   14.92361164  157.32499695    4.90999985    2.59999990
   14.92472267  160.22700500    4.90999985    2.59999990
   14.92777824  158.65699768    4.90999985    2.59999990
   14.93388939  158.65699768    4.90999985    2.59999990
   14.93805599  149.24899292    4.90999985    2.59999990
   14.94138908  147.26300049    4.90999985    2.61999989
   14.94472218  160.31599426    4.90999985    2.59999990
   14.94777775  158.00000000    4.90999985    2.59999990
   14.95111084  140.33200073    4.90999985    2.61999989
   14.95416641  155.95799255    4.90999985    2.59999990
   14.95694447  152.98399353    4.90999985    2.59999990
   14.95805550  158.53300476    4.90999985    2.59999990
   14.96111107  153.99099731    4.90999985    2.59999990
   14.96444416  155.42900085    4.90999985    2.59999990
   14.96749973  152.38099670    4.90999985    2.61999989
   14.97083282  153.40299988    4.90999985    2.59999990
   14.97694397  153.40299988    4.90999985    2.59999990
   14.98111057  147.22099304    4.90999985    2.61999989
   14.98416710  148.84500122    4.90999985    2.59999990
   14.98750019  148.88200378    4.90999985    2.59999990
   14.99027824  156.97599792    4.90999985    2.59999990
   14.99111176  159.31399536    4.90999985    2.59999990
   14.99416733  159.72500610    4.90999985    2.59999990
   14.99750042  155.17500305    4.90999985    2.59999990
   15.00055599  161.82899475    4.90999985    2.61999989
   15.00388908  156.33399963    4.90999985    2.59999990
   15.00722218  160.16799927    4.90999985    2.61999989
   15.01027775  154.28399658    4.90999985    2.59999990
   15.01361084  149.47300720    4.90999985    2.59999990
   15.01972198  149.47300720    4.90999985    2.61999989
   15.02388859  150.10699463    4.90999985    2.61999989
   15.02694416  146.02900696    4.90999985    2.59999990
   15.03027725  152.73899841    4.90999985    2.61999989
   15.03361130  151.43400574    4.90999985    2.59999990
   15.03666687  157.21699524    4.90999985    2.61999989
   15.04000092  155.39900208    4.90999985    2.61999989
   15.04333401  154.04800415    4.90999985    2.59999990
   15.04638958  156.02600098    4.90999985    2.61999989
   15.04972267  150.77600098    4.90999985    2.61999989
   15.05277824  147.11500549    4.90999985    2.61999989
   15.05611134  159.59800720    4.90999985    2.64000010
   15.05694485  152.35499573    4.90999985    2.64000010
   15.07777786  152.35499573    4.90999985    2.59999990
   15.08194447  161.52699280    4.90999985    2.61999989
   15.08500004  159.62300110    4.90999985    2.59999990
   15.08833313  153.39900208    4.90999985    2.61999989
   15.09027767  161.95799255    4.90999985    2.59999990
   15.09194374  150.24200439    4.90999985    2.61999989
   15.09499931  150.64799500    4.90999985    2.61999989
   15.09833336  158.27299500    4.90999985    2.61999989
   15.10166740  164.90699768    4.90999985    2.59999990
   15.10472298  151.63900757    4.90999985    2.57999992
   15.10805607  153.16499329    4.90999985    2.55999994
   15.11111164  147.08299255    4.90999985    2.55999994
   15.11444473  156.06399536    4.90999985    2.57999992
   15.12055588  156.06399536    4.90999985    2.53999996
   15.12444496  148.66299438    4.90999985    2.50000000
   15.12777805  151.59300232    4.90999985    2.55999994
   15.13111115  150.75900269    4.90999985    2.55999994
   15.13416672  143.95599365    4.90999985    2.57999992
   15.13749981  147.64900208    4.90999985    2.59999990
   15.14083290  152.69900513    4.90999985    2.59999990
   15.14388847  153.75700378    4.90999985    2.59999990
   15.14722252  148.37399292    4.90999985    2.61999989
   15.15027714  149.41299438    4.90999985    2.61999989
   15.15361118  156.26699829    4.90999985    2.61999989
   15.15694427  156.04299927    4.90999985    2.57999992
   15.15722179  149.61000061    4.90999985    2.57999992
   15.16333294  149.61000061    4.90999985    2.61999989
   15.16750050  141.27699280    4.90999985    2.61999989
   15.17055607  149.57000732    4.90999985    2.61999989
   15.17388916  161.70399475    4.90999985    2.61999989
   15.17694473  160.82200623    4.90999985    2.61999989
   15.18027782  157.75999451    4.90999985    2.61999989
   15.18361092  151.85299683    4.90999985    2.61999989
   15.18666649  165.46499634    4.90999985    2.59999990
   15.19000053  133.50300598    4.90999985    2.55999994
   15.19055557  154.22099304    4.90999985    2.53999996
   15.19361115  144.62699890    4.90999985    2.61999989
   15.19694424  158.38400269    4.90999985    2.57999992
   15.19999981  145.59199524    4.90999985    2.57999992
   15.20611095  145.59199524    4.90999985    2.59999990
   15.21027756  153.06399536    4.90999985    2.57999992
   15.21361065  157.58299255    4.90999985    2.57999992
   15.21666622  169.52600098    4.90999985    2.57999992
   15.21999931  162.81700134    4.90999985    2.55999994
   15.22305489  162.42599487    4.90999985    2.55999994
   15.22388840  160.77499390    4.90999985    2.55999994
   15.22666645  163.71099854    4.90999985    2.59999990
   15.22999954  158.52499390    4.90999985    2.57999992
   15.23305511  148.16900635    4.90999985    2.55999994
   15.23638916  157.05999756    4.90999985    2.57999992
   15.23972225  153.40699768    4.90999985    2.57999992
   15.24277782  168.55400085    4.90999985    2.55999994
   15.24888897  168.55400085    4.90999985    2.55999994
   15.25305557  158.74299622    4.90999985    2.53999996
   15.25638866  148.86999512    4.90999985    2.57999992
   15.25722218  160.00900269    4.90999985    2.59999990
   15.26000023  153.29800415    4.90999985    2.59999990
   15.26333332  151.67199707    4.90999985    2.59999990
   15.26638889  144.50100708    4.90999985    2.59999990
   15.26972198  151.86399841    4.90999985    2.59999990
   15.27305508  160.05599976    4.90999985    2.57999992
   15.27611065  149.86300659    4.90999985    2.57999992
   15.27944374  154.45599365    4.90999985    2.55999994
   15.28249931  157.03999329    4.90999985    2.53999996
   15.28583336  154.15100098    4.90999985    2.57999992
   15.29194450  154.15100098    4.90999985    2.55999994
   15.29583359  150.86099243    4.90999985    2.57999992
   15.29916668  155.08299255    4.90999985    2.61999989
   15.30249977  156.48899841    4.90999985    2.59999990
   15.30555534  154.96899414    4.90999985    2.59999990
   15.30888939  173.55299377    4.90999985    2.55999994
   15.31222248  152.34100342    4.90999985    2.55999994
   15.31527805  158.59300232    4.90999985    2.55999994
   15.31861115  152.97300720    4.90999985    2.57999992
   15.32166672  167.03199768    4.90999985    2.61999989
   15.32416630  162.22399902    4.90999985    2.64000010
   15.32527733  162.95300293    4.90999985    2.61999989
   15.32861137  162.50100708    4.90999985    2.59999990
   15.33472157  162.50100708    4.90999985    2.57999992
   15.33888817  167.92999268    4.90999985    2.53999996
   15.34194374  166.19700623    4.90999985    2.53999996
   15.34527779  159.25500488    4.90999985    2.57999992
   15.34861088  165.10299683    4.90999985    2.53999996
   15.35166740  159.99899292    4.90999985    2.51999998
   15.35500050  159.96499634    4.90999985    2.48000002
   15.35750008  169.12100220    4.90999985    2.51999998
   15.35861111  164.51600647    4.90999985    2.51999998
   15.36194515  165.14999390    4.90999985    2.50000000
   15.36500072  165.62399292    4.90999985    2.50000000
   15.36833382  163.21800232    4.90999985    2.50000000
   15.37166691  156.59500122    4.90999985    2.46000004
   15.37750053  156.59500122    4.90999985    2.42000008
   15.38166714  185.02999878    4.90999985    2.40000010
   15.38500023  174.02000427    4.90999985    2.39000010
   15.38805580  186.39799500    4.90999985    2.42000008
   15.39083290  178.55299377    4.90999985    2.44000006
   15.39166641  178.90400696    4.90999985    2.42000008
   15.39499950  178.54400635    4.90999985    2.42000008
   15.39805508  177.04800415    4.90999985    2.42000008
   15.40138817  160.59599304    4.90999985    2.42000008
   15.40472221  197.01699829    4.90999985    2.40000010
   15.40777779  174.06300354    4.90999985    2.42000008
   15.41111088  164.93800354    4.90999985    2.40000010
   15.41444397  184.21299744    4.90999985    2.42000008
   15.42027855  184.21299744    4.90999985    2.39000010
   15.42444515  177.08500671    4.90999985    2.46000004
   15.42777824  183.48100281    4.90999985    2.42000008
   15.43083382  152.20300293    4.90999985    2.44000006
   15.43416691  171.82400513    4.90999985    2.42000008
   15.43750000  169.10400391    4.90999985    2.42000008
   15.44055557  170.89100647    4.90999985    2.50000000
   15.44388866  160.81300354    4.90999985    2.46000004
   15.44722271  184.96299744    4.90999985    2.46000004
   15.45027733  193.73100281    4.90999985    2.46000004
   15.45361137  184.31599426    4.90999985    2.44000006
   15.45666695  190.29499817    4.90999985    2.36999989
   15.45749950  192.00100708    4.90999985    2.36999989
   15.46333313  192.00100708    4.90999985    2.36999989
   15.46722221  181.11199951    4.90999985    2.42000008
   15.47055531  178.67500305    4.90999985    2.44000006
   15.59305477   -1.00000000   -1.00000000   -1.00000000
   15.73472214   -1.00000000   -1.00000000   -1.00000000
   15.87750053   -1.00000000   -1.00000000   -1.00000000
   16.11388969  145.44400024    4.90999985    1.94000006
   16.11722183  166.68299866    4.90999985    1.94000006
   16.12055588  428.35900879    4.90999985    2.00000000
   16.12249947  309.05801392    4.90999985    2.05999994
   16.12388992  308.63598633    4.90999985    2.17000008
   16.12527847  422.25500488    4.90999985    2.23000002
   16.12666702  468.76300049    4.90999985    2.13000011
   16.12805557  488.86499023    4.90999985    2.05999994
   16.12944412  439.86499023    4.90999985    2.03999996
   16.13083267  294.47698975    4.90999985    2.01999998
   16.13222313  127.89399719    4.90999985    1.98000002
   16.13222313  166.68299866    4.90999985    1.94000006
   16.13222313  428.35900879    4.90999985    2.00000000
   16.13277817  119.27700043    4.90999985    1.98000002
   16.13611031  316.31698608    4.90999985    1.86000001
   16.13805580  185.47000122    4.90999985    1.96000004
   16.13805580  119.27700043    4.90999985    1.98000002
   16.13805580  316.31698608    4.90999985    1.86000001
   16.13999939  115.24099731    4.90999985    1.91999996
   16.14333344  164.16700745    4.90999985    1.86000001
   16.14666748  110.42099762    4.90999985    1.91999996
   16.14972115  204.80999756    4.90999985    1.89999998
   16.15305519  418.28100586    4.90999985    1.98000002
   16.15499878  405.85800171    4.90999985    2.01999998
   16.15638924  406.43899536    4.90999985    2.05999994
   16.15777779  126.97299957    4.90999985    2.01999998
   16.15777779  115.24099731    4.90999985    1.91999996
   16.15777779  164.16700745    4.90999985    1.86000001
   16.15777779  110.42099762    4.90999985    1.91999996
   16.15805435  204.80999756    4.90999985    1.89999998
   16.15805435  418.28100586    4.90999985    1.98000002
   16.15861130  122.76799774    4.90999985    1.96000004
   16.16194344  324.08099365    4.90999985    1.91999996
   16.16388893  170.26800537    4.90999985    2.01999998
   16.16388893  122.76799774    4.90999985    1.96000004
   16.16388893  324.08099365    4.90999985    1.91999996
   16.16583252  122.84300232    4.90999985    1.91999996
   16.16916656  104.20700073    4.90999985    1.91999996
   16.17222214  116.42099762    4.90999985    1.91999996
   16.17555428  361.37701416    4.90999985    1.91999996
   16.17749977  302.99200439    4.90999985    2.01999998
   16.17888832  334.73001099    4.90999985    1.98000002
   16.18027687  122.84300232    4.90999985    1.91999996
   16.18027687  104.20700073    4.90999985    1.91999996
   16.18027687  116.42099762    4.90999985    1.91999996
   16.18027687  361.37701416    4.90999985    1.91999996
   16.18083191  107.54699707    4.90999985    2.15000010
   16.18416595  115.63700104    4.90999985    1.76999998
   16.18750000  369.94699097    4.90999985    2.13000011
   16.18944359  199.76300049    4.90999985    2.01999998
   16.18944359  107.54699707    4.90999985    2.15000010
   16.18944359  115.63700104    4.90999985    1.76999998
   16.18944359  369.94699097    4.90999985    2.13000011
   16.19138718  313.41101074    4.90999985    1.94000006
   16.19361115  313.98098755    4.90999985    2.19000006
   16.19472122  360.35101318    4.90999985    2.09999990
   16.19610977  254.92300415    4.90999985    2.09999990
   16.19749832  245.37600708    4.90999985    2.23000002
   16.19888878  355.48300171    4.90999985    2.19000006
   16.20027924  302.29998779    4.90999985    2.11999989
   16.20166779  290.31298828    4.90999985    2.11999989
   16.20305634  374.29800415    4.90999985    2.21000004
   16.20444489  456.67199707    4.90999985    2.09999990
   16.20583344  390.56799316    4.90999985    2.03999996
   16.20722389  364.16198730    4.90999985    2.03999996
   16.20861244  459.87899780    4.90999985    1.96000004
   16.21000099  403.11199951    4.90999985    1.98000002
   16.21138954  374.74200439    4.90999985    2.01999998
   16.21277809  256.03601074    4.90999985    2.05999994
   16.21416664  337.19198608    4.90999985    2.13000011
   16.21555710  376.28201294    4.90999985    2.13000011
   16.21694565  436.45001221    4.90999985    2.11999989
   16.21833420  431.12399292    4.90999985    2.07999992
   16.21972275  418.84698486    4.90999985    2.05999994
   16.22111130  356.86999512    4.90999985    2.03999996
   16.22249985  273.60400391    4.90999985    2.05999994
   16.22389030  239.78399658    4.90999985    2.15000010
   16.22527885  224.10800171    4.90999985    2.21000004
   16.22555542  313.41101074    4.90999985    1.94000006
   16.22611237  264.83700562    4.90999985    2.28999996
   16.22916794  327.91299438    4.90999985    2.26999998
   16.23111153  406.41400146    4.90999985    2.11999989
   16.23250008  367.98699951    4.90999985    2.13000011
   16.23388863  283.60299683    4.90999985    2.05999994
   16.23527718  286.95300293    4.90999985    2.13000011
   16.23666763  236.78500366    4.90999985    2.15000010
   16.23805618  242.31700134    4.90999985    2.13000011
   16.23944473  309.11898804    4.90999985    2.26999998
   16.24083328  291.39099121    4.90999985    2.23000002
   16.24222183  321.41900635    4.90999985    2.19000006
   16.24361229  303.65100098    4.90999985    2.15000010
   16.24500084  304.69601440    4.90999985    2.03999996
   16.24638939  322.63101196    4.90999985    2.11999989
   16.24777794  289.73300171    4.90999985    2.13000011
   16.24916649  337.98300171    4.90999985    2.17000008
   16.25055504  332.83099365    4.90999985    2.03999996
   16.25194359  212.24600220    4.90999985    2.09999990
   16.25194359  264.83700562    4.90999985    2.28999996
   16.25194359  327.91299438    4.90999985    2.26999998
   16.25250053  236.90800476    4.90999985    2.11999989
   16.25583267  174.64999390    4.90999985    1.88000000
   16.25916672  192.62899780    4.90999985    2.03999996
   16.26222229  233.33099365    4.90999985    2.01999998
   16.26555634  290.82101440    4.90999985    2.05999994
   16.26888847  262.46499634    4.90999985    2.05999994
   16.27277756  262.46499634    4.90999985    2.05999994
   16.27694511  222.25199890    4.90999985    2.05999994
   16.28027725  224.71099854    4.90999985    2.13000011
   16.28333282  435.71701050    4.90999985    2.00000000
   16.28555489  445.00299072    4.90999985    2.05999994
   16.28694344  421.89498901    4.90999985    2.05999994
   16.28805542  392.37298584    4.90999985    2.03999996
   16.28944397  277.93399048    4.90999985    2.03999996
   16.29083252  198.64700317    4.90999985    2.00000000
   16.29083252  236.90800476    4.90999985    2.11999989
   16.29111099  174.64999390    4.90999985    1.88000000
   16.29111099  192.62899780    4.90999985    2.03999996
   16.29111099  233.33099365    4.90999985    2.01999998
   16.29111099  290.82101440    4.90999985    2.05999994
   16.29138756  262.46499634    4.90999985    2.05999994
   16.29138756  222.25199890    4.90999985    2.05999994
   16.29138756  224.71099854    4.90999985    2.13000011
   16.29138756  435.71701050    4.90999985    2.00000000
   16.29194450  169.86999512    4.90999985    1.98000002
   16.29527664  118.01699829    4.90999985    1.89999998
   16.29833221  130.89799500    4.90999985    1.89999998
   16.30166626  295.79501343    4.90999985    1.91999996
   16.30499840  277.73001099    4.90999985    1.98000002
   16.31166649  277.73001099    4.90999985    1.91999996
   16.31583214  118.99600220    4.90999985    1.91999996
   16.31888962  103.34500122    4.90999985    1.85000002
   16.32222366  117.00000000    4.90999985    1.80999994
   16.32472229  135.72500610    4.90999985    1.94000006
   16.32583427   95.90519714    4.90999985    1.96000004
   16.32888985   -1.00000000    4.90999985    1.66999996
   16.33222389   88.18599701    4.90999985    1.71000004
   16.33555603  107.67700195    4.90999985    1.86000001
   16.33861160   -1.00000000    4.90999985    1.73000002
   16.34194565   -1.00000000    4.90999985    1.64999998
   16.34500122   75.23999786    4.90999985    1.66999996
   16.34833336  115.55699921    4.90999985    1.88000000
   16.35444450  115.55699921    4.90999985    1.63000000
   16.35861206  127.13600159    4.90999985    1.98000002
   16.36194420  132.34700012    4.90999985    1.85000002
   16.36499977  128.43600464    4.90999985    1.98000002
   16.36833382   23.57019997    4.90999985    1.91999996
   16.37166595  110.48400116    4.90999985    1.80999994
   16.37500000   84.54350281    4.90999985    1.86000001
   16.37805557  112.35700226    4.90999985    1.89999998
   16.38138962   23.57019997    4.90999985    1.89999998
   16.38444519   80.64430237    4.90999985    1.78999996
   16.38777733   81.92030334    4.90999985    1.61000001
   16.39111137   -1.00000000    4.90999985    1.71000004
   16.39722252   -1.00000000    4.90999985    1.69000006
   16.40138817   -1.00000000   -1.00000000   -1.00000000
   16.40472221   64.31759644    4.90999985    1.69000006
   16.40777779   -1.00000000    4.90999985    1.71000004
   16.41110992   -1.00000000    4.90999985    1.66999996
   16.41444397   -1.00000000   -1.00000000   -1.00000000
   16.41749954   60.32720184    4.90999985    1.69000006
   16.42083359   73.87169647    4.90999985    1.69000006
   16.42416573   44.95399857    4.90999985    1.73000002
   16.42749977   -1.00000000    4.90999985    1.63000000
   16.43083191   -1.00000000    4.90999985    1.61000001
   16.43388748   -1.00000000    4.90999985    1.58000004
   16.44027710   -1.00000000    4.90999985    1.66999996
   16.44416618   -1.00000000    4.90999985    1.63000000
   16.44749832   42.76010132    4.90999985    1.64999998
   16.45083427   -1.00000000    4.90999985    1.73000002
   16.45388985   -1.00000000    4.90999985    1.60000002
   16.45722389   90.32009888    4.90999985    1.69000006
   16.45833397   57.44760132    4.90999985    1.80999994
   16.46083450   53.64179993    4.90999985    1.73000002
   16.46416664   -1.00000000    4.90999985    1.69000006
   16.46722221  105.74400330    4.90999985    1.83000004
   16.47055626  126.81500244    4.90999985    1.76999998
   16.47389030  163.77699280    4.90999985    1.85000002
   16.47694588  123.88200378    4.90999985    1.98000002
   16.48305511  123.88200378    4.90999985    2.05999994
   16.48722267  134.91600037    4.90999985    1.91999996
   16.49027824  114.77799988    4.90999985    1.88000000
   16.49388885  102.58699799    4.90999985    1.66999996
   16.49722290  118.23899841    4.90999985    1.86000001
   16.50027847  130.76600647    4.90999985    1.71000004
   16.50361061  122.47799683    4.90999985    1.88000000
   16.50666618  136.73699951    4.90999985    1.80999994
   16.51000023  144.77600098    4.90999985    1.83000004
   16.51333427  301.25299072    4.90999985    1.85000002
   16.51527786  106.74099731    4.90999985    2.03999996
   16.51527786  122.47799683    4.90999985    1.88000000
   16.51527786  136.73699951    4.90999985    1.80999994
   16.51555634  144.77600098    4.90999985    1.83000004
   16.51555634  301.25299072    4.90999985    1.85000002
   16.51555634  134.91600037    4.90999985    1.91999996
   16.51555634  114.77799988    4.90999985    1.88000000
   16.51555634  102.58699799    4.90999985    1.66999996
   16.51555634  118.23899841    4.90999985    1.86000001
   16.51583290  130.76600647    4.90999985    1.71000004
   16.51777840  122.81800079    4.90999985    1.80999994
   16.52083397   -1.00000000   -1.00000000   -1.00000000
   16.52416611   82.56220245    4.90999985    1.71000004
   16.52750015  128.70700073    4.90999985    1.75000000
   16.53055573   -1.00000000   -1.00000000   -1.00000000
   16.53610992   -1.00000000   -1.00000000   -1.00000000
   16.53999901  122.06600189    4.90999985    1.89999998
   16.54333305  105.65599823    4.90999985    1.83000004
   16.54666710  114.86100006    4.90999985    1.89999998
   16.54916573  126.70400238    4.90999985    1.86000001
   16.54999924  121.43099976    4.90999985    1.89999998
   16.55333328  103.01300049    4.90999985    1.85000002
   16.55666542   92.55899811    4.90999985    1.76999998
   16.55972099   74.07460022    4.90999985    1.80999994
   16.56305504   63.87210083    4.90999985    1.64999998
   16.56611061  106.38099670    4.90999985    1.80999994
   16.56944466  122.19799805    4.90999985    1.86000001
   16.57277870  112.37699890    4.90999985    2.00000000
   16.57888985  112.37699890    4.90999985    1.75000000
   16.58305550  132.54400635    4.90999985    1.76999998
   16.58638954  109.86199951    4.90999985    1.89999998
   16.58944511  201.41499329    4.90999985    1.88000000
   16.59277916  102.02600098    4.90999985    2.00000000
   16.59611130   90.72319794    4.90999985    1.75000000
   16.59916687  120.28800201    4.90999985    1.89999998
   16.60250092   86.27510071    4.90999985    1.94000006
   16.60583305  110.60399628    4.90999985    1.80999994
   16.60888863   83.57839966    4.90999985    1.86000001
   16.61222267   31.24360085    4.90999985    1.64999998
   16.61527824   81.87409973    4.90999985    1.71000004
   16.61583328   72.55159760    4.90999985    1.71000004
   16.62166595   72.55159760    4.90999985    1.64999998
   16.62583351   92.82939911    4.90999985    1.75000000
   16.62916756   -1.00000000    4.90999985    1.66999996
   16.63222313   86.12100220    4.90999985    1.69000006
   16.63555527  103.40200043    4.90999985    1.64999998
   16.63888931  126.29499817    4.90999985    1.75000000
   16.64194489  130.89500427    4.90999985    1.89999998
   16.64527702  468.44000244    4.90999985    1.91999996
   16.64722252  130.99800110    4.90999985    2.09999990
   16.64722252   92.82939911    4.90999985    1.75000000
   16.64722252   -1.00000000    4.90999985    1.66999996
   16.64722252   86.12100220    4.90999985    1.69000006
   16.64749908  103.40200043    4.90999985    1.64999998
   16.64749908  126.29499817    4.90999985    1.75000000
   16.64749908  130.89500427    4.90999985    1.89999998
   16.64749908  468.44000244    4.90999985    1.91999996
   16.64749908   31.24360085    4.90999985    1.64999998
   16.64777756   81.87409973    4.90999985    1.71000004
   16.64972115  415.63299561    4.90999985    1.96000004
   16.65166664  117.07299805    4.90999985    2.00000000
   16.65361023  108.85900116    4.90999985    1.85000002
   16.65694427  120.30599976    4.90999985    1.85000002
   16.65999985   -1.00000000    4.90999985    1.53999996
   16.66333389  122.38400269    4.90999985    1.91999996
   16.66638756  148.10499573    4.90999985    1.69000006
   16.67222214  148.10499573    4.90999985    2.03999996
   16.67638779  412.52099609    4.90999985    2.09999990
   16.67833328  440.84799194    4.90999985    2.09999990
   16.67972183  266.23800659    4.90999985    2.05999994
   16.68111038  308.80300903    4.90999985    1.94000006
   16.68249893  422.95401001    4.90999985    1.83000004
   16.68388748  234.33900452    4.90999985    1.94000006
   16.68527603  140.15100098    4.90999985    1.94000006
   16.68527603  108.85900116    4.90999985    1.85000002
   16.68555450  120.30599976    4.90999985    1.85000002
   16.68555450   -1.00000000    4.90999985    1.53999996
   16.68555450  122.38400269    4.90999985    1.91999996
   16.68555450  148.10499573    4.90999985    1.69000006
   16.68555450  412.52099609    4.90999985    2.09999990
   16.68610954  134.17799377    4.90999985    1.94000006
   16.68944359  445.17999268    4.90999985    1.96000004
   16.69138718  197.52999878    4.90999985    2.07999992
   16.69138718  134.17799377    4.90999985    1.94000006
   16.69166565  445.17999268    4.90999985    1.96000004
   16.69361115  142.24000549    4.90999985    1.89999998
   16.69666672  473.06698608    4.90999985    2.01999998
   16.69861031  152.13900757    4.90999985    2.09999990
   16.69888878  142.24000549    4.90999985    1.89999998
   16.69888878  473.06698608    4.90999985    2.01999998
   16.70083427  434.41101074    4.90999985    1.86000001
   16.70277786  489.50399780    4.90999985    1.98000002
   16.70416832  409.95498657    4.90999985    2.07999992
   16.70555687  457.26000977    4.90999985    2.01999998
   16.70694542  379.47500610    4.90999985    2.05999994
   16.70833397  338.01699829    4.90999985    2.11999989
   16.70972252  268.17599487    4.90999985    2.05999994
   16.71111107  201.08599854    4.90999985    1.86000001
   16.71111107  434.41101074    4.90999985    1.86000001
   16.71166801  404.17001343    4.90999985    1.86000001
   16.71361160  460.23498535    4.90999985    1.91999996
   16.71500015  470.45999146    4.90999985    2.00000000
   16.71638870  462.00900269    4.90999985    2.05999994
   16.71777916  492.00399780    4.90999985    2.07999992
   16.71916771  456.02801514    4.90999985    1.98000002
   16.72055626  258.24099731    4.90999985    2.03999996
   16.72194481  487.75799561    4.90999985    2.00000000
   16.72333336  488.09298706    4.90999985    2.00000000
   16.72472191  422.72100830    4.90999985    2.05999994
   16.72611237  245.93699646    4.90999985    2.00000000
   16.72750092  218.85099792    4.90999985    2.11999989
   16.72750092  404.17001343    4.90999985    1.86000001
   16.72805595  213.28999329    4.90999985    2.32999992
   16.73139000  198.04800415    4.90999985    2.42000008
   16.73444557  208.70300293    4.90999985    2.55999994
   16.73777771  173.35800171    4.90999985    2.42000008
   16.74111176  171.73800659    4.90999985    2.48000002
   16.74416733  249.85200500    4.90999985    2.48000002
   16.74833298  249.85200500    4.90999985    2.36999989
   16.75250053  172.22900391    4.90999985    2.48000002
   16.75583267  174.70500183    4.90999985    2.46000004
   16.75888824  187.45599365    4.90999985    2.44000006
   16.76138878  193.08200073    4.90999985    2.42000008
   16.76250076  182.02499390    4.90999985    2.34999990
   16.76583290  173.75599670    4.90999985    2.40000010
   16.76916695  187.52099609    4.90999985    2.36999989
   16.77222252  177.15600586    4.90999985    2.36999989
   16.77555466  183.76100159    4.90999985    2.32999992
   16.77861023  183.90800476    4.90999985    2.39000010
   16.78194427  208.16999817    4.90999985    2.39000010
   16.78527641  182.80799866    4.90999985    2.26999998
   16.79111099  182.80799866    4.90999985    2.28999996
   16.79527664  172.83999634    4.90999985    2.34999990
   16.79861069  182.54400635    4.90999985    2.50000000
   16.80166626  178.32099915    4.90999985    2.48000002
   16.80499840  154.04600525    4.90999985    2.50000000
   16.80833244  169.50799561    4.90999985    2.46000004
   16.81166649  156.22999573    4.90999985    2.53999996
   16.81472206  166.36399841    4.90999985    2.59999990
   16.81805611  167.00700378    4.90999985    2.40000010
   16.82139015  163.44400024    4.90999985    2.42000008
   16.82444572  171.84700012    4.90999985    2.44000006
   16.82777786  182.87600708    4.90999985    2.36999989
   16.82833481  174.56100464    4.90999985    2.26999998
   16.83416748  174.56100464    4.90999985    2.30999994
   16.83805656  228.64500427    4.90999985    2.21000004
   16.84138870  230.29200745    4.90999985    2.25000000
   16.84472275  183.13999939    4.90999985    2.19000006
   16.84777832  207.86799622    4.90999985    2.25000000
   16.85111237  343.54800415    4.90999985    2.25000000
   16.85305595  253.50500488    4.90999985    1.88000000
   16.85444450  243.06700134    4.90999985    1.85000002
   16.85583305  243.52900696    4.90999985    1.96000004
   16.85722351  105.46399689    4.90999985    1.94000006
   16.85722351  182.87600708    4.90999985    2.36999989
   16.85722351  228.64500427    4.90999985    2.21000004
   16.85722351  230.29200745    4.90999985    2.25000000
   16.85750008  183.13999939    4.90999985    2.19000006
   16.85750008  207.86799622    4.90999985    2.25000000
   16.85750008  343.54800415    4.90999985    2.25000000
   16.85750008  167.00700378    4.90999985    2.40000010
   16.85777855  163.44400024    4.90999985    2.42000008
   16.85777855  171.84700012    4.90999985    2.44000006
   16.85833359  210.62199402    4.90999985    1.88000000
   16.86138916  207.57400513    4.90999985    1.64999998
   16.86472321  107.07199860    4.90999985    2.11999989
   16.86805534  252.15899658    4.90999985    2.15000010
   16.87111092  185.32800293    4.90999985    1.88000000
   16.87805557  185.32800293    4.90999985    2.11999989
   16.88194466  237.55900574    4.90999985    2.25000000
   16.88527679  220.51899719    4.90999985    2.28999996
   16.88861084  431.63800049    4.90999985    2.25000000
   16.89055634  292.98498535    4.90999985    1.98000002
   16.89194489  325.91400146    4.90999985    2.09999990
   16.89305496  287.37701416    4.90999985    2.11999989
   16.89444351  382.07400513    4.90999985    2.09999990
   16.89583397  449.08099365    4.90999985    2.07999992
   16.89722252  413.10998535    4.90999985    1.96000004
   16.89888954  437.07598877    4.90999985    2.03999996
   16.90027809  352.63000488    4.90999985    2.05999994
   16.90166664  355.04199219    4.90999985    1.94000006
   16.90277672  412.34698486    4.90999985    2.00000000
   16.90416718  329.61300659    4.90999985    1.98000002
   16.90555573  291.51599121    4.90999985    2.05999994
   16.90722275  278.19699097    4.90999985    2.13000011
   16.90861130  360.45999146    4.90999985    2.09999990
   16.90999985  366.10598755    4.90999985    1.96000004
   16.91138840  349.71600342    4.90999985    2.03999996
   16.91277695  348.46600342    4.90999985    2.05999994
   16.91388893  261.51300049    4.90999985    2.11999989
   16.91555595   88.57180023    4.90999985    2.07999992
   16.91555595  210.62199402    4.90999985    1.88000000
   16.91555595  207.57400513    4.90999985    1.64999998
   16.91555595  107.07199860    4.90999985    2.11999989
   16.91555595  252.15899658    4.90999985    2.15000010
   16.91583252  185.32800293    4.90999985    1.88000000
   16.91583252  237.55900574    4.90999985    2.25000000
   16.91583252  220.51899719    4.90999985    2.28999996
   16.91583252  431.63800049    4.90999985    2.25000000
   16.91638756  101.72100067    4.90999985    2.00000000
   16.91972160  102.87100220    4.90999985    1.86000001
   16.92277718  103.52100372    4.90999985    1.83000004
   16.92611122   99.42299652    4.90999985    1.89999998
   16.92944336  121.57800293    4.90999985    1.94000006
   16.93610954  121.57800293    4.90999985    1.96000004
   16.94027710   96.59709930    4.90999985    1.75000000
   16.94361115  109.93000031    4.90999985    1.73000002
   16.94666672  100.66500092    4.90999985    1.86000001
   16.94916534   99.50939941    4.90999985    1.86000001
   16.95027924  117.11199951    4.90999985    1.85000002
   16.95361137   88.26650238    4.90999985    1.78999996
   16.95666695  104.20200348    4.90999985    1.94000006
   16.96000099  120.96800232    4.90999985    1.91999996
   16.96305656  107.08300018    4.90999985    1.80999994
   16.96638870  127.02500153    4.90999985    1.94000006
   16.96972275  104.21700287    4.90999985    2.00000000
   16.97277832  106.80999756    4.90999985    1.98000002
   16.97916794  106.80999756    4.90999985    1.73000002
   16.98305511   92.99500275    4.90999985    1.76999998
   16.98638916  109.76100159    4.90999985    1.80999994
   16.98972321   -1.00000000    4.90999985    1.73000002
   16.99277878   90.91290283    4.90999985    1.64999998
   16.99611092   62.60680008    4.90999985    1.64999998
   16.99944496   -1.00000000    4.90999985    1.71000004
   17.00250053   -1.00000000    4.90999985    1.63000000
   17.00583267   -1.00000000    4.90999985    1.75000000
   17.00888824   82.19799805    4.90999985    1.58000004
   17.01222229   73.10839844    4.90999985    1.75000000
   17.01555634   -1.00000000    4.90999985    1.75000000
   17.02194405   -1.00000000    4.90999985    1.80999994
   17.02611160   60.04430008    4.90999985    1.76999998
   17.02916718  116.92600250    4.90999985    1.53999996
   17.03249931   49.61600113    4.90999985    1.89999998
   17.03555489  130.79200745    4.90999985    1.75000000
   17.03888893   91.37390137    4.90999985    1.73000002
   17.04222107  135.61700439    4.90999985    1.76999998
   17.04527664   -1.00000000    4.90999985    1.80999994
   17.04861069   23.57019997    4.90999985    1.58000004
   17.04916573   23.57019997    4.90999985    1.63000000
   17.05222130   -1.00000000    4.90999985    1.60000002
   17.05555534   -1.00000000    4.90999985    1.58000004
   17.05861092   -1.00000000    4.90999985    1.55999994
   17.06472206   -1.00000000    4.90999985    1.66999996
   17.06888962   84.79959869    4.90999985    1.64999998
   17.07194519   63.00260162    4.90999985    1.69000006
   17.07527924   68.91410065    4.90999985    1.69000006
   17.07861137   23.57019997    4.90999985    1.69000006
   17.08166695   -1.00000000    4.90999985    1.76999998
   17.08527756   59.12699890    4.90999985    1.61000001
   17.08861160   95.85209656    4.90999985    1.75000000
   17.09166718   79.42130280    4.90999985    1.76999998
   17.09500122   34.29520035    4.90999985    1.60000002
   17.09805679   70.65709686    4.90999985    1.71000004
   17.10138893   81.70899963    4.90999985    1.66999996
   17.10750008   81.70899963    4.90999985    1.76999998
   17.11166763   39.42589951    4.90999985    1.51999998
   17.13111115   -1.00000000    4.90999985    1.63000000
   17.13500023   -1.00000000    4.90999985    1.71000004
   17.13805580   -1.00000000    4.90999985    1.46000004
   17.14138794   -1.00000000    4.90999985    1.60000002
   17.14472198   -1.00000000    4.90999985    1.61000001
   17.15055466   -1.00000000    4.90999985    1.33000004
   17.15472221   -1.00000000    4.90999985    1.39999998
   17.15805435   -1.00000000    4.90999985    1.44000006
   17.16110992   -1.00000000    4.90999985    1.41999996
   17.16444397   -1.00000000    4.90999985    1.21000004
   17.16805458   -1.00000000    4.90999985    1.44000006
   17.17111015   -1.00000000    4.90999985    1.39999998
   17.17444420   -1.00000000    4.90999985    1.33000004
   17.17777634   -1.00000000    4.90999985    1.25000000
   17.18083191   -1.00000000    4.90999985    1.14999998
   17.18416595   -1.00000000    4.90999985    1.14999998
   17.18722153   -1.00000000    4.90999985    1.11000001
   17.19749832   -1.00000000    4.90999985    1.16999996
   17.20111275   -1.00000000    4.90999985    1.33000004
   17.20416832   -1.00000000    4.90999985    1.23000002
   17.20750046   -1.00000000    4.90999985    1.26999998
   17.21083450   -1.00000000    4.90999985    1.16999996
   17.21389008   -1.00000000    4.90999985    1.19000006
   17.21722221   -1.00000000    4.90999985    1.30999994
   17.22027779   -1.00000000    4.90999985    1.23000002
   17.22361183   -1.00000000    4.90999985    1.14999998
   17.22694588   -1.00000000    4.90999985    1.07000005
   17.23000145   -1.00000000    4.90999985    1.48000002
   17.24027824   -1.00000000    4.90999985    1.28999996
   17.24361229   -1.00000000    4.90999985    1.13000000
   17.24694443   -1.00000000    4.90999985    1.28999996
   17.25000000   -1.00000000    4.90999985    1.51999998
   17.25333405   -1.00000000    4.90999985    1.44000006
   17.25666618   -1.00000000    4.90999985    1.55999994
   17.25972176  107.90000153    4.90999985    1.78999996
   17.26305580  109.01300049    4.90999985    1.76999998
   17.26499939  145.46800232    4.90999985    1.86000001
   17.26666641  105.97599792    4.90999985    1.96000004
   17.27000046  131.80799866    4.90999985    1.80999994
   17.27305603  126.37699890    4.90999985    1.85000002
   17.27916718  126.37699890    4.90999985    1.78999996
   17.28333282  102.23200226    4.90999985    1.69000006
   17.28638840   74.97509766    4.90999985    1.63000000
   17.28972244   48.65079880    4.90999985    1.76999998
   17.29305458   -1.00000000    4.90999985    1.55999994
   17.29611015   68.91449738    4.90999985    1.60000002
   17.29833221   68.96469879    4.90999985    1.69000006
   17.29972076   63.33110046    4.90999985    1.75000000
   17.30305481   -1.00000000    4.90999985    1.51999998
   17.30611038   80.67359924    4.90999985    1.48000002
   17.30944443   -1.00000000    4.90999985    1.63000000
   17.31250000   -1.00000000   -1.00000000   -1.00000000
   17.31583214   -1.00000000    4.90999985    1.60000002
   17.32611275   -1.00000000    4.90999985    1.34000003
   17.32944489   -1.00000000    4.90999985    1.23000002
   17.33277893   -1.00000000    4.90999985    1.23000002
   17.33583450   -1.00000000    4.90999985    1.25000000
   17.33916664   -1.00000000    4.90999985    1.23000002
   17.34250069   -1.00000000    4.90999985    1.25000000
   17.34555626   -1.00000000    4.90999985    1.23000002
   17.34889030   -1.00000000    4.90999985    1.09000003
   17.35222244   -1.00000000    4.90999985    1.11000001
   17.35527802   -1.00000000    4.90999985    1.23000002
   17.35861206   -1.00000000    4.90999985    1.13000000
   17.45166779   88.22149658    4.90999985    1.69000006
   17.45499992   -1.00000000    4.90999985    1.69000006
   17.45833397  130.26800537    4.90999985    1.63000000
   17.46138954   -1.00000000    4.90999985    1.76999998
   17.46472359   81.58450317    4.90999985    1.73000002
   17.46805573   95.11450195    4.90999985    1.75000000
   17.47222328   95.11450195    4.90999985    1.75000000
   17.47611237   99.09529877    4.90999985    1.73000002
   17.47944450   99.91850281    4.90999985    1.83000004
   17.48277855   90.03859711    4.90999985    1.75000000
   17.48638916   -1.00000000    4.90999985    1.61000001
   17.48944473   -1.00000000    4.90999985    1.69000006
   17.49277878   -1.00000000    4.90999985    1.38000000
   17.49611092   -1.00000000    4.90999985    1.50000000
   17.49916649   -1.00000000    4.90999985    1.50000000
   17.50250053   -1.00000000    4.90999985    1.28999996
   17.50583267   -1.00000000    4.90999985    1.73000002
   17.50888824   77.33439636    4.90999985    1.61000001
   17.51499939   77.33439636    4.90999985    1.76999998
   17.51916695   87.28549957    4.90999985    1.76999998
   17.52222252  126.29299927    4.90999985    1.73000002
   17.52555466   65.16929626    4.90999985    1.86000001
   17.52888870   52.63230133    4.90999985    1.71000004
   17.53194427   -1.00000000    4.90999985    1.51999998
   17.53527641   -1.00000000    4.90999985    1.55999994
   17.53833199   -1.00000000    4.90999985    1.53999996
   17.54166603   -1.00000000    4.90999985    1.55999994
   17.54500008   -1.00000000    4.90999985    1.64999998
   17.54805565   39.73049927    4.90999985    1.51999998
   17.55138779   -1.00000000    4.90999985    1.63000000
   17.56194305   -1.00000000    4.90999985    1.21000004
   17.56499863   -1.00000000    4.90999985    1.25000000
   17.56833458   -1.00000000    4.90999985    1.28999996
   17.57166672   -1.00000000    4.90999985    1.25000000
   17.57472229   -1.00000000    4.90999985    1.21000004
   17.57805634   -1.00000000    4.90999985    1.34000003
   17.58139038   -1.00000000    4.90999985    1.23000002
   17.58444595   -1.00000000    4.90999985    1.38000000
   17.58805656   -1.00000000    4.90999985    1.28999996
   17.59138870   -1.00000000    4.90999985    1.30999994
   17.59444427   -1.00000000    4.90999985    1.39999998
   17.60472298   -1.00000000    4.90999985    1.58000004
   17.60805511   -1.00000000    4.90999985    1.55999994
   17.61111069   -1.00000000    4.90999985    1.73000002
   17.61444473   -1.00000000    4.90999985    1.66999996
   17.61777878   -1.00000000    4.90999985    1.58000004
   17.62111092   -1.00000000    4.90999985    1.48000002
   17.62444496   -1.00000000    4.90999985    1.48000002
   17.62750053   -1.00000000    4.90999985    1.50000000
   17.63083267   -1.00000000    4.90999985    1.34000003
   17.63416672   -1.00000000    4.90999985    1.34000003
   17.63722229   -1.00000000    4.90999985    1.13000000
   17.64749908   -1.00000000    4.90999985    1.23000002
   17.65083313   89.66320038    4.90999985    1.44000006
   17.65194321  140.50199890    4.90999985    1.73000002
   17.65416718  169.83700562    4.90999985    1.96000004
   17.65749931  415.78900146    4.90999985    2.07999992
   17.65944481  397.97500610    4.90999985    1.98000002
   17.66083336  329.15798950    4.90999985    2.00000000
   17.66222191  384.97299194    4.90999985    2.07999992
   17.66361046  309.74600220    4.90999985    2.03999996
   17.66499901  268.59899902    4.90999985    2.01999998
   17.66638756  248.71899414    4.90999985    2.11999989
   17.66777802  263.39700317    4.90999985    2.19000006
   17.66916656  363.62799072    4.90999985    2.15000010
   17.67055511  350.31100464    4.90999985    2.15000010
   17.67194366  428.25299072    4.90999985    2.03999996
   17.67333221  347.86801147    4.90999985    2.03999996
   17.67472076  404.20700073    4.90999985    2.03999996
   17.67611122  385.42898560    4.90999985    2.00000000
   17.67749977  335.46701050    4.90999985    2.09999990
   17.67888832  419.13598633    4.90999985    2.09999990
   17.68027687  123.78900146    4.90999985    2.17000008
   17.68027687   -1.00000000    4.90999985    1.50000000
   17.68027687   -1.00000000    4.90999985    1.34000003
   17.68027687   -1.00000000    4.90999985    1.34000003
   17.68055534   -1.00000000    4.90999985    1.13000000
   17.68055534   -1.00000000    4.90999985    1.23000002
   17.68055534   89.66320038    4.90999985    1.44000006
   17.68055534  169.83700562    4.90999985    1.96000004
   17.68055534  415.78900146    4.90999985    2.07999992
   17.68083191   -1.00000000    4.90999985    1.48000002
   17.68138885  121.64800262    4.90999985    2.13000011
   17.68444443   -1.00000000   -1.00000000   -1.00000000
   17.68777657   -1.00000000    4.90999985    1.53999996
   17.69083214   -1.00000000    4.90999985    1.69000006
   17.69416618   -1.00000000    4.90999985    1.23000002
   17.70111275   -1.00000000    4.90999985    1.38000000
   17.70527840   -1.00000000    4.90999985    1.26999998
   17.70833397   -1.00000000    4.90999985    1.28999996
   17.71166801   -1.00000000    4.90999985    1.16999996
   17.71500015   -1.00000000    4.90999985    1.46000004
   17.71833420   -1.00000000    4.90999985    1.30999994
   17.72138977   -1.00000000    4.90999985    1.23000002
   17.72472191   -1.00000000    4.90999985    1.21000004
   17.72805595   -1.00000000    4.90999985    1.13000000
   17.73111153   -1.00000000    4.90999985    1.03999996
   17.73444557   -1.00000000    4.90999985    1.00000000
   17.73750114   -1.00000000    4.90999985    1.07000005
   17.74805641   -1.00000000    4.90999985    1.61000001
   17.75111198   -1.00000000    4.90999985    1.33000004
   17.75444412   -1.00000000    4.90999985    1.33000004
   17.75749969   -1.00000000    4.90999985    1.23000002
   17.76083374   -1.00000000    4.90999985    1.34000003
   17.76416588   -1.00000000    4.90999985    1.11000001
   17.76722145   -1.00000000    4.90999985    1.05999994
   17.77055550   -1.00000000    4.90999985    1.30999994
   17.77388954   -1.00000000    4.90999985    1.30999994
   17.77694511   -1.00000000    4.90999985    1.23000002
   17.78027725   -1.00000000    4.90999985    1.39999998
   17.79083252   -1.00000000    4.90999985    1.30999994
   17.79388809   -1.00000000    4.90999985    1.34000003
   17.79722214   -1.00000000    4.90999985    1.30999994
   17.80055428   -1.00000000    4.90999985    1.25000000
   17.80360985   -1.00000000    4.90999985    1.28999996
   17.80694389   -1.00000000    4.90999985    1.30999994
   17.81027794   -1.00000000    4.90999985    1.23000002
   17.81333351   -1.00000000    4.90999985    1.23000002
   17.81694603   -1.00000000    4.90999985    1.23000002
   17.82027817   -1.00000000    4.90999985    1.28999996
   17.82333374   -1.00000000    4.90999985    1.33000004
   17.83361244   -1.00000000    4.90999985    1.48000002
   17.83694458   -1.00000000    4.90999985    1.48000002
   17.84000015   84.37090302    4.90999985    1.55999994
   17.84333420   -1.00000000    4.90999985    1.66999996
   17.84666824   -1.00000000    4.90999985    1.51999998
   17.85000038   -1.00000000    4.90999985    1.61000001
   17.85333443   -1.00000000    4.90999985    1.53999996
   17.85639000   -1.00000000    4.90999985    1.60000002
   17.85972214   53.73860168    4.90999985    1.66999996
   17.86305618  106.73200226    4.90999985    1.78999996
   17.86611176  116.50399780    4.90999985    1.75000000
   17.87249947  116.50399780    4.90999985    1.64999998
   17.87666702   99.79139709    4.90999985    1.69000006
   17.87972260   49.71670151    4.90999985    1.78999996
   17.88333321   -1.00000000    4.90999985    1.63000000
   17.88666725   -1.00000000    4.90999985    1.53999996
   17.88972282   -1.00000000    4.90999985    1.60000002
   17.89305496   -1.00000000    4.90999985    1.58000004
   17.89638901   -1.00000000    4.90999985    1.53999996
   17.89944458   -1.00000000    4.90999985    1.46000004
   17.90277672   -1.00000000    4.90999985    1.46000004
   17.90611076   -1.00000000    4.90999985    1.44000006
   17.90916634   -1.00000000    4.90999985    1.60000002
   17.91944313   -1.00000000    4.90999985    1.48000002
   17.92249870   -1.00000000    4.90999985    1.61000001
   17.92583275   -1.00000000    4.90999985    1.66999996
   17.92916679  100.34799957    4.90999985    1.73000002
   17.93222237  115.53399658    4.90999985    1.80999994
   17.93555450   51.57509995    4.90999985    1.76999998
   17.93861008  104.58599854    4.90999985    1.76999998
   17.94194412   83.14320374    4.90999985    1.83000004
   17.94527626   -1.00000000    4.90999985    1.71000004
   17.94861031   79.92189789    4.90999985    1.69000006
   17.95194435   -1.00000000    4.90999985    1.73000002
   17.95805550   -1.00000000    4.90999985    1.58000004
   17.96222305   -1.00000000    4.90999985    1.69000006
   17.96555710   -1.00000000    4.90999985    1.55999994
   17.96861076   -1.00000000    4.90999985    1.55999994
   17.97194481   -1.00000000    4.90999985    1.71000004
   17.97527885   -1.00000000    4.90999985    1.63000000
   17.97833443   -1.00000000    4.90999985    1.51999998
   17.98194504   -1.00000000    4.90999985    1.51999998
   17.98527718   -1.00000000    4.90999985    1.46000004
   17.98833275   -1.00000000    4.90999985    1.58000004
   17.99166679   -1.00000000    4.90999985    1.48000002
   17.99500084   -1.00000000    4.90999985    1.48000002
   18.00083351   -1.00000000    4.90999985    1.63000000
   18.00499916   38.48509979    4.90999985    1.64999998
   18.00833321   -1.00000000    4.90999985    1.53999996
   18.01138878   33.90190125    4.90999985    1.63000000
   18.01499939   -1.00000000    4.90999985    1.58000004
   18.01833344   -1.00000000    4.90999985    1.51999998
   18.02138901   -1.00000000    4.90999985    1.58000004
   18.02472115   -1.00000000    4.90999985    1.53999996
   18.02805519   -1.00000000    4.90999985    1.36000001
   18.03111076   -1.00000000    4.90999985    1.41999996
   18.03444481   -1.00000000    4.90999985    1.38000000
   18.03777695   -1.00000000    4.90999985    1.48000002
   18.04388809   -1.00000000    4.90999985    1.83000004
   18.04805565  174.21699524    4.90999985    2.09999990
   18.05111122  253.78999329    4.90999985    2.57999992
   18.05444336  232.39500427    4.90999985    2.25000000
   18.05749893  196.50399780    4.90999985    2.21000004
   18.06083298  375.43798828    4.90999985    2.39000010
   18.06277657  191.85000610    4.90999985    2.07999992
   18.06277657   -1.00000000    4.90999985    1.41999996
   18.06305504   -1.00000000    4.90999985    1.38000000
   18.06305504   -1.00000000    4.90999985    1.48000002
   18.06305504  174.21699524    4.90999985    2.09999990
   18.06305504  253.78999329    4.90999985    2.57999992
   18.06305504  232.39500427    4.90999985    2.25000000
   18.06333351  196.50399780    4.90999985    2.21000004
   18.06333351  375.43798828    4.90999985    2.39000010
   18.06333351   -1.00000000    4.90999985    1.36000001
   18.06527710  169.20199585    4.90999985    2.46000004
   18.06861115  312.95098877    4.90999985    1.86000001
   18.07055664  115.45600128    4.90999985    2.17000008
   18.07055664  169.20199585    4.90999985    2.46000004
   18.07055664  312.95098877    4.90999985    1.86000001
   18.07250023   38.44279861    4.90999985    1.75000000
   18.07583427   86.58950043    4.90999985    1.73000002
   18.07916832   -1.00000000    4.90999985    1.96000004
   18.08222389   22.82760048    4.90999985    1.34000003
   18.08555603   -1.00000000    4.90999985    1.53999996
   18.09138870   -1.00000000    4.90999985    1.85000002
   18.09555626  161.20300293    4.90999985    1.61000001
   18.09861183  372.92999268    4.90999985    1.64999998
   18.10055542  116.31500244    4.90999985    1.85000002
   18.10055542   38.44279861    4.90999985    1.75000000
   18.10083389   86.58950043    4.90999985    1.73000002
   18.10083389   -1.00000000    4.90999985    1.96000004
   18.10083389   22.82760048    4.90999985    1.34000003
   18.10083389   -1.00000000    4.90999985    1.53999996
   18.10083389  161.20300293    4.90999985    1.61000001
   18.10111237  372.92999268    4.90999985    1.64999998
   18.10305595  195.85200500    4.90999985    1.80999994
   18.10611153  359.76300049    4.90999985    1.58000004
   18.10805511  130.89900208    4.90999985    1.96000004
   18.10833359  195.85200500    4.90999985    1.80999994
   18.10833359  359.76300049    4.90999985    1.58000004
   18.11027908  246.45799255    4.90999985    1.86000001
   18.11333466  277.07800293    4.90999985    1.61000001
   18.11666679  132.75700378    4.90999985    2.23000002
   18.12000084   95.29360199    4.90999985    1.76999998
   18.12305641  112.71900177    4.90999985    1.83000004
   18.12888908  112.71900177    4.90999985    1.76999998
   18.13305473   -1.00000000    4.90999985    1.71000004
   18.13638878   -1.00000000   -1.00000000   -1.00000000
   18.13944435   55.97740173    4.90999985    1.71000004
   18.14194489   81.08619690    4.90999985    1.69000006
   18.14305496   -1.00000000    4.90999985    1.71000004
   18.14611053  112.68800354    4.90999985    1.71000004
   18.14944458  103.02500153    4.90999985    1.78999996
   18.15277672   -1.00000000    4.90999985    1.66999996
   18.15583229  164.05200195    4.90999985    1.63000000
   18.15916634  108.48799896    4.90999985    1.91999996
   18.16250038   95.44869995    4.90999985    1.78999996
   18.16555595   47.85839844    4.90999985    1.69000006
   18.17166519   47.85839844    4.90999985    1.71000004
   18.17583275   85.05680084    4.90999985    1.64999998
   18.17916679  122.29499817    4.90999985    1.76999998
   18.18249893  114.94100189    4.90999985    1.88000000
   18.18555450  369.67098999    4.90999985    2.07999992
   18.18750000  383.74398804    4.90999985    2.07999992
   18.18888855  352.73400879    4.90999985    1.86000001
   18.19027710  169.62600708    4.90999985    2.09999990
   18.19027710  114.94100189    4.90999985    1.88000000
   18.19027710  369.67098999    4.90999985    2.07999992
   18.19055557   -1.00000000    4.90999985    1.66999996
   18.19055557  164.05200195    4.90999985    1.63000000
   18.19055557  108.48799896    4.90999985    1.91999996
   18.19055557   95.44869995    4.90999985    1.78999996
   18.19083214   47.85839844    4.90999985    1.69000006
   18.19083214   85.05680084    4.90999985    1.64999998
   18.19083214  122.29499817    4.90999985    1.76999998
   18.19138718  148.35200500    4.90999985    2.05999994
   18.19472122  136.80799866    4.90999985    1.89999998
   18.19777679  113.21199799    4.90999985    1.86000001
   18.20111275  102.53099823    4.90999985    1.78999996
   18.20416832   97.18630219    4.90999985    1.76999998
   18.21111107   97.18630219    4.90999985    1.80999994
   18.21527863   68.23220062    4.90999985    1.76999998
   18.21833420   78.22720337    4.90999985    1.75000000
   18.22166634   -1.00000000    4.90999985    1.73000002
   18.22500038   37.32929993    4.90999985    1.60000002
   18.22833443   68.74990082    4.90999985    1.71000004
   18.23139000  118.74099731    4.90999985    1.71000004
   18.23472214   98.98359680    4.90999985    1.69000006
   18.23805618  114.02700043    4.90999985    1.75000000
   18.24111176  123.15399933    4.90999985    1.80999994
   18.24444389   66.67140198    4.90999985    1.71000004
   18.24777794   67.28810120    4.90999985    1.73000002
   18.25388908   67.28810120    4.90999985    1.86000001
   18.25805473  115.93399811    4.90999985    1.60000002
   18.26138878  115.24500275    4.90999985    1.69000006
   18.26444435   83.55039978    4.90999985    1.85000002
   18.26777840   87.87329865    4.90999985    1.73000002
   18.27083397   23.57019997    4.90999985    1.88000000
   18.27416611  333.29598999    4.90999985    1.76999998
   18.27611160   83.55039978    4.90999985    1.85000002
   18.27611160   87.87329865    4.90999985    1.73000002
   18.27638817   23.57019997    4.90999985    1.88000000
   18.27638817  333.29598999    4.90999985    1.76999998
   18.27638817  123.15399933    4.90999985    1.80999994
   18.27638817   66.67140198    4.90999985    1.71000004
   18.27638817   67.28810120    4.90999985    1.73000002
   18.27666664  115.93399811    4.90999985    1.60000002
   18.27666664  115.24500275    4.90999985    1.69000006
   18.27861023  186.32000732    4.90999985    1.66999996
   18.28166580  119.68699646    4.90999985    1.96000004
   18.28499985  109.88099670    4.90999985    1.80999994
   18.28833199  126.68399811    4.90999985    1.76999998
   18.29138756  116.09600067    4.90999985    1.83000004
   18.29694366  116.09600067    4.90999985    1.78999996
   18.30111122  129.40299988    4.90999985    1.85000002
   18.30416679  395.69299316    4.90999985    1.86000001
   18.30638885  371.58401489    4.90999985    2.00000000
   18.30749893  368.82901001    4.90999985    2.01999998
   18.30888748  296.98001099    4.90999985    2.09999990
   18.31027794  285.73800659    4.90999985    2.07999992
   18.31166649  293.57000732    4.90999985    2.13000011
   18.31305504  305.14801025    4.90999985    2.15000010
   18.31444359  296.24301147    4.90999985    2.07999992
   18.31583214  411.06100464    4.90999985    2.07999992
   18.31722260  373.28500366    4.90999985    1.96000004
   18.31861115  285.70098877    4.90999985    1.96000004
   18.32000160  136.42500305    4.90999985    1.96000004
   18.32000160  186.32000732    4.90999985    1.66999996
   18.32027817  119.68699646    4.90999985    1.96000004
   18.32027817  109.88099670    4.90999985    1.80999994
   18.32027817  126.68399811    4.90999985    1.76999998
   18.32027817  116.09600067    4.90999985    1.83000004
   18.32027817  129.40299988    4.90999985    1.85000002
   18.32055664  395.69299316    4.90999985    1.86000001
   18.32111168  150.14999390    4.90999985    1.89999998
   18.32416725  350.52600098    4.90999985    1.89999998
   18.32611275  421.93399048    4.90999985    1.98000002
   18.32750130  391.91699219    4.90999985    2.07999992
   18.32888985  343.38299561    4.90999985    2.00000000
   18.33027840  380.93499756    4.90999985    1.91999996
   18.33166695  353.03201294    4.90999985    2.00000000
   18.33305550  244.67599487    4.90999985    2.07999992
   18.33444595  245.58799744    4.90999985    2.19000006
   18.33583450  281.04400635    4.90999985    2.25000000
   18.33722305  295.79400635    4.90999985    2.17000008
   18.33861160  328.10598755    4.90999985    2.13000011
   18.34000015  314.56500244    4.90999985    2.11999989
   18.34138870  428.75201416    4.90999985    2.09999990
   18.34277916  363.20199585    4.90999985    2.01999998
   18.34416771  322.70300293    4.90999985    1.96000004
   18.34555626  308.37799072    4.90999985    2.09999990
   18.34694481  294.10998535    4.90999985    2.11999989
   18.34833336  319.95401001    4.90999985    2.11999989
   18.34972191  366.88101196    4.90999985    2.15000010
   18.35111237  346.79800415    4.90999985    2.01999998
   18.35250092  400.25601196    4.90999985    2.03999996
   18.35388947  403.17498779    4.90999985    2.01999998
   18.35527802  407.67498779    4.90999985    1.98000002
   18.35666656  390.17098999    4.90999985    2.01999998
   18.35805511  313.94000244    4.90999985    2.05999994
   18.35944557  271.32998657    4.90999985    2.07999992
   18.36083412  294.98599243    4.90999985    2.15000010
   18.36222267  277.19500732    4.90999985    2.13000011
   18.36361122  269.71200562    4.90999985    2.13000011
   18.36499977  231.29400635    4.90999985    2.13000011
   18.36638832  249.49099731    4.90999985    2.17000008
   18.36777878  252.73800659    4.90999985    2.23000002
   18.36916733  204.78300476    4.90999985    2.21000004
   18.36916733  150.14999390    4.90999985    1.89999998
   18.36916733  350.52600098    4.90999985    1.89999998
   18.36972237  261.20700073    4.90999985    2.21000004
   18.37305641  242.62100220    4.90999985    2.19000006
   18.37638855  219.59599304    4.90999985    2.21000004
   18.37944412  216.65800476    4.90999985    2.28999996
   18.38277817  161.78700256    4.90999985    2.26999998
   18.38611031  247.56100464    4.90999985    2.28999996
   18.38999939  247.56100464    4.90999985    2.25000000
   18.39416695  291.78900146    4.90999985    2.30999994
   18.39749908  236.94900513    4.90999985    2.13000011
   18.40055466  270.00900269    4.90999985    2.13000011
   18.40305519  269.10598755    4.90999985    2.17000008
   18.40416718  229.36999512    4.90999985    2.17000008
   18.40749931  230.86999512    4.90999985    2.32999992
   18.41083336  176.84800720    4.90999985    2.19000006
   18.41388893  187.85200500    4.90999985    2.36999989
   18.41722107  195.60000610    4.90999985    2.28999996
   18.42055511  198.04299927    4.90999985    2.23000002
   18.42361069  219.17100525    4.90999985    2.25000000
   18.42694473  218.93299866    4.90999985    2.17000008
   18.43305397  218.93299866    4.90999985    2.23000002
   18.43694305  202.71499634    4.90999985    2.32999992
   18.44027710  174.27699280    4.90999985    2.42000008
   18.44361115  191.94200134    4.90999985    2.30999994
   18.44666672  265.77899170    4.90999985    2.30999994
   18.45000076  244.48599243    4.90999985    2.21000004
   18.46944427  202.85600281    4.90999985    2.50000000
   18.47000122  224.75300598    4.90999985    2.48000002
   18.47583389  224.75300598    4.90999985    2.23000002
   18.48000145  232.78100586    4.90999985    2.21000004
   18.48333359  226.50500488    4.90999985    2.15000010
   18.48638916  249.08799744    4.90999985    2.23000002
   18.48972321  219.24299622    4.90999985    2.07999992
   18.49305534  191.76300049    4.90999985    2.19000006
   18.49611092  166.50799561    4.90999985    2.44000006
   18.49944496  172.94000244    4.90999985    2.42000008
   18.50277710  172.99499512    4.90999985    2.40000010
   18.50333405  169.87100220    4.90999985    2.40000010
   18.50638962  215.27200317    4.90999985    2.36999989
   18.50944519  230.42300415    4.90999985    2.28999996
   18.51277733  260.01400757    4.90999985    2.15000010
   18.51861000  260.01400757    4.90999985    2.21000004
   18.52277756  218.91999817    4.90999985    2.28999996
   18.52611160  170.79899597    4.90999985    2.40000010
   18.52944374  145.97500610    4.90999985    2.53999996
   18.53249931  177.44099426    4.90999985    2.48000002
   18.53583336  176.77400208    4.90999985    2.46000004
   18.53666687  167.12600708    4.90999985    2.34999990
   18.53944397  177.79100037    4.90999985    2.36999989
   18.54277802  165.99000549    4.90999985    2.19000006
   18.54583359  165.67599487    4.90999985    2.51999998
   18.54916573  164.89700317    4.90999985    2.53999996
   18.55222130  195.30599976    4.90999985    2.48000002
   18.55555534  159.58999634    4.90999985    2.26999998
   18.56166649  159.58999634    4.90999985    2.30999994
   18.56583214  209.33399963    4.90999985    2.40000010
   18.56888962  196.49400330    4.90999985    2.25000000
   18.57000160  189.45399475    4.90999985    2.32999992
   18.57277870  290.17001343    4.90999985    2.28999996
   18.57583427  218.23899841    4.90999985    2.30999994
   18.57916832  224.61300659    4.90999985    2.28999996
   18.58222389  193.85600281    4.90999985    2.28999996
   18.58555603  179.76199341    4.90999985    2.36999989
   18.58889008  197.26300049    4.90999985    2.48000002
   18.59194565  167.68800354    4.90999985    2.25000000
   18.59527779  161.42700195    4.90999985    2.48000002
   18.59861183  159.33099365    4.90999985    2.48000002
   18.60444450  159.33099365    4.90999985    2.44000006
   18.60861206  181.90499878    4.90999985    2.53999996
   18.61194420  184.05700684    4.90999985    2.26999998
   18.61499977  260.22601318    4.90999985    2.07999992
   18.61833382  247.97099304    4.90999985    2.15000010
   18.62138939  216.15199280    4.90999985    2.11999989
   18.62472153  156.04699707    4.90999985    2.34999990
   18.62805557  158.96000671    4.90999985    2.61999989
   18.63111115  169.42399597    4.90999985    2.53999996
   18.63444519  183.48800659    4.90999985    2.48000002
   18.63666725  166.30299377    4.90999985    2.46000004
   18.63805580  172.36799622    4.90999985    2.39000010
   18.64111137  178.57800293    4.90999985    2.39000010
   18.64722252  178.57800293    4.90999985    2.64000010
   18.65138817  177.41499329    4.90999985    2.39000010
   18.65472221  188.30299377    4.90999985    2.39000010
   18.65777779  162.30099487    4.90999985    2.39000010
   18.66110992  158.24099731    4.90999985    2.48000002
   18.66444397  155.47099304    4.90999985    2.40000010
   18.66749954  167.74200439    4.90999985    2.57999992
   18.67000008  165.85200500    4.90999985    2.59999990
   18.67138863  161.97099304    4.90999985    2.57999992
   18.67444420  180.78900146    4.90999985    2.34999990
   18.67777634  160.26899719    4.90999985    2.42000008
   18.68083191  161.77600098    4.90999985    2.50000000
   18.68416595  199.63000488    4.90999985    2.50000000
   18.68999863  199.63000488    4.90999985    2.36999989
   18.69416618  159.16799927    4.90999985    2.30999994
   18.69749832  163.09199524    4.90999985    2.53999996
   18.70083427  162.19400024    4.90999985    2.50000000
   18.70333481  169.14599609    4.90999985    2.57999992
   18.70444489  165.28300476    4.90999985    2.55999994
   18.70750046  168.11099243    4.90999985    2.51999998
   18.71083450  177.00700378    4.90999985    2.57999992
   18.71416664  171.53300476    4.90999985    2.40000010
   18.71722221  162.25100708    4.90999985    2.51999998
   18.72055626  164.58099365    4.90999985    2.57999992
   18.72389030  168.85400391    4.90999985    2.46000004
   18.72694588  156.36999512    4.90999985    2.51999998
   18.73305511  156.36999512    4.90999985    2.51999998
   18.73722267  156.22599792    4.90999985    2.55999994
   18.74027824  162.83599854    4.90999985    2.55999994
   18.74361229  163.66299438    4.90999985    2.55999994
   18.74666786  161.57499695    4.90999985    2.55999994
   18.75000000  164.58299255    4.90999985    2.55999994
   18.75333405  160.81799316    4.90999985    2.55999994
   18.75638962  163.61700439    4.90999985    2.55999994
   18.75972176  157.07299805    4.90999985    2.55999994
   18.76305580  160.75300598    4.90999985    2.55999994
   18.76611137  152.89300537    4.90999985    2.55999994
   18.76944351  157.45399475    4.90999985    2.55999994
   18.77000046  173.56199646    4.90999985    2.55999994
   18.77583313  173.56199646    4.90999985    2.55999994
   18.78000069  158.45399475    4.90999985    2.55999994
   18.78305435  193.54800415    4.90999985    2.55999994
   18.78638840  168.20899963    4.90999985    2.53999996
   18.78972244  192.45899963    4.90999985    2.53999996
   18.79277802  192.89700317    4.90999985    2.55999994
   18.79611015  204.97999573    4.90999985    2.55999994
   18.79944420  180.91200256    4.90999985    2.55999994
   18.80249977  196.91900635    4.90999985    2.55999994
   18.80333328  187.52900696    4.90999985    2.55999994
   18.80611038  176.31900024    4.90999985    2.55999994
   18.80916595  184.32600403    4.90999985    2.53999996
   18.81250000  174.07000732    4.90999985    2.53999996
   18.81861115  174.07000732    4.90999985    2.53999996
   18.82277870  185.45799255    4.90999985    2.53999996
   18.82611275  179.57499695    4.90999985    2.53999996
   18.82916832  193.49699402    4.90999985    2.55999994
   18.83250046  176.03100586    4.90999985    2.55999994
   18.83583450  181.05799866    4.90999985    2.55999994
   18.83666801  225.85200500    4.90999985    2.55999994
   18.83944511  201.77799988    4.90999985    2.53999996
   18.84250069  133.11700439    4.90999985    2.53999996
   18.84583473  187.28500366    4.90999985    2.55999994
   18.84916687  179.44900513    4.90999985    2.53999996
   18.85222244  183.71200562    4.90999985    2.53999996
   18.85555649  168.66799927    4.90999985    2.55999994
   18.86138916  168.66799927    4.90999985    2.55999994
   18.86555672  198.99000549    4.90999985    2.53999996
   18.86888885  194.94000244    4.90999985    2.55999994
   18.87000084  177.60400391    4.90999985    2.53999996
   18.87249947  181.11999512    4.90999985    2.55999994
   18.87555504  216.92100525    4.90999985    2.53999996
   18.87888908  196.16099548    4.90999985    2.55999994
   18.88222313  199.25300598    4.90999985    2.53999996
   18.88527679  198.22399902    4.90999985    2.53999996
   18.88861084  211.55999756    4.90999985    2.55999994
   18.89166641  204.18499756    4.90999985    2.55999994
   18.89500046  203.78799438    4.90999985    2.55999994
   18.89833260  215.07200623    4.90999985    2.53999996
   18.90444374  215.07200623    4.90999985    2.55999994
   18.90861130  211.69400024    4.90999985    2.53999996
   18.91166687  204.16700745    4.90999985    2.53999996
   18.91499901  187.87800598    4.90999985    2.53999996
   18.91805458  184.11199951    4.90999985    2.53999996
   18.92138863  189.68899536    4.90999985    2.53999996
   18.92472076  198.28500366    4.90999985    2.53999996
   18.92777634  205.97500610    4.90999985    2.53999996
   18.93111038  205.90699768    4.90999985    2.53999996
   18.93444443  198.52099609    4.90999985    2.53999996
   18.93666649  203.16400146    4.90999985    2.53999996
   18.93805504  200.25999451    4.90999985    2.53999996
   18.94111061  196.58099365    4.90999985    2.53999996
   18.94722176  196.58099365    4.90999985    2.53999996
   18.95138931  182.97999573    4.90999985    2.53999996
   18.95444489  196.16499329    4.90999985    2.53999996
   18.95777893  200.38000488    4.90999985    2.53999996
   18.96111107  196.93499756    4.90999985    2.53999996
   18.96416664  200.49099731    4.90999985    2.53999996
   18.96750069  199.26199341    4.90999985    2.53999996
   18.97000122  186.00100708    4.90999985    2.55999994
   18.97111130  202.95599365    4.90999985    2.53999996
   18.97416687  193.56799316    4.90999985    2.53999996
   18.97750092  182.71899414    4.90999985    2.53999996
   18.98083305  187.00399780    4.90999985    2.53999996
   18.98388863  174.30999756    4.90999985    2.51999998
   18.98999977  174.30999756    4.90999985    2.53999996
   18.99416733  189.03500366    4.90999985    2.53999996
   18.99749947  166.59599304    4.90999985    2.53999996
   19.00055504  187.81900024    4.90999985    2.53999996
   19.00333405  190.35200500    4.90999985    2.53999996
   19.00444412  193.93400574    4.90999985    2.51999998
   19.00749969  193.54400635    4.90999985    2.53999996
   19.01083374  183.65400696    4.90999985    2.53999996
   19.01416588  178.24099731    4.90999985    2.53999996
   19.01722145  176.00199890    4.90999985    2.53999996
   19.02055550  165.50900269    4.90999985    2.51999998
   19.02361107  171.79800415    4.90999985    2.51999998
   19.02694511  165.00199890    4.90999985    2.53999996
   19.03277779  165.00199890    4.90999985    2.53999996
   19.03694344  158.57699585    4.90999985    2.53999996
   19.04027748  179.49499512    4.90999985    2.51999998
   19.04361153  166.79699707    4.90999985    2.53999996
   19.04666710  172.10000610    4.90999985    2.51999998
   19.04999924  166.04100037    4.90999985    2.51999998
   19.05333328  170.67700195    4.90999985    2.51999998
   19.05638885  164.25700378    4.90999985    2.51999998
   19.05972099  158.01899719    4.90999985    2.51999998
   19.06305504  171.41499329    4.90999985    2.51999998
   19.06611061  159.75000000    4.90999985    2.51999998
   19.06944466  160.25999451    4.90999985    2.51999998
   19.07000160  170.91099548    4.90999985    2.51999998
   19.07583427  170.91099548    4.90999985    2.51999998
   19.08000183  161.86799622    4.90999985    2.51999998
   19.08305550  164.07000732    4.90999985    2.51999998
   19.08638954  165.52000427    4.90999985    2.51999998
   19.08944511  150.76300049    4.90999985    2.51999998
   19.09277916  162.89399719    4.90999985    2.51999998
   19.09611130  174.72799683    4.90999985    2.51999998
   19.09916687  161.24200439    4.90999985    2.51999998
   19.10250092  154.69400024    4.90999985    2.51999998
   19.10333443  158.01800537    4.90999985    2.51999998
   19.10611153  159.85899353    4.90999985    2.51999998
   19.10916710  163.88099670    4.90999985    2.50000000
   19.11250114  171.35299683    4.90999985    2.51999998
   19.11861038  171.35299683    4.90999985    2.50000000
   19.12277794  166.48399353    4.90999985    2.51999998
   19.12583351  165.98300171    4.90999985    2.50000000
   19.12916756  157.25399780    4.90999985    2.51999998
   19.13249969  165.55099487    4.90999985    2.51999998
   19.13555527  159.09199524    4.90999985    2.51999998
   19.13666725  159.14300537    4.90999985    2.50000000
   19.13916588  160.03700256    4.90999985    2.51999998
   19.14222145  159.47200012    4.90999985    2.51999998
   19.14555550  150.35899353    4.90999985    2.51999998
   19.14888954  160.33799744    4.90999985    2.50000000
   19.15194321  165.01100159    4.90999985    2.51999998
   19.15527725  154.77999878    4.90999985    2.51999998
   19.16138840  154.77999878    4.90999985    2.50000000
   19.16555595  151.46299744    4.90999985    2.50000000
   19.16888809  167.02400208    4.90999985    2.51999998
   19.17000008  160.19900513    4.90999985    2.51999998
   19.17249870  160.40299988    4.90999985    2.51999998
   19.17555428  160.20899963    4.90999985    2.51999998
   19.17888832  161.39700317    4.90999985    2.50000000
   19.18222237  157.05700684    4.90999985    2.51999998
   19.18527603  164.32299805    4.90999985    2.50000000
   19.18861008  164.97300720    4.90999985    2.50000000
   19.19166565  160.84599304    4.90999985    2.50000000
   19.19499969  149.30099487    4.90999985    2.50000000
   19.19833183  148.01400757    4.90999985    2.50000000
   19.20416832  148.01400757    4.90999985    2.50000000
   19.20833397  158.89500427    4.90999985    2.50000000
   19.21166801  155.06199646    4.90999985    2.51999998
   19.21472359  160.38800049    4.90999985    2.50000000
   19.21805573  159.17500305    4.90999985    2.50000000
   19.22138977  155.84199524    4.90999985    2.50000000
   19.22444534  160.14900208    4.90999985    2.50000000
   19.22777748  153.75199890    4.90999985    2.50000000
   19.23111153  159.32800293    4.90999985    2.50000000
   19.23416710  147.99899292    4.90999985    2.50000000
   19.23666763  163.66799927    4.90999985    2.50000000
   19.23777771  165.32699585    4.90999985    2.50000000
   19.24083328  164.57000732    4.90999985    2.50000000
   19.24722290  164.57000732    4.90999985    2.48000002
   19.25111198  161.14900208    4.90999985    2.48000002
   19.25444412  153.99299622    4.90999985    2.50000000
   19.25777817  152.51600647    4.90999985    2.48000002
   19.26083374  170.02999878    4.90999985    2.48000002
   19.26416588  156.86399841    4.90999985    2.48000002
   19.26749992  162.35699463    4.90999985    2.48000002
   19.27000046  165.40299988    4.90999985    2.48000002
   19.27111053  167.21400452    4.90999985    2.48000002
   19.27416611  155.36700439    4.90999985    2.48000002
   19.27750015  159.81500244    4.90999985    2.48000002
   19.28083229  162.32699585    4.90999985    2.48000002
   19.28388786  162.00799561    4.90999985    2.48000002
   19.28999901  162.00799561    4.90999985    2.48000002
   19.29416656  167.42500305    4.90999985    2.40000010
   19.29722214  164.62399292    4.90999985    2.46000004
   19.30055428  157.46299744    4.90999985    2.46000004
   19.30333328  151.39700317    4.90999985    2.48000002
   19.30416679  157.70100403    4.90999985    2.48000002
   19.30722237  154.09899902    4.90999985    2.48000002
   19.31055450  157.60600281    4.90999985    2.50000000
   19.31388855  163.46299744    4.90999985    2.48000002
   19.31694603  154.40600586    4.90999985    2.40000010
   19.32027817  161.79299927    4.90999985    2.44000006
   19.32361221  149.72200012    4.90999985    2.46000004
   19.32666779  155.05999756    4.90999985    2.48000002
   19.33277893  155.05999756    4.90999985    2.48000002
   19.33694458  155.36500549    4.90999985    2.48000002
   19.34027863  158.76400757    4.90999985    2.48000002
   19.34333420  160.24000549    4.90999985    2.48000002
   19.34666824  151.20500183    4.90999985    2.48000002
   19.35000038  159.62300110    4.90999985    2.48000002
   19.35305595  154.13000488    4.90999985    2.46000004
   19.35639000  154.96800232    4.90999985    2.48000002
   19.35944557  148.23100281    4.90999985    2.48000002
   19.36277771  154.18099976    4.90999985    2.48000002
   19.36611176  157.20599365    4.90999985    2.48000002
   19.36944389  158.50500488    4.90999985    2.48000002
   19.37000084  154.61700439    4.90999985    2.48000002
   19.37555504  154.61700439    4.90999985    2.46000004
   19.37972260  153.83299255    4.90999985    2.48000002
   19.38305473  159.23599243    4.90999985    2.48000002
   19.38638878  158.32400513    4.90999985    2.48000002
   19.38944435  159.53300476    4.90999985    2.48000002
   19.39277840  149.76100159    4.90999985    2.48000002
   19.39611053  165.50700378    4.90999985    2.46000004
   19.39916611  165.33399963    4.90999985    2.46000004
   19.40250015  164.24800110    4.90999985    2.46000004
   19.40333366  159.02499390    4.90999985    2.46000004
   19.40611076  156.16400146    4.90999985    2.46000004
   19.40944481  163.32400513    4.90999985    2.48000002
   19.41250038  155.90699768    4.90999985    2.48000002
   19.41860962  155.90699768    4.90999985    2.46000004
   19.42277718  157.23599243    4.90999985    2.46000004
   19.42583275  154.45500183    4.90999985    2.46000004
   19.42916679  158.58200073    4.90999985    2.46000004
   19.43222237  148.56399536    4.90999985    2.46000004
   19.43555450  156.94099426    4.90999985    2.46000004
   19.43666649  155.75599670    4.90999985    2.46000004
   19.43916512  150.95500183    4.90999985    2.46000004
   19.44222069  152.16499329    4.90999985    2.46000004
   19.44555473  151.35000610    4.90999985    2.46000004
   19.44888878  148.00100708    4.90999985    2.48000002
   19.45194435  157.02200317    4.90999985    2.46000004
   19.45527840  155.15199280    4.90999985    2.46000004
   19.46138954  155.15199280    4.90999985    2.42000008
   19.46555710  168.11399841    4.90999985    2.26999998
   19.46861076  161.03999329    4.90999985    2.32999992
   19.48611069  152.85600281    4.90999985    2.46000004
   19.48861122  155.86000061    4.90999985    2.46000004
   19.49194527  157.77400208    4.90999985    2.46000004
   19.49527740  154.08399963    4.90999985    2.46000004
   19.49833298  151.68899536    4.90999985    2.46000004
   19.50444412  151.68899536    4.90999985    2.39000010
   19.50861168  160.97200012    4.90999985    2.44000006
   19.51166725  154.49899292    4.90999985    2.44000006
   19.51499939  147.19200134    4.90999985    2.44000006
   19.51833344  153.09100342    4.90999985    2.46000004
   19.51916695  146.83399963    4.90999985    2.46000004
   19.52194405  153.66099548    4.90999985    2.42000008
   19.52527809  161.28199768    4.90999985    2.40000010
   19.52833366  160.67900085    4.90999985    2.46000004
   19.53166580  153.09899902    4.90999985    2.46000004
   19.53499985  161.25000000    4.90999985    2.46000004
   19.53805542  153.74000549    4.90999985    2.46000004
   19.54138756  160.47399902    4.90999985    2.46000004
   19.54722214  160.47399902    4.90999985    2.46000004
   19.55138779  158.28199768    4.90999985    2.46000004
   19.55249977  155.48500061    4.90999985    2.46000004
   19.55499840  151.87899780    4.90999985    2.46000004
   19.55833244  152.16200256    4.90999985    2.46000004
   19.56138802  154.70100403    4.90999985    2.46000004
   19.56472206  155.23699951    4.90999985    2.46000004
   19.56805611  159.83900452    4.90999985    2.42000008
   19.57111168  161.16400146    4.90999985    2.46000004
   19.57444572  160.37600708    4.90999985    2.44000006
   19.57750130  155.57299805    4.90999985    2.44000006
   19.58083344  153.57499695    4.90999985    2.46000004
   19.58416748  151.52299500    4.90999985    2.44000006
   19.58583450  159.89999390    4.90999985    2.44000006
   19.59027863  159.89999390    4.90999985    2.44000006
   19.59416771  166.94799805    4.90999985    2.40000010
   19.59749985  154.27400208    4.90999985    2.44000006
   19.60083389  150.43800354    4.90999985    2.44000006
   19.60388947  157.04299927    4.90999985    2.42000008
   19.60722351  150.87199402    4.90999985    2.44000006
   19.61027908  148.66600037    4.90999985    2.44000006
   19.61361122  149.32299805    4.90999985    2.42000008
   19.61694527  158.30200195    4.90999985    2.42000008
   19.61916733  158.20199585    4.90999985    2.44000006
   19.62055588  143.47500610    4.90999985    2.44000006
   19.62388992  156.12600708    4.90999985    2.42000008
   19.62694550  147.59399414    4.90999985    2.42000008
   19.63305473  147.59399414    4.90999985    2.44000006
   19.63722229  163.39799500    4.90999985    2.42000008
   19.64027786  155.51100159    4.90999985    2.42000008
   19.64361191  149.00500488    4.90999985    2.42000008
   19.64666748  151.79100037    4.90999985    2.44000006
   19.64999962  148.19599915    4.90999985    2.42000008
   19.65250015  144.57000732    4.90999985    2.40000010
   19.65361023  143.53399658    4.90999985    2.40000010
   19.65694427  149.06399536    4.90999985    2.42000008
   19.65999985  151.39799500    4.90999985    2.42000008
   19.66333389  155.55799866    4.90999985    2.42000008
   19.66638756  165.08099365    4.90999985    2.39000010
   19.66972160  164.21000671    4.90999985    2.42000008
   19.67583275  164.21000671    4.90999985    2.42000008
   19.68000031  168.48800659    4.90999985    2.42000008
   19.68305397  158.27400208    4.90999985    2.42000008
   19.68583298  153.08399963    4.90999985    2.42000008
   19.68666649  156.25500488    4.90999985    2.42000008
   19.68999863  156.75999451    4.90999985    2.44000006
   19.69305420  154.66600037    4.90999985    2.44000006
   19.69638824  161.27099609    4.90999985    2.34999990
   19.69944382  168.38499451    4.90999985    2.34999990
   19.70277786  193.36199951    4.90999985    2.26999998
   19.70611191  234.82600403    4.90999985    2.23000002
   19.70916748  302.01699829    4.90999985    2.23000002
   19.71111107  356.33599854    4.90999985    2.23000002
   19.71250153  332.74398804    4.90999985    2.25000000
   19.71389008  386.27301025    4.90999985    2.32999992
   19.71527863  410.71398926    4.90999985    2.39000010
   19.71666718  488.24700928    4.90999985    2.36999989
   19.71805573  518.12298584    4.90999985    2.30999994
   19.71944427  573.78497314    4.90999985    2.25000000
   19.72083473  524.98101807    4.90999985    2.21000004
   19.72222328  578.61102295    4.90999985    2.21000004
   19.72361183  588.63098145    4.90999985    2.25000000
   19.72500038  543.27502441    4.90999985    2.34999990
   19.72638893  441.65899658    4.90999985    2.34999990
   19.72777748  376.57000732    4.90999985    2.32999992
   19.72916794  279.49600220    4.90999985    2.26999998
   19.73055649  228.01499939    4.90999985    2.23000002
   19.73194504  226.62699890    4.90999985    2.21000004
   19.73333359  208.22999573    4.90999985    2.21000004
   19.73333359  193.36199951    4.90999985    2.26999998
   19.73361206  234.82600403    4.90999985    2.23000002
   19.73361206  302.01699829    4.90999985    2.23000002
   19.73361206  158.27400208    4.90999985    2.42000008
   19.73361206  156.25500488    4.90999985    2.42000008
   19.73361206  156.75999451    4.90999985    2.44000006
   19.73388863  154.66600037    4.90999985    2.44000006
   19.73388863  161.27099609    4.90999985    2.34999990
   19.73388863  168.38499451    4.90999985    2.34999990
   19.73444557  159.96400452    4.90999985    2.23000002
   19.73777771  127.56099701    4.90999985    2.30999994
   19.74083328   -1.00000000    4.90999985    2.19000006
   19.74416733   -1.00000000    4.90999985    2.17000008
   19.74749947   -1.00000000    4.90999985    2.23000002
   19.75833321   -1.00000000    4.90999985    1.88000000
   19.76138878   -1.00000000    4.90999985    2.07999992
   19.76472282   -1.00000000    4.90999985    2.23000002
   19.76805496   -1.00000000    4.90999985    1.94000006
   19.77138901   -1.00000000    4.90999985    1.66999996
   19.77472115   -1.00000000    4.90999985    1.80999994
   19.77777672   -1.00000000    4.90999985    2.26999998
   19.78111076   -1.00000000    4.90999985    2.17000008
   19.78444481   -1.00000000    4.90999985    2.15000010
   19.78750038   -1.00000000    4.90999985    2.17000008
   19.79083252   -1.00000000    4.90999985    2.32999992
   19.80111122   -1.00000000    4.90999985    2.26999998
   19.80444336   -1.00000000    4.90999985    1.98000002
   19.80749893   -1.00000000    4.90999985    2.13000011
   19.81083298   -1.00000000    4.90999985    2.05999994
   19.81388855   -1.00000000    4.90999985    1.89999998
   19.81722260   -1.00000000    4.90999985    1.85000002
   19.82055664   -1.00000000    4.90999985    1.94000006
   19.82361221   -1.00000000    4.90999985    2.15000010
   19.82694626   -1.00000000    4.90999985    2.30999994
   19.83027840   -1.00000000    4.90999985    2.34999990
   19.83333397   -1.00000000    4.90999985    2.34999990
   19.84388924   -1.00000000    4.90999985    2.32999992
   19.84722328   -1.00000000    4.90999985    2.30999994
   19.85027885   -1.00000000    4.90999985    2.23000002
   19.85361099   -1.00000000    4.90999985    1.98000002
   19.85694504   -1.00000000    4.90999985    1.96000004
   19.86000061   -1.00000000    4.90999985    1.80999994
   19.86333466   -1.00000000    4.90999985    1.88000000
   19.86666679   -1.00000000    4.90999985    2.25000000
   19.87027740   -1.00000000    4.90999985    2.30999994
   19.87333298   -1.00000000    4.90999985    2.21000004
   19.87666702   -1.00000000    4.90999985    2.15000010
   19.88666725   -1.00000000    4.90999985    2.03999996
   19.88999939   -1.00000000    4.90999985    1.80999994
   19.89333344   -1.00000000    4.90999985    1.61000001
   19.89638901   -1.00000000    4.90999985    1.61000001
   19.89972115   -1.00000000    4.90999985    1.60000002
   19.90333366   -1.00000000    4.90999985    2.03999996
   19.90638924   -1.00000000    4.90999985    2.13000011
   19.90972137   -1.00000000    4.90999985    2.28999996
   19.91277695   -1.00000000    4.90999985    2.19000006
   19.91611099   -1.00000000    4.90999985    2.15000010
   19.91944313   -1.00000000    4.90999985    2.13000011
   19.92972183   -1.00000000    4.90999985    2.13000011
   19.93277740   -1.00000000    4.90999985    2.28999996
   19.93638802   -1.00000000    4.90999985    2.36999989
   19.93944359   -1.00000000    4.90999985    2.28999996
   19.94277763   -1.00000000    4.90999985    2.34999990
   19.94583321   -1.00000000    4.90999985    2.32999992
   19.94916534   -1.00000000    4.90999985    2.19000006
   19.95250130   -1.00000000    4.90999985    2.23000002
   19.95555687   -1.00000000    4.90999985    2.26999998
   19.95888901   -1.00000000    4.90999985    2.21000004
