    HOUR (UT)   FLARE FACTOR    SKY TESTER    SUN TESTER
   12.22805500   -1.00000000   -1.00000000   -1.00000000
   12.24805546  238.34199524    1.89999998    1.60000002
   12.25305557  270.14898682    1.96000004    1.61000001
   12.25611115  231.13699341    1.96000004    1.61000001
   12.26055527  243.52200317    1.98000002    1.61000001
   12.26388931  354.61401367    1.98000002    1.61000001
   12.26583290  413.14300537    2.00000000    1.61000001
   12.26722240  344.10800171    2.00000000    1.61000001
   12.26861095  222.16900635    2.00000000    1.61000001
   12.26861095  270.14898682    1.96000004    1.61000001
   12.26861095  231.13699341    1.96000004    1.61000001
   12.26888847  243.52200317    1.98000002    1.61000001
   12.26888847  354.61401367    1.98000002    1.61000001
   12.26944447  225.80200195    2.00000000    1.63000000
   12.27250004  212.27999878    2.00000000    1.61000001
   12.27583313  239.39599609    2.01999998    1.63000000
   12.27916622  200.36500549    2.01999998    1.63000000
   12.28222179  209.56700134    2.03999996    1.63000000
   12.28555584  196.58799744    2.03999996    1.63000000
   12.28972244  196.58799744    2.05999994    1.64999998
   12.29388905  183.65800476    2.05999994    1.64999998
   12.29694462  169.70899963    2.05999994    1.64999998
   12.30027771  211.93299866    2.05999994    1.64999998
   12.30249977  193.65800476    2.05999994    1.66999996
   12.30361176  203.47700500    2.05999994    1.66999996
   12.30694485  232.58500671    2.07999992    1.66999996
   12.31027794  232.93800354    2.07999992    1.66999996
   12.31333351  190.25300598    2.07999992    1.66999996
   12.31666660  201.49200439    2.09999990    1.66999996
   12.31999969  218.27200317    2.09999990    1.66999996
   12.32305527  192.21099854    2.09999990    1.66999996
   12.32638836  196.44500732    2.09999990    1.69000006
   12.33249950  196.44500732    2.09999990    1.69000006
   12.33666611  203.13499451    2.09999990    1.69000006
   12.33972168  191.23599243    2.09999990    1.71000004
   12.34305477  225.08000183    2.09999990    1.71000004
   12.34638882  190.46400452    2.09999990    1.71000004
   12.34944439  198.11199951    2.09999990    1.71000004
   12.35277843  189.72500610    2.09999990    1.71000004
   12.35611153  208.55099487    2.09999990    1.71000004
   12.35916710  197.71000671    2.07999992    1.73000002
   12.36250019  187.41600037    2.07999992    1.73000002
   12.36555576  193.15699768    2.07999992    1.73000002
   12.36888885  197.03999329    2.07999992    1.73000002
   12.36944485  171.13499451    2.07999992    1.73000002
   12.37527752  171.13499451    2.05999994    1.73000002
   12.37944412  187.32200623    2.07999992    1.75000000
   12.38277817  182.47700500    2.05999994    1.73000002
   12.38583279  201.59800720    2.05999994    1.75000000
   12.38916683  173.28199768    2.05999994    1.75000000
   12.39249992  180.39999390    2.03999996    1.75000000
   12.39555550  186.25199890    2.03999996    1.75000000
   12.39888859  205.74000549    2.03999996    1.76999998
   12.40194416  158.37199402    2.03999996    1.76999998
   12.40277767  172.41499329    2.03999996    1.76999998
   12.40555477  177.33599854    2.03999996    1.76999998
   12.40888882  157.50300598    2.01999998    1.76999998
   12.41222191  151.95100403    2.01999998    1.78999996
   12.41805553  151.95100403    2.01999998    1.76999998
   12.42222214  182.26899719    2.00000000    1.76999998
   12.42555618  181.47900391    2.00000000    1.78999996
   12.42888927  165.52900696    2.00000000    1.78999996
   12.43194485  160.78599548    2.00000000    1.78999996
   12.43527794  174.18899536    1.98000002    1.78999996
   12.43611145  178.50900269    1.98000002    1.78999996
   12.43888855  184.48300171    1.98000002    1.78999996
   12.44194412  160.04899597    1.98000002    1.78999996
   12.44527817  153.86799622    1.98000002    1.80999994
   12.44833374  167.32099915    1.98000002    1.78999996
   12.45166683  163.41799927    1.98000002    1.78999996
   12.45499992  159.77900696    1.98000002    1.80999994
   12.46111107  159.77900696    1.96000004    1.80999994
   12.46527767  172.87100220    1.96000004    1.80999994
   12.46833324  168.40199280    1.94000006    1.80999994
   12.46944427  156.94099426    1.94000006    1.80999994
   12.47222137  174.72399902    1.94000006    1.80999994
   12.47527695  167.50100708    1.94000006    1.80999994
   12.47861099  170.49600220    1.94000006    1.83000004
   12.48166656  166.96600342    1.94000006    1.83000004
   12.48500061  170.34199524    1.94000006    1.83000004
   12.48833370  149.96699524    1.94000006    1.83000004
   12.49138927  158.24099731    1.94000006    1.83000004
   12.49472237  188.80700684    1.91999996    1.83000004
   12.49805546  178.33900452    1.91999996    1.85000002
   12.50388908  178.33900452    1.91999996    1.85000002
   12.50805569  171.83500671    1.91999996    1.85000002
   12.51111126  164.08399963    1.91999996    1.85000002
   12.51444435  183.75100708    1.89999998    1.86000001
   12.51777744  158.46899414    1.89999998    1.85000002
   12.52083302  134.94599915    1.89999998    1.86000001
   12.52416611  139.84800720    1.89999998    1.85000002
   12.52750015  165.39300537    1.89999998    1.86000001
   12.53083324  170.04400635    1.89999998    1.86000001
   12.53388977  184.85600281    1.89999998    1.86000001
   12.53611183  194.50100708    1.88000000    1.86000001
   12.53777790  177.50500488    1.88000000    1.86000001
   12.54083347  173.81700134    1.88000000    1.86000001
   12.54666710  173.81700134    1.86000001    1.86000001
   12.55083370  173.06599426    1.86000001    1.88000000
   12.55416679  176.11900330    1.86000001    1.88000000
   12.55722237  173.52499390    1.86000001    1.88000000
   12.56055546  189.40600586    1.86000001    1.88000000
   12.56388950  189.00000000    1.86000001    1.88000000
   12.56694412  166.31799316    1.85000002    1.88000000
   12.56944466  174.87899780    1.85000002    1.88000000
   12.57083321  164.84399414    1.85000002    1.88000000
   12.57388878  163.07499695    1.83000004    1.89999998
   12.57722187  179.53599548    1.83000004    1.89999998
   12.58027744  156.90800476    1.83000004    1.89999998
   12.58361053  163.93299866    1.83000004    1.89999998
   12.59000015  163.93299866    1.83000004    1.89999998
   12.59416676  172.52200317    1.80999994    1.91999996
   12.59722233  164.60200500    1.80999994    1.91999996
   12.60055637  172.59599304    1.80999994    1.91999996
   12.60277843  169.63800049    1.78999996    1.91999996
   12.60416698  171.79200745    1.78999996    1.91999996
   12.60722256  163.84500122    1.78999996    1.91999996
   12.61055565  164.30999756    1.78999996    1.91999996
   12.61361122  174.47000122    1.78999996    1.91999996
   12.61694431  171.38600159    1.76999998    1.91999996
   12.62027836  175.61300659    1.76999998    1.94000006
   12.62333393  176.14100647    1.75000000    1.91999996
   12.62666702  180.01899719    1.75000000    1.91999996
   12.63249969  180.01899719    1.75000000    1.94000006
   12.63666630  176.01899719    1.75000000    1.94000006
   12.63972187  169.76699829    1.75000000    1.94000006
   12.64305496  165.67100525    1.75000000    1.94000006
   12.64611053  146.04400635    1.75000000    1.94000006
   12.64944458  171.16600037    1.73000002    1.94000006
   12.65277767  179.20399475    1.73000002    1.94000006
   12.65583324  184.65199280    1.71000004    1.96000004
   12.65916634  164.15100098    1.71000004    1.96000004
   12.66249943  166.19900513    1.71000004    1.96000004
   12.66555500  165.23199463    1.71000004    1.96000004
   12.66888905  157.94200134    1.69000006    1.96000004
   12.66944504  144.85800171    1.69000006    1.96000004
   12.67527771  144.85800171    1.69000006    1.96000004
   12.67944431  160.77400208    1.66999996    1.96000004
   12.68277836  149.35000610    1.66999996    1.96000004
   12.68583298  148.07499695    1.66999996    1.96000004
   12.68916702  140.35200500    1.64999998    1.98000002
   12.69222260  158.41999817    1.64999998    1.98000002
   12.69555569  148.87800598    1.64999998    1.98000002
   12.69888878  156.97700500    1.64999998    1.98000002
   12.70194435  156.77099609    1.64999998    1.98000002
   12.70277786  146.97599792    1.64999998    1.98000002
   12.70583344  168.66299438    1.64999998    1.98000002
   12.70888901  176.15499878    1.63000000    2.00000000
   12.71222210  170.31700134    1.63000000    2.00000000
   12.71805477  170.31700134    1.63000000    2.00000000
   12.72222137  157.44999695    1.61000001    2.00000000
   12.72555542  169.01400757    1.61000001    2.00000000
   12.72861099  156.60499573    1.61000001    2.00000000
   12.73194408  158.13699341    1.61000001    2.00000000
   12.73527813  156.73300171    1.61000001    2.01999998
   12.73611164  156.12399292    1.61000001    2.01999998
   12.73888874  146.90199280    1.60000002    2.01999998
   12.74194431  168.10899353    1.60000002    2.00000000
   12.74527836  151.30799866    1.61000001    2.01999998
   12.74861145  162.53199768    1.60000002    2.00000000
   12.75166702  177.69000244    1.60000002    2.01999998
   12.75500011  161.68400574    1.60000002    2.01999998
   12.76083374  161.68400574    1.60000002    2.01999998
   12.76500034  163.13099670    1.60000002    2.01999998
   12.76833344  156.12800598    1.58000004    2.01999998
   12.76944447  158.03199768    1.58000004    2.01999998
   12.77194405  154.57499695    1.60000002    2.01999998
   12.77499962  159.05000305    1.58000004    2.01999998
   12.77833271  145.55400085    1.58000004    2.01999998
   12.78166676  160.14599609    1.58000004    2.03999996
   12.78472233  151.65100098    1.58000004    2.03999996
   12.78805637  142.41400146    1.55999994    2.03999996
   12.79111195  168.55799866    1.55999994    2.03999996
   12.79444504  161.78100586    1.55999994    2.03999996
   12.79777813  155.48399353    1.55999994    2.03999996
   12.80388927  155.48399353    1.55999994    2.05999994
   12.80805588  151.45199585    1.55999994    2.03999996
   12.81111145  148.96200562    1.55999994    2.05999994
   12.81444454  125.91500092    1.55999994    2.03999996
   12.81777763  167.55700684    1.55999994    2.03999996
   12.82083321  157.22099304    1.53999996    2.05999994
   12.82416630  143.99299622    1.53999996    2.05999994
   12.82722187  136.72399902    1.53999996    2.05999994
   12.83055592  157.53100586    1.53999996    2.05999994
   12.83388901  147.66400146    1.53999996    2.05999994
   12.83611107  141.31199646    1.53999996    2.05999994
   12.83749962  151.49800110    1.53999996    2.05999994
   12.84055519  149.32099915    1.53999996    2.05999994
   12.84666634  149.32099915    1.53999996    2.05999994
   12.85083389  189.55599976    1.53999996    2.05999994
   12.85388947  150.46000671    1.51999998    2.05999994
   12.85722256  167.90199280    1.53999996    2.07999992
   12.86055565  171.84399414    1.51999998    2.05999994
   12.86388969  177.44799805    1.51999998    2.05999994
   12.86722279  164.59199524    1.51999998    2.05999994
   12.86944485  152.05999756    1.51999998    2.07999992
   12.87083340  164.04100037    1.51999998    2.07999992
   12.87388897  162.58399963    1.50000000    2.07999992
   12.87722206  161.41999817    1.50000000    2.07999992
   12.88055611  168.92100525    1.51999998    2.07999992
   12.88361073  164.76600647    1.51999998    2.07999992
   12.88944435  164.76600647    1.50000000    2.07999992
   12.89361095  151.46000671    1.50000000    2.09999990
   12.89694405  167.00599670    1.50000000    2.09999990
   12.89999962  151.15600586    1.50000000    2.07999992
   12.90277767  167.51499939    1.48000002    2.09999990
   12.90388870  155.42100525    1.48000002    2.09999990
   12.90694427  160.32800293    1.48000002    2.07999992
   12.91027737  173.91299438    1.48000002    2.07999992
   12.91361046  149.88699341    1.48000002    2.09999990
   12.91666698  183.12199402    1.48000002    2.09999990
   12.92000008  177.68200684    1.48000002    2.09999990
   12.92333412  165.32299805    1.48000002    2.09999990
   12.92638874  161.29200745    1.46000004    2.09999990
   12.93249989  161.29200745    1.44000006    2.09999990
   12.93638897  174.17700195    1.44000006    2.09999990
   12.93972206  160.85499573    1.44000006    2.09999990
   12.94305515  162.51699829    1.44000006    2.11999989
   12.94611073  175.17900085    1.44000006    2.11999989
   12.94944477  181.48100281    1.44000006    2.11999989
   12.95277786  147.20599365    1.44000006    2.11999989
   12.95583344  164.21800232    1.44000006    2.11999989
   12.95916653  183.54299927    1.44000006    2.11999989
   12.96249962  145.17399597    1.41999996    2.11999989
   12.96583271  172.65100098    1.41999996    2.11999989
   12.96888828  164.20899963    1.41999996    2.13000011
   12.96972179  161.74000549    1.41999996    2.13000011
   12.97527695  161.74000549    1.41999996    2.11999989
   12.97944355  162.36999512    1.41999996    2.11999989
   12.98249912  170.23199463    1.41999996    2.11999989
   12.98583317  192.71899414    1.41999996    2.13000011
   12.98888874  191.63999939    1.41999996    2.11999989
   12.99222279  165.56199646    1.41999996    2.13000011
   12.99555588  184.53300476    1.41999996    2.13000011
   12.99861145  169.51899719    1.39999998    2.13000011
   13.00194454  185.02699280    1.39999998    2.13000011
   13.00277805  176.64300537    1.41999996    2.13000011
   13.00555515  185.59399414    1.41999996    2.13000011
   13.00888920  178.29899597    1.39999998    2.13000011
   13.01194477  184.34800720    1.41999996    2.13000011
   13.01805496  184.34800720    1.39999998    2.13000011
   13.02222157  186.76400757    1.39999998    2.13000011
   13.02527714  186.77799988    1.39999998    2.15000010
   13.02861118  207.86900330    1.39999998    2.13000011
   13.03194427  197.45399475    1.39999998    2.13000011
   13.03527832  189.57800293    1.39999998    2.13000011
   13.03611183  182.40699768    1.39999998    2.13000011
   13.03888893  181.95599365    1.39999998    2.15000010
   13.04194450  203.52900696    1.39999998    2.13000011
   13.04527855  209.44999695    1.39999998    2.13000011
   13.04861164  182.72300720    1.39999998    2.15000010
   13.05166721  200.95799255    1.39999998    2.15000010
   13.05500031  185.55999756    1.38000000    2.15000010
   13.06083393  185.55999756    1.38000000    2.15000010
   13.06500053  197.68600464    1.38000000    2.15000010
   13.06833363  183.14999390    1.36000001    2.15000010
   13.06944466  192.79100037    1.36000001    2.15000010
   13.07194424  192.24099731    1.36000001    2.15000010
   13.07527733  170.35099792    1.36000001    2.15000010
   13.07833290  162.69599915    1.36000001    2.15000010
   13.08166695  175.28300476    1.36000001    2.17000008
   13.08472157  169.00500488    1.36000001    2.17000008
   13.08805561  176.22700500    1.36000001    2.15000010
   13.09138870  173.37899780    1.34000003    2.15000010
   13.09444427  184.25900269    1.34000003    2.15000010
   13.09777737  179.20799255    1.34000003    2.17000008
   13.10361195  179.20799255    1.33000004    2.17000008
   13.10777855  171.00599670    1.33000004    2.17000008
   13.11111164  162.88900757    1.33000004    2.17000008
   13.11444473  173.60099792    1.33000004    2.17000008
   13.11750031  163.82400513    1.30999994    2.17000008
   13.12083340  175.77799988    1.30999994    2.17000008
   13.12388897  160.85400391    1.30999994    2.17000008
   13.12722206  162.26400757    1.30999994    2.17000008
   13.13055611  168.28900146    1.30999994    2.17000008
   13.13361073  165.57600403    1.28999996    2.17000008
   13.13611126  164.92199707    1.28999996    2.17000008
   13.13722229  173.57600403    1.28999996    2.17000008
   13.14055538  173.18899536    1.28999996    2.19000006
   13.14666653  173.18899536    1.28999996    2.19000006
   13.15055561  169.63999939    1.28999996    2.19000006
   13.15388870  178.87699890    1.28999996    2.19000006
   13.15722179  179.65800476    1.28999996    2.19000006
   13.16027737  167.79699707    1.26999998    2.19000006
   13.16361046  188.17399597    1.26999998    2.19000006
   13.16694450  184.49699402    1.26999998    2.19000006
   13.16944504  180.03100586    1.26999998    2.19000006
   13.17055607  187.46699524    1.26999998    2.19000006
   13.17388916  187.47300720    1.26999998    2.19000006
   13.17694473  185.76400757    1.26999998    2.19000006
   13.18027782  166.87600708    1.26999998    2.19000006
   13.18361092  182.53300476    1.26999998    2.19000006
   13.18944454  182.53300476    1.26999998    2.21000004
   13.19361115  173.13299561    1.26999998    2.19000006
   13.19666672  166.90199280    1.26999998    2.21000004
   13.19999981  159.46200562    1.25000000    2.19000006
   13.20305538  153.18699646    1.25000000    2.19000006
   13.20388889  157.78199768    1.25000000    2.19000006
   13.20694447  160.08000183    1.25000000    2.21000004
   13.21027756  160.80700684    1.25000000    2.21000004
   13.21361065  164.18899536    1.25000000    2.21000004
   13.21666622  167.63999939    1.25000000    2.21000004
   13.21999931  149.49600220    1.25000000    2.21000004
   13.22305489  144.92199707    1.23000002    2.21000004
   13.22638798  146.71499634    1.23000002    2.21000004
   13.23222160  146.71499634    1.23000002    2.21000004
   13.23638916  150.10600281    1.21000004    2.21000004
   13.23972225  157.80900574    1.21000004    2.23000002
   13.24277782  148.93200684    1.21000004    2.21000004
   13.24611092  138.50300598    1.21000004    2.21000004
   13.26555538  142.05599976    1.19000006    2.23000002
   13.26888847  159.59899902    1.19000006    2.23000002
   13.26972198  148.77499390    1.19000006    2.23000002
   13.27499962  148.77499390    1.19000006    2.23000002
   13.27916622  138.13000488    1.16999996    2.23000002
   13.28249931  144.02099609    1.16999996    2.23000002
   13.28583336  137.96299744    1.16999996    2.23000002
   13.28888893  143.73300171    1.16999996    2.23000002
   13.29222298  152.23199463    1.14999998    2.23000002
   13.29527855  161.27900696    1.16999996    2.23000002
   13.29861164  156.53799438    1.16999996    2.23000002
   13.30194473  145.80200195    1.16999996    2.23000002
   13.30305576  152.81900024    1.16999996    2.25000000
   13.30555534  150.61000061    1.21000004    2.25000000
   13.30888939  157.44799805    1.21000004    2.23000002
   13.31194496  158.21699524    1.21000004    2.23000002
   13.31805515  158.21699524    1.23000002    2.25000000
   13.32194424  159.66700745    1.16999996    2.25000000
   13.32527733  115.21700287    1.16999996    2.25000000
   13.32861137  141.95300293    1.14999998    2.25000000
   13.33166695  149.93600464    1.13000000    2.25000000
   13.33500004  150.12399292    1.13000000    2.25000000
   13.33638859  146.02299500    1.13000000    2.25000000
   13.33861065  154.67900085    1.13000000    2.25000000
   13.34194374  153.64799500    1.14999998    2.25000000
   13.34499931  156.40800476    1.14999998    2.25000000
   13.34833336  159.83099365    1.13000000    2.25000000
   13.35138893  133.79299927    1.13000000    2.25000000
   13.35472298  151.43600464    1.13000000    2.25000000
   13.36083412  151.43600464    1.13000000    2.25000000
   13.36500072  155.24600220    1.13000000    2.25000000
   13.36805534  152.13000488    1.13000000    2.25000000
   13.36972237  153.92799377    1.13000000    2.25000000
   13.37166691  153.01600647    1.13000000    2.25000000
   13.37500000  151.23800659    1.13000000    2.25000000
   13.37805557  139.04899597    1.11000001    2.25000000
   13.38138866  168.25100708    1.11000001    2.25000000
   13.38444424  153.44200134    1.11000001    2.25000000
   13.38777733  150.34399414    1.11000001    2.26999998
   13.39111137  159.41600037    1.13000000    2.26999998
   13.39416695  151.80700684    1.11000001    2.26999998
   13.39750004  148.30000305    1.11000001    2.26999998
   13.40361118  148.30000305    1.13000000    2.26999998
   13.40777779  151.84100342    1.14999998    2.26999998
   13.41111088  159.18200684    1.13000000    2.26999998
   13.41416645  148.64300537    1.13000000    2.26999998
   13.41750050  164.91499329    1.14999998    2.26999998
   13.42083359  161.52400208    1.13000000    2.26999998
   13.42388916  168.59500122    1.13000000    2.26999998
   13.42722225  151.76600647    1.14999998    2.26999998
   13.43027782  169.72900391    1.16999996    2.26999998
   13.43361092  167.90100098    1.16999996    2.26999998
   13.43638897  166.52999878    1.14999998    2.28999996
   13.43722248  162.52200317    1.14999998    2.28999996
   13.44055557  153.09100342    1.13000000    2.28999996
   13.44638920  153.09100342    1.16999996    2.28999996
   13.45055580  178.62199402    1.21000004    2.28999996
   13.45388889  154.18099976    1.19000006    2.28999996
   13.45722198  146.40800476    1.16999996    2.28999996
   13.46027756  158.87600708    1.14999998    2.28999996
   13.46361065  144.10600281    1.14999998    2.28999996
   13.46666622  160.23899841    1.13000000    2.28999996
   13.46972179  156.82499695    1.13000000    2.28999996
   13.47055531  167.94099426    1.13000000    2.28999996
   13.47361088  152.19099426    1.11000001    2.28999996
   13.47694397  147.18800354    1.11000001    2.28999996
   13.48027706  148.93400574    1.11000001    2.28999996
   13.48333359  156.25199890    1.13000000    2.28999996
   13.48944473  156.25199890    1.11000001    2.28999996
   13.49361134  155.48699951    1.11000001    2.28999996
   13.49666691  161.48399353    1.13000000    2.28999996
   13.50000000  154.81599426    1.14999998    2.28999996
   13.50305557  147.27099609    1.13000000    2.28999996
   13.50361156  157.30700684    1.13000000    2.28999996
   13.50666714  153.00399780    1.13000000    2.28999996
   13.51000023  151.10699463    1.13000000    2.28999996
   13.51333332  150.98699951    1.11000001    2.28999996
   13.51638889  163.98699951    1.11000001    2.28999996
   13.51972198  173.74499512    1.13000000    2.28999996
   13.52305508  157.25199890    1.11000001    2.30999994
   13.52611065  154.09899902    1.11000001    2.30999994
   13.53222179  154.09899902    1.11000001    2.28999996
   13.53638935  163.25799561    1.11000001    2.30999994
   13.53666687  147.64999390    1.11000001    2.30999994
   13.54000092  155.76199341    1.11000001    2.30999994
   13.54333401  135.19999695    1.09000003    2.30999994
   13.54638958  159.80099487    1.11000001    2.30999994
   13.54972267  163.68899536    1.11000001    2.30999994
   13.55305576  168.93499756    1.11000001    2.30999994
   13.55611134  147.11500549    1.13000000    2.30999994
   13.55944443  162.59800720    1.13000000    2.30999994
   13.56250000  150.33900452    1.09000003    2.30999994
   13.56583309  160.91299438    1.09000003    2.30999994
   13.56916618  159.37600708    1.09000003    2.30999994
   13.56999969  144.66999817    1.09000003    2.30999994
   13.57527733  144.66999817    1.07000005    2.32999992
   13.57944393  154.73500061    1.07000005    2.32999992
   13.58249950  160.08299255    1.07000005    2.30999994
   13.58583260  179.12100220    1.07000005    2.32999992
   13.58888817  169.32200623    1.07000005    2.32999992
   13.59222221  165.50000000    1.05999994    2.30999994
   13.59555531  168.88499451    1.05999994    2.30999994
   13.59861088  178.96000671    1.05999994    2.30999994
   13.60194492  184.38099670    1.05999994    2.32999992
   13.60333347  189.68800354    1.05999994    2.32999992
   13.60555553  188.49200439    1.05999994    2.32999992
   13.60888958  185.54899597    1.05999994    2.32999992
   13.61194515  192.82899475    1.03999996    2.32999992
   13.61777782  192.82899475    1.03999996    2.32999992
   13.62194443  163.28999329    1.03999996    2.32999992
   13.62527752  150.85800171    1.03999996    2.32999992
   13.62833309  163.47900391    1.03999996    2.32999992
   13.63166714  153.43600464    1.03999996    2.32999992
   13.63500023  159.03700256    1.01999998    2.32999992
   13.63666630  157.77200317    1.01999998    2.32999992
   13.63833332  165.12199402    1.01999998    2.32999992
   13.64166641  166.10200500    1.01999998    2.32999992
   13.64472198  159.24299622    1.01999998    2.32999992
   13.64805508  152.34899902    1.01999998    2.32999992
   13.65138817  155.64999390    1.01999998    2.32999992
   13.65444374  167.68699646    1.01999998    2.32999992
   13.66083336  167.68699646    1.01999998    2.32999992
   13.66472149  161.55099487    1.01999998    2.32999992
   13.66805553  150.62500000    1.01999998    2.32999992
   13.67027855  143.65299988    1.01999998    2.32999992
   13.67166710  158.73500061    1.01999998    2.32999992
   13.67500019  155.36399841    1.01999998    2.32999992
   13.67805576  153.82400513    1.01999998    2.32999992
   13.68138885  160.20300293    1.01999998    2.32999992
   13.68472195  165.64700317    1.01999998    2.32999992
   13.68777752  164.60200500    1.01999998    2.32999992
   13.69111156  171.69200134    1.01999998    2.32999992
   13.69444466  168.20199585    1.00000000    2.32999992
   13.69750023  152.53700256    0.98000002    2.34999990
   13.70361137  152.53700256    0.98000002    2.32999992
   13.70777798  162.11000061    1.00000000    2.34999990
   13.71083355  162.26400757    1.00000000    2.34999990
   13.71416664  157.06300354    0.98000002    2.34999990
   13.71722221  162.72000122    0.98000002    2.34999990
   13.72055531  170.99000549    1.00000000    2.34999990
   13.72388840  151.39399719    0.98000002    2.34999990
   13.72722149  165.89700317    0.98000002    2.34999990
   13.73027706  158.76300049    0.98000002    2.34999990
   13.73361111  165.19700623    0.98000002    2.34999990
   13.73694515  171.50900269    0.98000002    2.32999992
   13.73722267  167.61500549    0.98000002    2.32999992
   13.74055576  168.01699829    0.98000002    2.32999992
   13.74638939  168.01699829    0.98000002    2.34999990
   13.75055599  158.92199707    0.98000002    2.34999990
   13.75361156  150.18699646    0.98000002    2.34999990
   13.75694466  163.11500549    0.98000002    2.34999990
   13.76027775  163.05499268    0.98000002    2.34999990
   13.76333332  167.61300659    0.98000002    2.34999990
   13.76666641  165.41499329    0.98000002    2.36999989
   13.76999950  162.21899414    0.95999998    2.36999989
   13.77027798  154.76400757    0.95999998    2.36999989
   13.77361107  145.38699341    0.94000000    2.34999990
   13.77694416  162.09800720    0.94000000    2.34999990
   13.77999973  164.84300232    0.94000000    2.34999990
   13.78333378  157.84700012    0.94000000    2.36999989
   13.78916740  157.84700012    0.94000000    2.34999990
   13.79333401  155.43299866    0.94000000    2.34999990
   13.79666710  158.79400635    0.94000000    2.34999990
   13.79972267  154.02499390    0.94000000    2.34999990
   13.80305576  150.50599670    0.94000000    2.36999989
   13.80361176  155.87399292    0.94000000    2.36999989
   13.80666733  155.53399658    0.94000000    2.36999989
   13.81000042  157.14500427    0.94000000    2.36999989
   13.81305599  146.23100281    0.94000000    2.36999989
   13.81638908  148.93499756    0.92000002    2.36999989
   13.81972218  149.13400269    0.92000002    2.34999990
   13.82277775  149.49899292    0.92000002    2.36999989
   13.82611084  161.44000244    0.92000002    2.36999989
   13.83194447  161.44000244    0.92000002    2.36999989
   13.83611107  151.05000305    0.92000002    2.36999989
   13.83694458  159.05700684    0.92000002    2.36999989
   13.83972168  168.07800293    0.92000002    2.36999989
   13.84305477  156.58000183    0.94000000    2.36999989
   13.84611034  157.63999939    0.95999998    2.36999989
   13.84944439  174.08599854    0.94000000    2.36999989
   13.85277843  175.54499817    0.94000000    2.36999989
   13.85583401  167.98100281    0.95999998    2.36999989
   13.85916710  165.43299866    0.92000002    2.36999989
   13.86222267  152.03599548    0.92000002    2.36999989
   13.86555576  155.44099426    0.94000000    2.39000010
   13.86888885  148.27299500    0.92000002    2.36999989
   13.87027836  164.62899780    0.92000002    2.36999989
   13.87500000  164.62899780    0.92000002    2.36999989
   13.87916660  155.13900757    0.92000002    2.36999989
   13.88222218  152.42599487    0.92000002    2.39000010
   13.88555527  144.23699951    0.92000002    2.39000010
   13.88888836  151.69500732    0.89999998    2.39000010
   13.89194393  166.41900635    0.89999998    2.36999989
   13.89527798  162.68699646    0.89999998    2.36999989
   13.89861107  153.93699646    0.89999998    2.36999989
   13.90166664  158.75700378    0.89999998    2.36999989
   13.90388870  160.29899597    0.89999998    2.39000010
   13.90527725  166.16700745    0.89999998    2.39000010
   13.90861034  150.55900574    0.89999998    2.39000010
   13.91194439  153.98899841    0.88000000    2.39000010
   13.91777802  153.98899841    0.88000000    2.39000010
   13.92194462  167.69599915    0.88000000    2.39000010
   13.92527771  158.07000732    0.88000000    2.39000010
   13.92833328  157.49600220    0.88000000    2.39000010
   13.93166733  170.32400513    0.88000000    2.39000010
   13.93472195  159.75900269    0.88000000    2.39000010
   13.93722248  152.89900208    0.88000000    2.39000010
   13.93833351  158.72099304    0.88000000    2.39000010
   13.94166660  165.97599792    0.88000000    2.39000010
   13.94472218  150.93299866    0.88000000    2.40000010
   13.94805527  170.94599915    0.88000000    2.39000010
   13.95138836  170.18200684    0.86000001    2.39000010
   13.95444393  174.31300354    0.88000000    2.39000010
   13.96055508  174.31300354    0.88000000    2.39000010
   13.96472168  184.75999451    0.88000000    2.39000010
   13.96805477  178.73899841    0.88000000    2.39000010
   13.97055531  167.63699341    0.86000001    2.39000010
   13.97166634  185.30700684    0.86000001    2.39000010
   13.97499943  172.28599548    0.88000000    2.39000010
   13.97805500  171.09899902    0.88000000    2.39000010
   13.98138809  163.93899536    0.88000000    2.39000010
   13.98472214  171.25000000    0.88000000    2.39000010
   13.98777771  180.29600525    0.86000001    2.39000010
   13.99111176  168.27200317    0.86000001    2.39000010
   13.99444485  156.47399902    0.86000001    2.39000010
   13.99750042  166.66200256    0.88000000    2.39000010
   14.00333309  166.66200256    0.88000000    2.39000010
   14.00749969  165.71299744    0.89999998    2.40000010
   14.01083374  175.26600647    0.88000000    2.39000010
   14.01416683  153.63900757    0.88000000    2.40000010
   14.01722240  162.07200623    0.86000001    2.39000010
   14.02055550  159.09300232    0.86000001    2.39000010
   14.02361107  156.54200745    0.86000001    2.39000010
   14.02694416  164.25999451    0.83999997    2.40000010
   14.03027725  149.36000061    0.86000001    2.40000010
   14.03333378  148.46699524    0.86000001    2.40000010
   14.03666687  154.26899719    0.86000001    2.40000010
   14.03861141  160.83200073    0.83999997    2.40000010
   14.04027843  159.41499329    0.83999997    2.40000010
   14.04638958  159.41499329    0.83999997    2.40000010
   14.05055618  167.50900269    0.83999997    2.40000010
   14.05388927  160.89999390    0.83999997    2.39000010
   14.05694485  164.94400024    0.83999997    2.39000010
   14.06027794  168.40499878    0.83999997    2.40000010
   14.06333351  151.98699951    0.83999997    2.40000010
   14.06666660  185.95500183    0.81999999    2.39000010
   14.06999969  163.16000366    0.81999999    2.40000010
   14.07194424  176.42900085    0.81999999    2.40000010
   14.07361126  162.77799988    0.83999997    2.40000010
   14.07694435  160.80400085    0.81999999    2.40000010
   14.07999992  153.46499634    0.81999999    2.40000010
   14.08333302  172.30599976    0.81999999    2.40000010
   14.08916664  172.30599976    0.80000001    2.40000010
   14.09333324  156.05700684    0.80000001    2.40000010
   14.09638882  153.49600220    0.80000001    2.40000010
   14.09972191  151.70500183    0.80000001    2.40000010
   14.10305595  143.75500488    0.80000001    2.40000010
   14.10527802  142.26899719    0.80000001    2.40000010
   14.10666752  145.05799866    0.79000002    2.40000010
   14.11000061  139.71200562    0.79000002    2.40000010
   14.11305618  139.17199707    0.80000001    2.40000010
   14.11638927  147.54499817    0.80000001    2.40000010
   14.11972237  119.58699799    0.80000001    2.40000010
   14.12277794  137.13099670    0.79000002    2.40000010
   14.12611103  136.09700012    0.79000002    2.40000010
   14.13194466  136.09700012    0.80000001    2.40000010
   14.13611126  141.26199341    0.79000002    2.40000010
   14.13888836  138.21000671    0.80000001    2.40000010
   14.13972187  145.80299377    0.79000002    2.40000010
   14.14305496  139.15699768    0.79000002    2.42000008
   14.14638901  136.09899902    0.79000002    2.40000010
   14.14944458  137.32600403    0.79000002    2.42000008
   14.15277767  132.70700073    0.79000002    2.42000008
   14.15611076  122.70999908    0.79000002    2.42000008
   14.15916634  132.49099731    0.79000002    2.42000008
   14.16249943  121.45300293    0.79000002    2.40000010
   14.16555500  128.46299744    0.81999999    2.42000008
   14.16888905  123.83699799    0.83999997    2.40000010
   14.17500019  123.83699799    0.83999997    2.42000008
   14.17888927  128.14999390    0.83999997    2.42000008
   14.18222237  116.46499634    0.81999999    2.42000008
   14.18555546  127.24099731    0.76999998    2.42000008
   14.18861103  116.77200317    0.76999998    2.42000008
   14.19194412  127.06400299    0.76999998    2.42000008
   14.19527817  117.14600372    0.75000000    2.42000008
   14.19833374  118.25800323    0.75000000    2.42000008
   14.20166683  130.88499451    0.75000000    2.42000008
   14.20499992  118.72299957    0.75000000    2.42000008
   14.20583344  127.06999969    0.75000000    2.42000008
   14.20833302  120.29799652    0.75000000    2.42000008
   14.21166611  128.22599792    0.75000000    2.42000008
   14.21777725  128.22599792    0.75000000    2.42000008
   14.22194386  115.34799957    0.75000000    2.44000006
   14.22499943  138.91999817    0.75000000    2.42000008
   14.22833252  118.96700287    0.75000000    2.42000008
   14.23166656  133.84599304    0.75000000    2.42000008
   14.23472214  119.84799957    0.75000000    2.42000008
   14.23805618  109.46499634    0.75000000    2.42000008
   14.23916721  108.83999634    0.75000000    2.42000008
   14.24138927  115.30799866    0.73000002    2.42000008
   14.24472237  120.05599976    0.75000000    2.44000006
   14.24805546  125.25399780    0.73000002    2.44000006
   14.25111103  127.29000092    0.73000002    2.44000006
   14.25444412  130.68699646    0.73000002    2.44000006
   14.26055527  130.68699646    0.73000002    2.42000008
   14.26472187  132.63099670    0.75000000    2.42000008
   14.28194427  152.66299438    0.73000002    2.44000006
   14.28472233  160.69599915    0.73000002    2.44000006
   14.28777790  148.53700256    0.73000002    2.44000006
   14.29111195  155.31799316    0.75000000    2.44000006
   14.29444504  150.00700378    0.75000000    2.42000008
   14.29750061  130.85699463    0.73000002    2.42000008
   14.30361176  130.85699463    0.75000000    2.44000006
   14.30777836  169.22999573    0.75000000    2.44000006
   14.31083393  176.45899963    0.73000002    2.44000006
   14.31416702  161.57899475    0.73000002    2.44000006
   14.31527805  164.89300537    0.73000002    2.42000008
   14.31777763  156.84300232    0.73000002    2.42000008
   14.32111073  162.30400085    0.73000002    2.44000006
   14.32416630  187.30599976    0.73000002    2.44000006
   14.32750034  168.18099976    0.73000002    2.44000006
   14.33055592  157.19900513    0.73000002    2.44000006
   14.33388901  158.06700134    0.73000002    2.44000006
   14.33722210  165.42900085    0.73000002    2.44000006
   14.34027767  141.39999390    0.73000002    2.44000006
   14.34638882  141.39999390    0.70999998    2.44000006
   14.35055637  147.92599487    0.70999998    2.44000006
   14.35361195  153.52699280    0.70999998    2.44000006
   14.35694504  142.64100647    0.70999998    2.44000006
   14.36027813  149.58999634    0.70999998    2.44000006
   14.36333370  149.79400635    0.70999998    2.42000008
   14.36666679  145.39700317    0.70999998    2.44000006
   14.36972237  133.53399658    0.70999998    2.44000006
   14.37305546  141.09599304    0.70999998    2.44000006
   14.37638855  132.43200684    0.70999998    2.44000006
   14.37944412  137.90800476    0.70999998    2.44000006
   14.38194466  137.49299622    0.69000000    2.46000004
   14.38305569  128.08500671    0.69000000    2.46000004
   14.38916683  128.08500671    0.70999998    2.44000006
   14.39333344  140.46200562    0.69000000    2.46000004
   14.39666653  119.80300140    0.70999998    2.44000006
   14.39972210  131.33299255    0.69000000    2.46000004
   14.40305519  135.61599731    0.69000000    2.46000004
   14.40611076  138.92199707    0.70999998    2.46000004
   14.40944386  145.33799744    0.69000000    2.46000004
   14.41277695  139.71299744    0.70999998    2.46000004
   14.41527748  146.48300171    0.70999998    2.46000004
   14.41638851  160.60000610    0.70999998    2.46000004
   14.41944504  160.56199646    0.70999998    2.46000004
   14.42277813  133.18800354    0.70999998    2.46000004
   14.42611122  144.75000000    0.70999998    2.46000004
   14.43194485  144.75000000    0.70999998    2.46000004
   14.43611145  142.81900024    0.70999998    2.46000004
   14.43944454  133.03199768    0.70999998    2.46000004
   14.44250011  150.27799988    0.70999998    2.46000004
   14.44583321  135.61000061    0.70999998    2.46000004
   14.44888878  160.38099670    0.70999998    2.46000004
   14.44944477  144.03700256    0.70999998    2.46000004
   14.45277786  145.28900146    0.70999998    2.46000004
   14.45611095  156.62500000    0.70999998    2.44000006
   14.45916653  147.16099548    0.70999998    2.46000004
   14.46249962  141.55000305    0.69000000    2.46000004
   14.46583271  170.72599792    0.69000000    2.46000004
   14.46888828  125.72200012    0.69000000    2.46000004
   14.47499943  125.72200012    0.69000000    2.46000004
   14.47888851  147.24000549    0.70999998    2.46000004
   14.48222160  142.88299561    0.69000000    2.46000004
   14.48249912  155.36199951    0.69000000    2.46000004
   14.48583317  144.34199524    0.69000000    2.46000004
   14.48916721  149.35200500    0.70999998    2.46000004
   14.49222279  134.24699402    0.70999998    2.46000004
   14.49555588  133.14399719    0.70999998    2.46000004
   14.49861145  133.32400513    0.70999998    2.46000004
   14.50194454  132.06300354    0.69000000    2.46000004
   14.50527763  130.83299255    0.70999998    2.46000004
   14.50833321  127.90100098    0.70999998    2.46000004
   14.51166630  125.38700104    0.70999998    2.46000004
   14.51777744  125.38700104    0.69000000    2.46000004
   14.52194405  124.53800201    0.69000000    2.46000004
   14.52499962  128.87899780    0.69000000    2.46000004
   14.52833271  131.47399902    0.69000000    2.46000004
   14.53138828  128.22300720    0.69000000    2.46000004
   14.53472233  128.28700256    0.69000000    2.46000004
   14.53805637  119.15000153    0.67000002    2.46000004
   14.54138947  128.88600159    0.69000000    2.46000004
   14.54444504  134.33200073    0.69000000    2.46000004
   14.54777813  126.48500061    0.69000000    2.46000004
   14.54888916  126.17700195    0.69000000    2.48000002
   14.55138874  122.28099823    0.69000000    2.48000002
   14.55444431  122.67900085    0.69000000    2.46000004
   14.56055546  122.67900085    0.67000002    2.46000004
   14.56472206  126.49199677    0.67000002    2.46000004
   14.56805515  126.79000092    0.67000002    2.46000004
   14.57138920  123.43199921    0.67000002    2.46000004
   14.57444477  134.82499695    0.67000002    2.46000004
   14.57777786  122.58499908    0.67000002    2.46000004
   14.58083344  117.32099915    0.69000000    2.46000004
   14.58222198  123.35800171    0.67000002    2.46000004
   14.58472157  130.51400757    0.67000002    2.46000004
   14.58805561  121.73200226    0.67000002    2.46000004
   14.59111118  117.19899750    0.67000002    2.48000002
   14.59444427  126.84799957    0.69000000    2.46000004
   14.59777737  118.89399719    0.69000000    2.46000004
   14.60333347  118.89399719    0.67000002    2.46000004
   14.60750008  132.79200745    0.67000002    2.46000004
   14.61083412  127.11900330    0.67000002    2.46000004
   14.61388969  121.25299835    0.67000002    2.46000004
   14.61555576  130.53599548    0.67000002    2.48000002
   14.61777782  127.56199646    0.67000002    2.48000002
   14.62083340  116.10800171    0.67000002    2.46000004
   14.62416649  138.21299744    0.67000002    2.46000004
   14.62722206  112.90899658    0.67000002    2.46000004
   14.63055611  125.36699677    0.67000002    2.48000002
   14.63388920  116.11699677    0.67000002    2.46000004
   14.63694477  116.91600037    0.67000002    2.46000004
   14.64027786  110.69100189    0.69000000    2.48000002
   14.64611053  110.69100189    0.67000002    2.48000002
   14.65027714  112.93000031    0.69000000    2.48000002
   14.65361118  117.69699860    0.69000000    2.48000002
   14.65694427  111.70200348    0.67000002    2.48000002
   14.65999985  112.14900208    0.69000000    2.48000002
   14.66333294  115.49700165    0.67000002    2.48000002
   14.66638851  106.95700073    0.69000000    2.46000004
   14.66972256  103.29100037    0.69000000    2.48000002
   14.67305565  117.52600098    0.70999998    2.48000002
   14.67611122  118.84300232    0.70999998    2.48000002
   14.67944431  118.03700256    0.73000002    2.48000002
   14.68222237  124.50900269    0.73000002    2.46000004
   14.68305588  126.60900116    0.73000002    2.46000004
   14.68916702  126.60900116    0.76999998    2.48000002
   14.69333363  128.41200256    0.76999998    2.46000004
   14.69638920  149.01800537    0.79000002    2.48000002
   14.69972229  178.18600464    0.79000002    2.48000002
   14.70277786  149.45199585    0.79000002    2.48000002
   14.70611095  197.88499451    0.76999998    2.48000002
   14.70944405  177.61399841    0.76999998    2.48000002
   14.71249962  122.61000061    0.76999998    2.48000002
   14.71555519  167.99899292    0.76999998    2.48000002
   14.71638870  142.64799500    0.76999998    2.48000002
   14.71944427  105.50499725    0.76999998    2.48000002
   14.72277737  138.68899536    0.75000000    2.46000004
   14.72583294  118.71900177    0.75000000    2.48000002
   14.73194408  118.71900177    0.73000002    2.48000002
   14.73611164  142.90699768    0.73000002    2.48000002
   14.73916721  133.77499390    0.73000002    2.50000000
   14.74250031  117.66100311    0.73000002    2.50000000
   14.74583340  113.48500061    0.73000002    2.50000000
   14.74888897  117.69999695    0.70999998    2.48000002
   14.74944496  127.90699768    0.70999998    2.48000002
   14.75249958  107.97599792    0.70999998    2.48000002
   14.75583363  115.56900024    0.69000000    2.48000002
   14.75888920  111.71900177    0.69000000    2.48000002
   14.76222229  120.19400024    0.69000000    2.48000002
   14.76555538  121.74600220    0.67000002    2.48000002
   14.76861095  113.29100037    0.67000002    2.48000002
   14.77472210  113.29100037    0.67000002    2.48000002
   14.77888870  105.73799896    0.64999998    2.48000002
   14.78222179  113.19400024    0.64999998    2.48000002
   14.78277779  111.41300201    0.64999998    2.48000002
   14.78583336  111.93599701    0.64999998    2.48000002
   14.78916740  111.84500122    0.64999998    2.48000002
   14.79222298  124.58499908    0.64999998    2.48000002
   14.79555607  119.82800293    0.64999998    2.50000000
   14.79888916  115.93199921    0.64999998    2.48000002
   14.80222225  115.88700104    0.64999998    2.48000002
   14.80527782  114.05400085    0.64999998    2.50000000
   14.80861092  119.00299835    0.64999998    2.50000000
   14.81194496  121.78500366    0.64999998    2.50000000
   14.81750011  121.78500366    0.64999998    2.48000002
   14.82166672  116.28500366    0.64999998    2.48000002
   14.82499981  125.93399811    0.64999998    2.50000000
   14.82833290  117.19400024    0.64999998    2.50000000
   14.83138847  121.86499786    0.64999998    2.50000000
   14.83472157  114.83799744    0.64999998    2.50000000
   14.83777714  121.51399994    0.64999998    2.50000000
   14.84111118  122.92400360    0.64999998    2.48000002
   14.84444427  122.07599640    0.64999998    2.50000000
   14.84749985  126.28800201    0.64999998    2.50000000
   14.84916592  126.91699982    0.64999998    2.50000000
   14.85111141  112.59400177    0.64999998    2.48000002
   14.85444450  113.85500336    0.64999998    2.48000002
   14.86055565  113.85500336    0.64999998    2.50000000
   14.86472225  101.50099945    0.63000000    2.50000000
   14.86777782  106.31800079    0.63000000    2.50000000
   14.87111092  100.16400146    0.63000000    2.50000000
   14.87416649   93.74400330    0.63000000    2.50000000
   14.87750053   97.80319977    0.63000000    2.50000000
   14.88083363  101.54100037    0.63000000    2.50000000
   14.88277817  104.21099854    0.63000000    2.50000000
   14.88444424   99.51619720    0.63000000    2.50000000
   14.88777733  105.35199738    0.63000000    2.50000000
   14.89083290  105.16699982    0.61000001    2.50000000
   14.89416695  112.14199829    0.61000001    2.50000000
   14.89750004  117.09200287    0.61000001    2.50000000
   14.90333271  117.09200287    0.61000001    2.48000002
   14.90749931  126.74299622    0.61000001    2.50000000
   14.91055489  111.45300293    0.63000000    2.50000000
   14.91388893  112.76699829    0.63000000    2.50000000
   14.91611099  106.76799774    0.63000000    2.50000000
   14.91777802  115.60900116    0.61000001    2.50000000
   14.92111111  109.67500305    0.61000001    2.50000000
   14.92444515  108.40000153    0.61000001    2.50000000
   14.92750072  103.57099915    0.61000001    2.50000000
   14.93083382  105.44899750    0.61000001    2.50000000
   14.93416691  101.02200317    0.61000001    2.50000000
   14.93722248  106.47200012    0.61000001    2.50000000
   14.94055557  106.20200348    0.63000000    2.50000000
   14.94611073  106.20200348    0.61000001    2.50000000
   14.95027733  110.76999664    0.61000001    2.50000000
   14.95361137  116.70899963    0.61000001    2.50000000
   14.95666695  111.33100128    0.61000001    2.51999998
   14.96000004  117.16200256    0.63000000    2.51999998
   14.96333313  110.83399963    0.63000000    2.51999998
   14.96638870  112.62899780    0.58999997    2.50000000
   14.96972179  113.34999847    0.61000001    2.50000000
   14.97277737  112.69100189    0.61000001    2.50000000
   14.97611046  108.35399628    0.58999997    2.50000000
   14.97944355  110.83200073    0.58999997    2.50000000
   14.98249912  122.76300049    0.58999997    2.50000000
   14.98305511  109.59899902    0.61000001    2.50000000
   14.98888874  109.59899902    0.58999997    2.50000000
   14.99305534  102.77899933    0.58999997    2.51999998
   14.99638939  101.40100098    0.58999997    2.51999998
   14.99972248  107.56400299    0.58999997    2.51999998
   15.00277805  106.45600128    0.58999997    2.50000000
   15.00611115  111.48300171    0.58999997    2.50000000
   15.00944424   98.87120056    0.61000001    2.50000000
   15.01249981  107.57700348    0.61000001    2.50000000
   15.01583290  104.17800140    0.61000001    2.50000000
   15.01638889  100.11699677    0.61000001    2.50000000
   15.01944447  100.71900177    0.58999997    2.50000000
   15.02250004  106.26499939    0.61000001    2.50000000
   15.02583313  114.49500275    0.58999997    2.50000000
   15.03194427  114.49500275    0.58999997    2.50000000
   15.03583336  104.64800262    0.58999997    2.50000000
   15.03916740  111.02600098    0.58999997    2.50000000
   15.04250050  110.71299744    0.58999997    2.51999998
   15.04555607  108.74099731    0.58999997    2.51999998
   15.04888916  117.56600189    0.58999997    2.50000000
   15.04972267  123.30100250    0.58999997    2.51999998
   15.05249977  110.82499695    0.58999997    2.51999998
   15.05555534  116.48200226    0.58999997    2.51999998
   15.05888939  124.54100037    0.58999997    2.50000000
   15.06222248  118.91400146    0.58999997    2.51999998
   15.06527805  124.84700012    0.58999997    2.50000000
   15.06861115  115.69300079    0.58999997    2.51999998
   15.07472229  115.69300079    0.58999997    2.51999998
   15.07888889  113.11299896    0.58999997    2.50000000
   15.08194447  107.14199829    0.58999997    2.50000000
   15.08305550  105.97499847    0.58999997    2.50000000
   15.08583260  112.04399872    0.58999997    2.51999998
   15.08888817  105.33599854    0.61000001    2.50000000
   15.09222221  107.25900269    0.61000001    2.50000000
   15.09555531  104.08999634    0.58999997    2.51999998
   15.09861088  114.07199860    0.58999997    2.51999998
   15.10194492  107.72699738    0.58999997    2.51999998
   15.10527802  110.42600250    0.58999997    2.51999998
   15.10833359  115.22499847    0.58999997    2.50000000
   15.11166668  113.32800293    0.58999997    2.51999998
   15.11750031  113.32800293    0.58999997    2.50000000
   15.12166691  121.62000275    0.58999997    2.51999998
   15.12500000  117.53299713    0.58999997    2.51999998
   15.12805557  126.19100189    0.58999997    2.51999998
   15.13138866  122.70899963    0.58999997    2.51999998
   15.13472176  111.02899933    0.56999999    2.51999998
   15.13777733  115.27799988    0.58999997    2.51999998
   15.14111137  122.41400146    0.58999997    2.50000000
   15.14444447  122.21700287    0.58999997    2.51999998
   15.14750004  124.76399994    0.58999997    2.51999998
   15.14972210  120.67800140    0.58999997    2.51999998
   15.15111065  121.13400269    0.58999997    2.50000000
   15.15444374  111.73200226    0.58999997    2.50000000
   15.16055489  111.73200226    0.58999997    2.51999998
   15.16444397  121.80500031    0.58999997    2.51999998
   15.16777802  118.94000244    0.58999997    2.51999998
   15.17111111  112.00199890    0.58999997    2.51999998
   15.17416668  125.18599701    0.58999997    2.51999998
   15.17750072  106.09999847    0.61000001    2.50000000
   15.18083382  121.16600037    0.58999997    2.51999998
   15.18305588  110.32800293    0.58999997    2.51999998
   15.18444443  112.72100067    0.58999997    2.51999998
   15.18777752  116.53299713    0.58999997    2.51999998
   15.19083309  113.89900208    0.58999997    2.53999996
   15.19416714  119.91500092    0.58999997    2.51999998
   15.19722271  110.08999634    0.58999997    2.53999996
   15.20333290  110.08999634    0.61000001    2.51999998
   15.20749950  105.91699982    0.61000001    2.51999998
   15.21055508  113.26200104    0.58999997    2.51999998
   15.21388912  125.28399658    0.58999997    2.51999998
   15.21638870  101.93000031    0.58999997    2.51999998
   15.21749973  123.62400055    0.58999997    2.51999998
   15.22083282  123.19899750    0.58999997    2.51999998
   15.22388840  102.89600372    0.58999997    2.51999998
   15.22722149  109.68900299    0.58999997    2.51999998
   15.23027706  111.83799744    0.58999997    2.51999998
   15.23361111  109.99700165    0.58999997    2.51999998
   15.23694515  110.82499695    0.58999997    2.51999998
   15.24000072  121.11199951    0.56999999    2.51999998
   15.24611092  121.11199951    0.56999999    2.51999998
   15.25027752  110.05599976    0.56999999    2.51999998
   15.25333309  116.31199646    0.56999999    2.51999998
   15.25666714  120.10299683    0.56999999    2.51999998
   15.26000023  111.46199799    0.56999999    2.51999998
   15.26305580  108.94200134    0.56999999    2.51999998
   15.26638889  123.29900360    0.58999997    2.51999998
   15.26972198  117.47299957    0.58999997    2.51999998
   15.27277756   99.27850342    0.56999999    2.51999998
   15.27611065  115.43000031    0.56999999    2.50000000
   15.27916622  109.80500031    0.56999999    2.51999998
   15.28249931  106.99299622    0.56999999    2.51999998
   15.29944515  111.03399658    0.56999999    2.51999998
   15.30361176  111.03399658    0.56999999    2.51999998
   15.30777836  109.79100037    0.56999999    2.51999998
   15.31111145  104.30300140    0.58999997    2.53999996
   15.31416702  122.29199982    0.56999999    2.51999998
   15.31750011  110.71700287    0.56999999    2.51999998
   15.32055569  116.01799774    0.56999999    2.51999998
   15.32388878  113.93900299    0.56999999    2.51999998
   15.32722187  124.75900269    0.56999999    2.53999996
   15.33027744  126.56500244    0.56999999    2.51999998
   15.33277798  126.07599640    0.56999999    2.51999998
   15.33388901  135.16600037    0.56999999    2.51999998
   15.33722210  131.71699524    0.58999997    2.53999996
   15.34055519  129.94500732    0.58999997    2.51999998
   15.34638882  129.94500732    0.56999999    2.51999998
   15.35055637  134.84100342    0.56999999    2.51999998
   15.35388947  159.01699829    0.56999999    2.51999998
   15.35722256  153.27299500    0.56999999    2.51999998
   15.36027813  130.35499573    0.56999999    2.53999996
   15.36361122  132.77099609    0.56999999    2.53999996
   15.36611176  126.73600006    0.58999997    2.51999998
   15.36750031  122.20800018    0.58999997    2.51999998
   15.37055588  124.76300049    0.58999997    2.53999996
   15.37388897  137.10400391    0.58999997    2.53999996
   15.37694454  129.45500183    0.64999998    2.51999998
   15.38027763  139.78100586    0.75000000    2.51999998
   15.38361073  130.21200562    0.75000000    2.51999998
   15.38944435  130.21200562    0.89999998    2.51999998
   15.39333344  140.88400269    0.89999998    2.51999998
   15.39666653  148.95199585    0.92000002    2.51999998
   15.39944458  112.41000366    0.92000002    2.51999998
   15.39999962  132.47999573    0.92000002    2.51999998
   15.40333271  130.21400452    0.94000000    2.51999998
   15.40666676  128.36000061    0.94000000    2.51999998
   15.40972137  114.66400146    0.95999998    2.51999998
   15.41305542  121.51499939    0.95999998    2.51999998
   15.41638851  126.65000153    0.95999998    2.51999998
   15.41944504  123.21299744    0.95999998    2.51999998
   15.42277813  123.68199921    0.98000002    2.51999998
   15.42583370  119.66600037    1.05999994    2.51999998
   15.43222237  119.66600037    1.21000004    2.51999998
   15.43638897  112.69499969    1.25000000    2.51999998
   15.43944454  110.61499786    1.30999994    2.51999998
   15.44277763  113.30599976    1.30999994    2.51999998
   15.44611073  112.41799927    1.28999996    2.51999998
   15.44916630  112.31099701    1.28999996    2.51999998
   15.45249939  112.73200226    1.33000004    2.51999998
   15.45555496  118.51599884    1.34000003    2.51999998
   15.45888901  119.57700348    1.41999996    2.51999998
   15.46222210  122.35399628    1.44000006    2.51999998
   15.46527767  107.87899780    1.44000006    2.51999998
   15.46722221  119.07399750    1.51999998    2.51999998
   15.46916580  109.79699707    1.51999998    2.51999998
   15.47499943  109.79699707    1.55999994    2.51999998
   15.47916603  115.53199768    1.53999996    2.51999998
   15.48249912  125.83200073    1.50000000    2.51999998
   15.48555565  121.88999939    1.44000006    2.51999998
   15.48888874  111.53399658    1.38000000    2.51999998
   15.49194431  120.49500275    1.34000003    2.51999998
   15.49527836  120.57700348    1.30999994    2.51999998
   15.49861145  118.73300171    1.30999994    2.51999998
   15.50055599  124.34600067    1.30999994    2.51999998
   15.50222206  124.66999817    1.30999994    2.51999998
   15.50527763  131.21600342    1.25000000    2.51999998
   15.50861073  144.05299377    1.19000006    2.51999998
   15.51166630  131.51300049    1.11000001    2.53999996
   15.51777744  131.51300049    1.03999996    2.53999996
   15.52194405  128.94599915    1.00000000    2.53999996
   15.52527714  136.84199524    0.95999998    2.51999998
   15.52833271  128.38999939    0.92000002    2.51999998
   15.53166676  115.71499634    0.89999998    2.53999996
   15.53416729  118.57399750    0.86000001    2.53999996
   15.53527832  116.51499939    0.86000001    2.53999996
   15.53861141  116.87200165    0.81999999    2.53999996
   15.54166698  111.48500061    0.86000001    2.53999996
   15.54500008  126.34700012    0.94000000    2.51999998
   15.54833412  125.44999695    0.94000000    2.51999998
   15.55138874  114.51499939    0.94000000    2.53999996
   15.55472279  120.84300232    0.98000002    2.53999996
   15.56083393  120.84300232    0.98000002    2.51999998
   15.56472206   82.71810150    0.94000000    2.53999996
   15.56750011  100.37699890    0.94000000    2.53999996
   15.56833363  107.78399658    0.92000002    2.53999996
   15.57166672  120.54499817    0.92000002    2.53999996
   15.57472229  104.12400055    0.92000002    2.53999996
   15.57805538  115.85800171    0.92000002    2.53999996
   15.58138847  116.98699951    0.89999998    2.53999996
   15.58444405  114.67900085    0.89999998    2.53999996
   15.58777714  120.91200256    0.92000002    2.55999994
   15.59111118  128.39799500    0.89999998    2.53999996
   15.59416676  106.91500092    0.94000000    2.51999998
   15.59749985  111.39299774    0.95999998    2.53999996
   15.60361195  111.39299774    1.00000000    2.53999996
   15.60777855  102.05799866    1.00000000    2.53999996
   15.61083412  115.97399902    0.98000002    2.53999996
   15.61416721  108.74299622    0.94000000    2.51999998
   15.61750031  105.88600159    0.94000000    2.51999998
   15.62083340  102.94200134    0.94000000    2.53999996
   15.62388897  105.07499695    0.94000000    2.53999996
   15.62722206  102.30000305    0.94000000    2.53999996
   15.63055611   97.76550293    0.94000000    2.53999996
   15.63361073   99.32569885    0.94000000    2.53999996
   15.63444424  108.74299622    0.94000000    2.53999996
   15.63749981   96.00920105    0.92000002    2.51999998
   15.64055538   91.08129883    0.92000002    2.53999996
   15.64638901   91.08129883    0.88000000    2.51999998
   15.65055561  108.30500031    0.86000001    2.53999996
   15.65388870  118.01000214    0.86000001    2.53999996
   15.65694427  121.48600006    0.86000001    2.53999996
   15.66027737  109.48500061    0.83999997    2.53999996
   15.66361046  122.79900360    0.83999997    2.53999996
   15.66694450  124.17500305    0.81999999    2.53999996
   15.66777802  110.68299866    0.81999999    2.53999996
   15.67055607  109.19999695    0.81999999    2.53999996
   15.67361164  102.99099731    0.81999999    2.53999996
   15.67694473  110.96199799    0.83999997    2.53999996
   15.68027782  105.59300232    0.83999997    2.53999996
   15.68333340  107.00599670    0.86000001    2.53999996
   15.68916702  107.00599670    0.86000001    2.51999998
   15.69333363  111.45700073    0.86000001    2.53999996
   15.69666672  106.16400146    0.81999999    2.53999996
   15.69972229   98.75260162    0.81999999    2.53999996
   15.70138836  112.39499664    0.79000002    2.53999996
   15.70361137  108.29399872    0.79000002    2.53999996
   15.70666695  110.04399872    0.76999998    2.53999996
   15.71000004  103.60500336    0.79000002    2.53999996
   15.71333313  108.04299927    0.76999998    2.53999996
   15.71638870  116.09100342    0.73000002    2.53999996
   15.71972179  117.75399780    0.73000002    2.53999996
   15.72305489  111.57599640    0.73000002    2.53999996
   15.72611046  109.16899872    0.70999998    2.53999996
   15.73222160  109.16899872    0.67000002    2.53999996
   15.73611164  101.80500031    0.67000002    2.53999996
   15.73944473  106.22599792    0.64999998    2.53999996
   15.74277782  106.99500275    0.64999998    2.53999996
   15.74583340   98.33820343    0.64999998    2.55999994
   15.74916649   95.75180054    0.67000002    2.53999996
   15.75249958  108.51899719    0.70999998    2.53999996
   15.75555515   96.99199677    0.70999998    2.53999996
   15.75888920   98.94550323    0.70999998    2.53999996
   15.76194477   98.84449768    0.69000000    2.53999996
   15.76527786   98.59100342    0.69000000    2.53999996
   15.76805496   99.75789642    0.70999998    2.53999996
   15.76888847   95.44219971    0.70999998    2.53999996
   15.77499962   95.44219971    0.67000002    2.55999994
   15.77916622   98.00319672    0.67000002    2.53999996
   15.78222179  100.29000092    0.67000002    2.53999996
   15.78555584   96.19860077    0.67000002    2.53999996
   15.78888893  115.84200287    0.69000000    2.53999996
   15.79194450  101.48100281    0.69000000    2.53999996
   15.79527855  104.66100311    0.67000002    2.53999996
   15.79861164  106.02300262    0.67000002    2.53999996
   15.80138874  105.26799774    0.64999998    2.55999994
   15.80194473  101.24600220    0.64999998    2.55999994
   15.80527782   94.40889740    0.64999998    2.53999996
   15.80861092   99.22239685    0.64999998    2.53999996
   15.81166649   85.39630127    0.61000001    2.53999996
   15.81777763   85.39630127    0.61000001    2.53999996
   15.82194424   94.77140045    0.61000001    2.53999996
   15.82527733   97.53510284    0.61000001    2.53999996
   15.82833290   93.53530121    0.61000001    2.53999996
   15.83166695   97.22399902    0.61000001    2.53999996
   15.83472157   94.78610229    0.61000001    2.53999996
   15.83500004   97.51959991    0.61000001    2.53999996
   15.83833313   95.85199738    0.63000000    2.53999996
   15.84166622   97.21600342    0.61000001    2.53999996
   15.84472179  102.51100159    0.61000001    2.53999996
   15.84805489   95.10970306    0.61000001    2.53999996
   15.85138893   96.93209839    0.61000001    2.53999996
   15.85444450  100.97299957    0.61000001    2.53999996
   15.86055565  100.97299957    0.61000001    2.53999996
   15.86472225  100.48400116    0.63000000    2.53999996
   15.86805534  103.70200348    0.63000000    2.53999996
   15.86861134  101.79299927    0.63000000    2.53999996
   15.87166691   97.76909637    0.63000000    2.53999996
   15.87500000   94.69999695    0.64999998    2.53999996
   15.87833309   95.58450317    0.64999998    2.53999996
   15.88138866   94.34390259    0.67000002    2.53999996
   15.88472176   94.22899628    0.67000002    2.53999996
   15.88777733   92.63770294    0.67000002    2.53999996
   15.89111137   85.16760254    0.67000002    2.53999996
   15.89444447   86.76139832    0.69000000    2.53999996
   15.89750004   94.20819855    0.69000000    2.53999996
   15.90333271   94.20819855    0.69000000    2.53999996
   15.90749931  101.58399963    0.69000000    2.53999996
   15.91083336   96.00440216    0.69000000    2.53999996
   15.91416645   97.44239807    0.70999998    2.53999996
   15.91722298  100.10399628    0.69000000    2.53999996
   15.92055607   98.56109619    0.69000000    2.53999996
   15.92388916   97.88140106    0.70999998    2.53999996
   15.92694473  105.71900177    0.73000002    2.53999996
   15.93027782   99.13790131    0.76999998    2.53999996
   15.93333340   92.31449890    0.80000001    2.53999996
   15.93472195   87.79570007    0.80000001    2.53999996
   15.93722248  103.74700165    0.79000002    2.53999996
   15.94027805   99.64859772    0.73000002    2.53999996
   15.94638920   99.64859772    0.70999998    2.53999996
   15.95055580   96.75569916    0.70999998    2.53999996
   15.95388889   99.90280151    0.70999998    2.55999994
   15.95694447   92.13320160    0.73000002    2.53999996
   15.96027756  101.62400055    0.75000000    2.53999996
   15.96333313   93.82240295    0.76999998    2.53999996
   15.96666622   93.72799683    0.76999998    2.53999996
   15.96805477  101.39099884    0.76999998    2.53999996
   15.97027779   97.66149902    0.76999998    2.55999994
   15.97333336   97.58339691    0.76999998    2.55999994
   15.97666645   98.73380280    0.75000000    2.55999994
   15.97972202   89.16010284    0.75000000    2.53999996
   15.98305511   95.18289948    0.75000000    2.55999994
   15.98916721   95.18289948    0.70999998    2.53999996
   15.99333382   94.21900177    0.69000000    2.53999996
   15.99666691   84.85459900    0.69000000    2.53999996
   15.99972248   90.72889709    0.69000000    2.53999996
   16.00166702   99.20249939    0.67000002    2.53999996
   16.00333405   88.02649689    0.67000002    2.53999996
   16.00666618   96.31770325    0.64999998    2.53999996
   16.01000023   90.42610168    0.63000000    2.55999994
   16.01305580   87.88480377    0.61000001    2.55999994
   16.01638794   90.41760254    0.61000001    2.53999996
   16.01972198   93.76039886    0.61000001    2.53999996
   16.02277756   90.79869843    0.58999997    2.55999994
   16.02611160   96.25370026    0.58999997    2.53999996
   16.03194427   96.25370026    0.56999999    2.53999996
   16.03610992   98.47889709    0.56999999    2.53999996
   16.03944397   91.04380035    0.61000001    2.55999994
   16.04249954   92.98960114    0.58999997    2.53999996
   16.04583359   94.10410309    0.56999999    2.53999996
   16.04916573   94.30829620    0.58999997    2.55999994
   16.05222130   99.75520325    0.64999998    2.55999994
   16.05555534   86.36530304    0.64999998    2.55999994
   16.05888748   84.95429993    0.67000002    2.53999996
   16.06194305   90.22299957    0.64999998    2.55999994
   16.06527710   92.42099762    0.64999998    2.53999996
   16.06833458   90.22810364    0.63000000    2.53999996
   16.06861115   97.51740265    0.63000000    2.53999996
   16.07500076   97.51740265    0.58999997    2.55999994
   16.07888985   93.99079895    0.58999997    2.55999994
   16.08222389   95.03189850    0.58999997    2.55999994
   16.08555603   87.43460083    0.61000001    2.53999996
   16.08861160   91.00000000    0.58999997    2.53999996
   16.09194565   92.72139740    0.56999999    2.53999996
   16.09527779   90.27729797    0.55000001    2.53999996
   16.09833336   80.94159698    0.55000001    2.55999994
   16.10166740   91.88809967    0.55000001    2.55999994
   16.10194397   91.58920288    0.52999997    2.53999996
   16.10527802   87.83930206    0.52999997    2.53999996
   16.10861206   85.85199738    0.55000001    2.53999996
   16.11166763   84.03800201    0.55000001    2.53999996
   16.11777878   84.03800201    0.55000001    2.53999996
   16.12194443   91.76039886    0.55000001    2.53999996
   16.12500000   85.44400024    0.55000001    2.55999994
   16.12833405   91.49559784    0.55000001    2.55999994
   16.13166618   91.78769684    0.55000001    2.55999994
   16.13472176   88.72550201    0.55000001    2.53999996
   16.13527679   92.05970001    0.55000001    2.53999996
   16.13861084   84.55069733    0.55000001    2.53999996
   16.14166641   88.42340088    0.55000001    2.55999994
   16.14500046   88.74299622    0.55000001    2.55999994
   16.14833260   94.55300140    0.55000001    2.55999994
   16.15138817   94.24729919    0.55000001    2.55999994
   16.15472221   86.90249634    0.55000001    2.55999994
   16.16055489   86.90249634    0.55000001    2.55999994
   16.16472244   90.35959625    0.55000001    2.53999996
   16.16805458   87.68759918    0.55000001    2.53999996
   16.16860962   89.38659668    0.55000001    2.53999996
   16.17166519   87.55310059    0.55000001    2.55999994
   16.17472076   84.29340363    0.55000001    2.55999994
   16.17805481   91.61969757    0.55000001    2.55999994
   16.18138885   88.07810211    0.55000001    2.55999994
   16.18444443   93.60980225    0.55000001    2.55999994
   16.18777657   91.17089844    0.55000001    2.55999994
   16.19111061   91.73889923    0.56999999    2.53999996
   16.19416618   95.58360291    0.55000001    2.55999994
   16.19749832   92.13369751    0.56999999    2.53999996
   16.20333481   92.13369751    0.56999999    2.53999996
   16.20750046   99.34010315    0.55000001    2.53999996
   16.21083450  104.38300323    0.55000001    2.53999996
   16.21389008   98.30329895    0.55000001    2.55999994
   16.21722221   87.23670197    0.55000001    2.55999994
   16.22055626   95.47149658    0.55000001    2.55999994
   16.22361183   92.09040070    0.55000001    2.55999994
   16.22694588   98.08809662    0.55000001    2.53999996
   16.23027802   91.93710327    0.55000001    2.53999996
   16.23333359  104.04100037    0.55000001    2.53999996
   16.23527718  102.81700134    0.55000001    2.53999996
   16.23694420  104.39399719    0.55000001    2.55999994
   16.23999977  101.61399841    0.61000001    2.55999994
   16.24638939  101.61399841    0.69000000    2.55999994
   16.25027847  104.64600372    0.69000000    2.55999994
   16.25361061  111.89099884    0.70999998    2.55999994
   16.25694466  113.60800171    0.73000002    2.53999996
   16.26000023  115.90299988    0.75000000    2.53999996
   16.26333427   99.74060059    0.76999998    2.53999996
   16.26666641   99.70210266    0.80000001    2.55999994
   16.26861000  101.43800354    0.80000001    2.55999994
   16.27027702  102.77700043    0.83999997    2.55999994
   16.27333260  111.03099823    0.83999997    2.55999994
   16.27666664  102.36299896    0.80000001    2.55999994
   16.28000069  105.92299652    0.75000000    2.55999994
   16.28305435   95.92350006    0.73000002    2.55999994
   16.28916550   95.92350006    0.67000002    2.55999994
   16.29333305  103.51599884    0.69000000    2.55999994
   16.29638863  113.83899689    0.67000002    2.55999994
   16.29972076  114.31400299    0.67000002    2.55999994
   16.31666756   94.36160278    0.64999998    2.53999996
   16.31972313  102.16600037    0.63000000    2.55999994
   16.32305717  113.76499939    0.63000000    2.55999994
   16.32611275  107.68800354    0.61000001    2.55999994
   16.33222389  107.68800354    0.63000000    2.55999994
   16.33638954  108.32700348    0.64999998    2.55999994
   16.33944511  101.14700317    0.64999998    2.55999994
   16.34277916  109.51200104    0.64999998    2.55999994
   16.34583473  111.13099670    0.64999998    2.55999994
   16.34916687  103.13899994    0.63000000    2.55999994
   16.35000038  111.87500000    0.63000000    2.55999994
   16.35277748  114.78700256    0.63000000    2.55999994
   16.35583305  110.47599792    0.63000000    2.53999996
   16.35916710  113.36199951    0.63000000    2.53999996
   16.36250114  126.34899902    0.63000000    2.55999994
   16.36555672  112.63400269    0.63000000    2.55999994
   16.36888885  112.86100006    0.63000000    2.55999994
   16.37500000  112.86100006    0.67000002    2.53999996
   16.37916756  128.04200745    0.67000002    2.55999994
   16.38222313  107.21700287    0.64999998    2.55999994
   16.38333321  109.23600006    0.64999998    2.55999994
   16.38611031  112.93800354    0.64999998    2.55999994
   16.38916588  115.57499695    0.63000000    2.55999994
   16.39249992  109.21099854    0.63000000    2.55999994
   16.39583397  114.41000366    0.63000000    2.55999994
   16.39888954  125.33599854    0.63000000    2.55999994
   16.40222168  130.16200256    0.61000001    2.55999994
   16.40555573  118.97000122    0.61000001    2.55999994
   16.40861130  127.26200104    0.58999997    2.55999994
   16.41194344  120.60700226    0.58999997    2.53999996
   16.41777802  120.60700226    0.56999999    2.55999994
   16.42194366  119.32800293    0.55000001    2.55999994
   16.42527771  111.86100006    0.55000001    2.55999994
   16.42833328  114.25299835    0.55000001    2.55999994
   16.43166542  126.62699890    0.55000001    2.57999992
   16.43499947  117.57299805    0.52999997    2.53999996
   16.43805504  121.43599701    0.52999997    2.55999994
   16.44138718  134.73599243    0.52999997    2.53999996
   16.44444275  122.00599670    0.52999997    2.55999994
   16.44777679  125.90299988    0.52999997    2.55999994
   16.45000076  114.87799835    0.52999997    2.55999994
   16.45138931  109.76699829    0.51999998    2.55999994
   16.45444489  100.82099915    0.51999998    2.55999994
   16.46055603  100.82099915    0.51999998    2.55999994
   16.46472359  100.49600220    0.52999997    2.55999994
   16.46805573  118.68599701    0.52999997    2.55999994
   16.47138977  123.50800323    0.51999998    2.55999994
   16.47444534  112.97799683    0.51999998    2.55999994
   16.47777748  121.57900238    0.52999997    2.55999994
   16.48083305  113.66000366    0.52999997    2.55999994
   16.48333359  120.66200256    0.52999997    2.55999994
   16.48472214  117.98500061    0.52999997    2.55999994
   16.48777771  125.46199799    0.52999997    2.55999994
   16.49111176  121.07800293    0.52999997    2.53999996
   16.49444389  134.58599854    0.52999997    2.53999996
   16.49749947  120.01599884    0.52999997    2.55999994
   16.50361061  120.01599884    0.52999997    2.55999994
   16.50749969  117.23899841    0.55000001    2.55999994
   16.51083374  116.92299652    0.52999997    2.55999994
   16.51416588  113.13400269    0.52999997    2.55999994
   16.51666641  115.83699799    0.52999997    2.55999994
   16.51777840  109.36499786    0.52999997    2.55999994
   16.52083397  105.95500183    0.52999997    2.55999994
   16.52416611  114.50399780    0.52999997    2.55999994
   16.52750015  118.35199738    0.52999997    2.55999994
   16.53055573  108.90599823    0.52999997    2.55999994
   16.53388786   99.99379730    0.55000001    2.55999994
   16.53694344  103.67400360    0.55000001    2.55999994
   16.54027748  104.95200348    0.55000001    2.55999994
   16.54638863  104.95200348    0.55000001    2.55999994
   16.55055428  101.06300354    0.55000001    2.55999994
   16.55388832   99.00980377    0.52999997    2.53999996
   16.55694389  103.66200256    0.52999997    2.55999994
   16.56027794  101.05200195    0.52999997    2.55999994
   16.56361008   93.83519745    0.52999997    2.55999994
   16.56666756  104.83300018    0.52999997    2.55999994
   16.57000160   95.20860291    0.52999997    2.55999994
   16.57333374  110.33300018    0.52999997    2.55999994
   16.57638931  111.55799866    0.55000001    2.53999996
   16.57972336  110.34300232    0.52999997    2.55999994
   16.58277893  104.72799683    0.52999997    2.55999994
   16.58333397   98.65640259    0.52999997    2.55999994
   16.58916664   98.65640259    0.52999997    2.55999994
   16.59333420   93.43640137    0.52999997    2.55999994
   16.59638977  109.70400238    0.51999998    2.53999996
   16.59972191  104.22100067    0.51999998    2.55999994
   16.60305595  119.28299713    0.51999998    2.55999994
   16.60611153  118.19899750    0.51999998    2.55999994
   16.60944557   98.82309723    0.51999998    2.55999994
   16.61277771  106.51200104    0.51999998    2.55999994
   16.61583328   94.64869690    0.52999997    2.53999996
   16.61666679  103.48000336    0.52999997    2.53999996
   16.61944389   87.65170288    0.52999997    2.53999996
   16.62277794  111.80300140    0.52999997    2.53999996
   16.62583351   93.81169891    0.51999998    2.55999994
   16.63194466   93.81169891    0.52999997    2.55999994
   16.63611031   87.01519775    0.51999998    2.55999994
   16.63944435  104.47299957    0.51999998    2.55999994
   16.64277840   86.87159729    0.51999998    2.55999994
   16.64583397   98.60600281    0.51999998    2.55999994
   16.64916611  101.11000061    0.52999997    2.55999994
   16.64999962   97.19020081    0.52999997    2.55999994
   16.65277672  103.56099701    0.52999997    2.55999994
   16.65583229  102.69899750    0.52999997    2.55999994
   16.65916634  105.83799744    0.52999997    2.55999994
   16.66250038   98.46820068    0.52999997    2.53999996
   16.66555595   95.13549805    0.52999997    2.53999996
   16.66888809   93.72489929    0.52999997    2.55999994
   16.67499924   93.72489929    0.52999997    2.55999994
   16.67888832  104.08000183    0.55000001    2.55999994
   16.68222237  110.06300354    0.55000001    2.55999994
   16.68333244  106.20600128    0.55000001    2.55999994
   16.68583298   99.49649811    0.55000001    2.55999994
   16.68916512  109.99700165    0.55000001    2.55999994
   16.69222069   90.27670288    0.55000001    2.55999994
   16.69555473   96.26660156    0.55000001    2.55999994
   16.69888878  105.57099915    0.55000001    2.55999994
   16.70222282  106.96299744    0.55000001    2.53999996
   16.70527840  110.11699677    0.58999997    2.55999994
   16.70861244  118.20899963    0.58999997    2.55999994
   16.71194458  110.00800323    0.55000001    2.53999996
   16.71777916  110.00800323    0.55000001    2.55999994
   16.72194481  118.38200378    0.55000001    2.55999994
   16.72500038  103.03900146    0.55000001    2.53999996
   16.72833443  105.08599854    0.55000001    2.55999994
   16.73166656  113.62200165    0.55000001    2.55999994
   16.73472214  110.30300140    0.55000001    2.55999994
   16.73805618   98.02259827    0.55000001    2.53999996
   16.74138832   94.68009949    0.55000001    2.55999994
   16.74444389  107.81500244    0.55000001    2.55999994
   16.74777794  101.72799683    0.55000001    2.53999996
   16.75000000   97.23680115    0.55000001    2.55999994
   16.75138855  102.87300110    0.55000001    2.55999994
   16.75472260  116.12599945    0.55000001    2.55999994
   16.76055527  116.12599945    0.55000001    2.53999996
   16.76472282  107.27700043    0.55000001    2.55999994
   16.76805496  106.98500061    0.55000001    2.55999994
   16.77111053  103.43299866    0.55000001    2.55999994
   16.77444458  109.78399658    0.55000001    2.55999994
   16.77750015  109.59300232    0.56999999    2.53999996
   16.78083229   99.18579865    0.56999999    2.55999994
   16.78333282  106.97000122    0.56999999    2.55999994
   16.78444481  107.61900330    0.56999999    2.55999994
   16.78777695  100.53800201    0.56999999    2.55999994
   16.79083252   97.43240356    0.56999999    2.55999994
   16.79416656   97.47450256    0.56999999    2.55999994
   16.79749870  105.57800293    0.56999999    2.55999994
   16.80333328  105.57800293    0.56999999    2.55999994
   16.80749893  112.63999939    0.58999997    2.55999994
   16.81083298  117.33799744    0.56999999    2.55999994
   16.81416512  112.01100159    0.58999997    2.53999996
   16.81666756   98.98560333    0.58999997    2.53999996
   16.81750107  104.63800049    0.58999997    2.55999994
   16.82083511  109.67099762    0.58999997    2.55999994
   16.82389069  101.06600189    0.56999999    2.55999994
   16.82722282  102.55699921    0.58999997    2.55999994
   16.83027840   99.57900238    0.58999997    2.53999996
   16.83361244   98.28659821    0.56999999    2.55999994
   16.83694458  102.16999817    0.56999999    2.55999994
   16.84000015  107.87599945    0.56999999    2.55999994
   16.84638977  107.87599945    0.56999999    2.55999994
   16.85027885  100.34300232    0.56999999    2.55999994
   16.85361099  105.90200043    0.56999999    2.55999994
   16.85694504   96.39119720    0.56999999    2.55999994
   16.86000061  102.89800262    0.58999997    2.55999994
   16.86333466  102.54100037    0.58999997    2.55999994
   16.86666679   99.39859772    0.56999999    2.55999994
   16.86972237  105.50199890    0.56999999    2.55999994
   16.87305641   89.91699982    0.56999999    2.55999994
   16.87611198   97.86940002    0.58999997    2.55999994
   16.87944412   93.91719818    0.56999999    2.53999996
   16.88277817   97.46260071    0.56999999    2.53999996
   16.88361168   97.47200012    0.58999997    2.55999994
   16.88916588   97.47200012    0.58999997    2.55999994
   16.89333344   98.94120026    0.58999997    2.55999994
   16.89638901   86.79000092    0.56999999    2.53999996
   16.89972115   96.05110168    0.58999997    2.55999994
   16.90277672  108.02600098    0.61000001    2.55999994
   16.90611076   90.72579956    0.61000001    2.55999994
   16.90944481  106.83799744    0.61000001    2.55999994
   16.91277695   97.35910034    0.61000001    2.53999996
   16.91583252   92.60639954    0.61000001    2.53999996
   16.91694450   91.98059845    0.61000001    2.53999996
   16.91944313  106.06900024    0.58999997    2.53999996
   16.92277718  101.62899780    0.63000000    2.53999996
   16.92583275   96.91609955    0.61000001    2.53999996
   16.93194389   96.91609955    0.58999997    2.53999996
   16.93610954  100.51499939    0.61000001    2.55999994
   16.93916512  100.64199829    0.61000001    2.53999996
   16.94249916  108.25199890    0.63000000    2.55999994
   16.94583321  103.15399933    0.64999998    2.53999996
   16.94888878  102.67800140    0.63000000    2.55999994
   16.95000076  108.51300049    0.63000000    2.55999994
   16.95250130  100.69100189    0.63000000    2.55999994
   16.95583344   96.15360260    0.61000001    2.55999994
   16.95888901  102.06800079    0.61000001    2.55999994
   16.96222305   95.29160309    0.58999997    2.55999994
   16.96555710   91.59639740    0.58999997    2.55999994
   16.96861076   97.56430054    0.61000001    2.53999996
   16.97472191   97.56430054    0.61000001    2.55999994
   16.97888947  106.83300018    0.61000001    2.55999994
   16.98222351  115.59600067    0.61000001    2.53999996
   16.98333359  125.31500244    0.61000001    2.53999996
   16.98583412  108.19799805    0.61000001    2.55999994
   16.98916626  122.29900360    0.61000001    2.55999994
   16.99222183  118.15200043    0.61000001    2.53999996
   16.99555588  133.97000122    0.63000000    2.53999996
   16.99888992  132.63999939    0.61000001    2.55999994
   17.00194359  111.85700226    0.61000001    2.55999994
   17.00527763  109.05899811    0.61000001    2.55999994
   17.00833321  109.93000031    0.61000001    2.55999994
   17.01166725  113.86900330    0.61000001    2.55999994
   17.01777840  113.86900330    0.63000000    2.55999994
   17.02166557  102.64299774    0.63000000    2.53999996
   17.02499962  107.85900116    0.63000000    2.55999994
   17.02833366  105.44499969    0.61000001    2.55999994
   17.03138924  100.29900360    0.61000001    2.53999996
   17.03472137  109.55799866    0.63000000    2.55999994
   17.03777695   86.26049805    0.63000000    2.55999994
   17.04111099   95.23120117    0.61000001    2.55999994
   17.04444313   92.50689697    0.63000000    2.55999994
   17.04749870   97.26100159    0.64999998    2.55999994
   17.05027771   97.48059845    0.63000000    2.53999996
   17.05111122   91.58190155    0.63000000    2.53999996
   17.05444336   94.15550232    0.63000000    2.55999994
   17.06055450   94.15550232    0.63000000    2.55999994
   17.06472206  106.95400238    0.63000000    2.55999994
   17.06777954  108.38700104    0.63000000    2.53999996
   17.07111168  111.85199738    0.81999999    2.53999996
   17.07444572  100.98899841    0.86000001    2.53999996
   17.07750130  146.60699463    0.83999997    2.53999996
   17.08083344  100.72399902    0.80000001    2.53999996
   17.08361244   97.82409668    0.80000001    2.55999994
   17.08444595   93.23040009    0.80000001    2.55999994
   17.08777809   98.29959869    0.94000000    2.55999994
   17.09083366  113.47299957    1.01999998    2.53999996
   17.09416771   99.33840179    1.01999998    2.55999994
   17.09749985   88.64019775    1.01999998    2.55999994
   17.10333443   88.64019775    1.01999998    2.55999994
   17.10750008   94.60749817    1.03999996    2.53999996
   17.11083412   98.38490295    0.89999998    2.53999996
   17.11388969   91.76000214    0.81999999    2.53999996
   17.11694527   93.30989838    0.80000001    2.55999994
   17.11750031   92.25610352    0.80000001    2.55999994
   17.12083435   94.53040314    0.81999999    2.53999996
   17.12416649   91.38050079    0.80000001    2.55999994
   17.12722206   97.36650085    0.79000002    2.55999994
   17.13055611   95.09619904    0.76999998    2.55999994
   17.13388824   93.21040344    0.76999998    2.55999994
   17.13694382   99.54109955    0.73000002    2.53999996
   17.14027786  102.03099823    0.70999998    2.53999996
   17.14611053  102.03099823    0.64999998    2.55999994
   17.15027809  102.10600281    0.67000002    2.53999996
   17.15361023  110.22399902    0.64999998    2.55999994
   17.15694427  120.72100067    0.64999998    2.53999996
   17.15999985  110.00000000    0.64999998    2.55999994
   17.16333389  111.46099854    0.64999998    2.53999996
   17.16666603  100.83100128    0.64999998    2.53999996
   17.16972160  109.98300171    0.64999998    2.55999994
   17.17305565  101.75099945    0.63000000    2.55999994
   17.17638779   99.46839905    0.64999998    2.53999996
   17.17972183  102.57700348    0.64999998    2.53999996
   17.18277740   99.67749786    0.64999998    2.55999994
   17.18361092   93.97440338    0.64999998    2.55999994
   17.18916512   93.97440338    0.67000002    2.53999996
   17.19305420  100.37000275    0.67000002    2.55999994
   17.19638824   94.99500275    0.67000002    2.55999994
   17.19972038   99.72270203    0.64999998    2.55999994
   17.20277786  110.58000183    0.67000002    2.53999996
   17.20611191   96.61360168    0.67000002    2.53999996
   17.20916748   97.16799927    0.67000002    2.53999996
   17.21250153   96.66410065    0.67000002    2.55999994
   17.21583366  105.05599976    0.67000002    2.53999996
   17.21694565  104.73899841    0.67000002    2.53999996
   17.21916771   98.69950104    0.67000002    2.53999996
   17.22249985   98.13649750    0.67000002    2.53999996
   17.22555542  109.98500061    0.69000000    2.53999996
   17.23194504  109.98500061    0.73000002    2.53999996
   17.23611069  110.78299713    0.70999998    2.55999994
   17.23944473  114.68199921    0.70999998    2.55999994
   17.24250031   97.09690094    0.70999998    2.53999996
   17.24583435   99.86450195    0.70999998    2.53999996
   17.24916649  106.64099884    0.70999998    2.51999998
   17.25027847  106.41400146    0.70999998    2.51999998
   17.25250053   97.60780334    0.70999998    2.51999998
   17.25583267  100.76200104    0.75000000    2.53999996
   17.25888824  108.45300293    0.76999998    2.53999996
   17.26222229  114.25099945    0.76999998    2.53999996
   17.26555634  109.92900085    0.75000000    2.55999994
   17.26861000   98.17700195    0.75000000    2.55999994
   17.27472115   98.17700195    0.69000000    2.53999996
   17.27888870  124.00099945    0.69000000    2.53999996
   17.28194427  111.79599762    0.69000000    2.53999996
   17.28361130  116.07499695    0.69000000    2.53999996
   17.28555489  108.75499725    0.69000000    2.53999996
   17.28888893  110.20099640    0.79000002    2.53999996
   17.29222107  115.98000336    0.79000002    2.53999996
   17.29527664  112.94100189    0.69000000    2.53999996
   17.29861069  112.22499847    0.79000002    2.53999996
   17.30194283  104.82199860    0.83999997    2.53999996
   17.30499840  107.93099976    0.83999997    2.53999996
   17.30833244  118.00199890    0.83999997    2.53999996
   17.31138802  101.86299896    0.86000001    2.53999996
   17.33388901  101.84899902    0.79000002    2.53999996
   17.33444595  100.28800201    0.79000002    2.53999996
   17.33750153  108.36599731    0.76999998    2.53999996
   17.34083366  109.23200226    0.75000000    2.53999996
   17.34416771  111.83999634    0.75000000    2.53999996
   17.34722328  103.31600189    0.73000002    2.53999996
   17.35027885  111.46299744    0.73000002    2.53999996
   17.35111237  108.59600067    0.73000002    2.53999996
   17.35416794  110.18199921    0.70999998    2.53999996
   17.36055565  110.18199921    0.70999998    2.53999996
   17.36472321  108.49500275    0.70999998    2.53999996
   17.36805534  136.08299255    0.70999998    2.53999996
   17.37138939  114.05100250    0.70999998    2.55999994
   17.37444496  112.75599670    0.69000000    2.53999996
   17.37777710  108.98300171    0.69000000    2.53999996
   17.38083267  114.12599945    0.70999998    2.53999996
   17.38361168  107.92900085    0.70999998    2.53999996
   17.38444519  115.46499634    0.70999998    2.53999996
   17.38777733  120.82399750    0.70999998    2.53999996
   17.39111137  103.44100189    0.73000002    2.53999996
   17.39416695  109.69400024    0.73000002    2.53999996
   17.39749908  117.54399872    0.73000002    2.53999996
   17.40333366  117.54399872    0.70999998    2.53999996
   17.40749931  115.56800079    0.70999998    2.53999996
   17.41083336  116.21199799    0.70999998    2.53999996
   17.41388893  104.47200012    0.70999998    2.53999996
   17.41694450  118.25299835    0.70999998    2.53999996
   17.41749954  102.34100342    0.70999998    2.53999996
   17.42083359  103.93199921    0.70999998    2.53999996
   17.42416573  121.46499634    0.70999998    2.53999996
   17.42722130  120.74700165    0.70999998    2.55999994
   17.43055534  116.00800323    0.70999998    2.53999996
   17.43361092  114.22200012    0.70999998    2.53999996
   17.43694305  111.51499939    0.73000002    2.53999996
   17.44027710  115.06099701    0.75000000    2.53999996
   17.44610977  115.06099701    0.75000000    2.53999996
   17.45027924  110.80799866    0.75000000    2.53999996
   17.45361137  105.72799683    0.73000002    2.51999998
   17.45666695  104.62400055    0.73000002    2.51999998
   17.46000099  106.06600189    0.73000002    2.53999996
   17.46333504  104.12999725    0.73000002    2.53999996
   17.46638870   97.49980164    0.73000002    2.53999996
   17.46972275  108.52600098    0.70999998    2.53999996
   17.47277832  110.84799957    0.70999998    2.53999996
   17.47611237  118.28700256    0.70999998    2.53999996
   17.47944450  106.20400238    0.69000000    2.53999996
   17.48250008  107.13300323    0.67000002    2.53999996
   17.48361206   99.65149689    0.67000002    2.53999996
   17.48888969   99.65149689    0.69000000    2.53999996
   17.49305534  124.47299957    0.67000002    2.53999996
   17.49638939  114.68299866    0.69000000    2.53999996
   17.49972153  107.30300140    0.69000000    2.53999996
   17.50277710  111.45300293    0.69000000    2.53999996
   17.50611115  110.32099915    0.69000000    2.53999996
   17.50916672  113.46199799    0.69000000    2.53999996
   17.51250076  109.41200256    0.69000000    2.53999996
   17.51583290  110.83799744    0.69000000    2.53999996
   17.51694489  110.75700378    0.69000000    2.53999996
   17.51916695  116.99800110    0.70999998    2.53999996
   17.52249908  121.52799988    0.70999998    2.53999996
   17.52583313  114.37899780    0.69000000    2.53999996
   17.53194427  114.37899780    0.73000002    2.53999996
   17.53610992  116.06199646    0.73000002    2.53999996
   17.53916550  112.17199707    0.73000002    2.53999996
   17.54249954  110.24600220    0.73000002    2.53999996
   17.54583359  112.02799988    0.73000002    2.53999996
   17.54888916  103.17700195    0.73000002    2.53999996
   17.55027771  109.70200348    0.73000002    2.53999996
   17.55277634  115.10900116    0.73000002    2.53999996
   17.55583191  109.32299805    0.73000002    2.53999996
   17.55916595  112.18599701    0.70999998    2.53999996
   17.56222153  117.85099792    0.70999998    2.53999996
   17.56555557  106.44699860    0.70999998    2.53999996
   17.56888962  110.17099762    0.70999998    2.53999996
   17.57472229  110.17099762    0.70999998    2.53999996
   17.57888985  115.10800171    0.70999998    2.53999996
   17.58194542  112.01000214    0.73000002    2.53999996
   17.58361244  112.62100220    0.73000002    2.53999996
   17.58555603   97.45890045    0.73000002    2.53999996
   17.58889008  108.08599854    0.70999998    2.53999996
   17.59222221  112.87999725    0.70999998    2.53999996
   17.59527779  101.45300293    0.70999998    2.51999998
   17.59861183  100.55200195    0.70999998    2.55999994
   17.60194397  109.01999664    0.70999998    2.55999994
   17.60499954  111.57800293    0.69000000    2.53999996
   17.60833359   99.03500366    0.70999998    2.53999996
   17.61138916  104.79299927    0.69000000    2.53999996
   17.61777878  104.79299927    0.69000000    2.53999996
   17.62194443  112.23400116    0.69000000    2.53999996
   17.62500000   93.75050354    0.69000000    2.53999996
   17.62833405  100.45600128    0.67000002    2.53999996
   17.63166618  112.85800171    0.67000002    2.53999996
   17.63472176  110.02100372    0.67000002    2.53999996
   17.63805580  107.00900269    0.67000002    2.53999996
   17.64111137  108.23000336    0.69000000    2.53999996
   17.64444351  102.95300293    0.69000000    2.53999996
   17.64777756   98.37020111    0.69000000    2.53999996
   17.65027809  117.57399750    0.69000000    2.53999996
   17.65138817   98.67459869    0.69000000    2.53999996
   17.65444374  106.63999939    0.67000002    2.53999996
   17.66027832  106.63999939    0.64999998    2.51999998
   17.66444397   95.67389679    0.64999998    2.53999996
   17.66777802  106.59999847    0.64999998    2.53999996
   17.67083359   99.42310333    0.64999998    2.53999996
   17.67416573  104.12300110    0.64999998    2.53999996
   17.67749977  106.31600189    0.64999998    2.53999996
   17.68055534  111.44300079    0.64999998    2.51999998
   17.68361092  110.55200195    0.64999998    2.51999998
   17.68444443  109.45500183    0.64999998    2.51999998
   17.68750000  112.90200043    0.67000002    2.53999996
   17.69083214  114.42700195    0.67000002    2.51999998
   17.69388771  111.32499695    0.67000002    2.51999998
   17.69722176  101.56099701    0.67000002    2.53999996
   17.70333481  101.56099701    0.64999998    2.53999996
   17.70750046   97.57900238    0.67000002    2.53999996
   17.71055603   85.51249695    0.64999998    2.51999998
   17.71389008  105.41799927    0.67000002    2.53999996
   17.71694565   91.80789948    0.67000002    2.53999996
   17.71722221  103.03500366    0.67000002    2.53999996
   17.72055626   97.77749634    0.64999998    2.51999998
   17.72389030  100.37899780    0.67000002    2.53999996
   17.72694588  109.32099915    0.67000002    2.53999996
   17.73027802   95.07440186    0.67000002    2.51999998
   17.73361206  103.49900055    0.67000002    2.51999998
   17.73666763  105.27600098    0.64999998    2.53999996
   17.73999977  108.77100372    0.67000002    2.51999998
   17.74611092  108.77100372    0.67000002    2.51999998
   17.75027847  107.34200287    0.67000002    2.51999998
   17.75055504  102.56500244    0.67000002    2.51999998
   17.75388908  105.33699799    0.67000002    2.51999998
   17.75722313  106.47000122    0.67000002    2.51999998
   17.76055527   90.87940216    0.67000002    2.51999998
   17.76361084   99.57379913    0.67000002    2.51999998
   17.76694489  102.99500275    0.67000002    2.51999998
   17.77000046   96.11859894    0.69000000    2.53999996
   17.77333260   94.68419647    0.70999998    2.51999998
   17.77666664  100.36199951    0.67000002    2.51999998
   17.77972221   97.05159760    0.67000002    2.51999998
   17.78305435   93.35109711    0.67000002    2.53999996
   17.78361130   95.37049866    0.67000002    2.53999996
   17.78888893   95.37049866    0.69000000    2.53999996
   17.79305458  105.61199951    0.69000000    2.51999998
   17.79638863   86.26909637    0.67000002    2.51999998
   17.79944420   96.69300079    0.69000000    2.53999996
   17.80277634   99.85070038    0.67000002    2.51999998
   17.80611038   93.12899780    0.67000002    2.51999998
   17.80916595   92.82289886    0.67000002    2.53999996
   17.81250000   89.66719818    0.69000000    2.51999998
   17.81555557   90.87779999    0.69000000    2.51999998
   17.81694603   86.01080322    0.69000000    2.51999998
   17.81944466   83.58190155    0.69000000    2.51999998
   17.82250023   85.68569946    0.69000000    2.51999998
   17.82583427   89.56210327    0.69000000    2.51999998
   17.83166695   89.56210327    0.67000002    2.51999998
   17.83583450   94.15760040    0.67000002    2.53999996
   17.83916664   90.77359772    0.67000002    2.53999996
   17.84222221   91.25299835    0.64999998    2.51999998
   17.84555626   89.66179657    0.64999998    2.53999996
   17.84889030   96.11329651    0.64999998    2.53999996
   17.85027885   98.45159912    0.64999998    2.53999996
   17.85250092   96.82849884    0.64999998    2.51999998
   17.85555649   91.83959961    0.64999998    2.53999996
   17.85888863  102.11799622    0.64999998    2.53999996
   17.86222267   89.23179626    0.64999998    2.53999996
   17.86527824   96.38169861    0.64999998    2.51999998
   17.86861038   84.29499817    0.64999998    2.51999998
   17.87472153   84.29499817    0.64999998    2.51999998
   17.87861061   88.78939819    0.64999998    2.53999996
   17.88194466   94.72270203    0.64999998    2.51999998
   17.88361168   91.72820282    0.64999998    2.53999996
   17.88555527   94.14459991    0.64999998    2.53999996
   17.88861084   93.25599670    0.67000002    2.51999998
   17.89194489   91.15429688    0.64999998    2.53999996
   17.89500046   88.94029999    0.64999998    2.51999998
   17.89833260   98.54209900    0.64999998    2.51999998
   17.90166664   90.27559662    0.67000002    2.51999998
   17.90472221   97.84040070    0.64999998    2.51999998
   17.90805435   95.41940308    0.64999998    2.53999996
   17.91138840   95.16699982    0.67000002    2.51999998
   17.91749954   95.16699982    0.64999998    2.51999998
   17.92166519   91.86959839    0.64999998    2.51999998
   17.92472076  102.25499725    0.64999998    2.51999998
   17.92805481   88.27159882    0.64999998    2.51999998
   17.93138885   94.49680328    0.64999998    2.51999998
   17.93444443   90.41600037    0.64999998    2.51999998
   17.93777657   95.89540100    0.64999998    2.53999996
   17.94111061   90.27519989    0.64999998    2.51999998
   17.94416618   91.01039886    0.64999998    2.51999998
   17.94749832   92.50099945    0.67000002    2.51999998
   17.95027924   98.09069824    0.64999998    2.50000000
   17.95111275   95.01799774    0.64999998    2.50000000
   17.95416832   90.45760345    0.64999998    2.51999998
   17.96027946   90.45760345    0.64999998    2.51999998
   17.96444511   89.85199738    0.67000002    2.51999998
   17.96777916   86.29540253    0.67000002    2.51999998
   17.97083473   94.03970337    0.69000000    2.51999998
   17.97416687   95.61900330    0.69000000    2.51999998
   17.97722244   93.80999756    0.67000002    2.51999998
   17.98055649  100.62400055    0.67000002    2.51999998
   17.98361206   88.08889771    0.67000002    2.53999996
   17.98416710   85.53040314    0.67000002    2.53999996
   17.98722267   95.47669983    0.67000002    2.51999998
   17.99055672   85.19809723    0.67000002    2.51999998
   17.99361229   99.60040283    0.67000002    2.51999998
   17.99694443   92.03399658    0.67000002    2.53999996
   18.00305557   92.03399658    0.67000002    2.51999998
   18.00722313   96.40599823    0.70999998    2.53999996
   18.01055527   91.25859833    0.69000000    2.51999998
   18.01361084   95.62300110    0.69000000    2.51999998
   18.01694489   96.35829926    0.67000002    2.51999998
   18.01749992   98.81569672    0.67000002    2.51999998
   18.02055550   94.00630188    0.67000002    2.51999998
   18.02388954  104.96199799    0.67000002    2.51999998
   18.02694511  102.85700226    0.67000002    2.51999998
   18.03027725   91.38289642    0.67000002    2.51999998
   18.03361130  107.53099823    0.67000002    2.51999998
   18.04388809  109.72899628    0.00000000    0.00000000
   18.04861069  109.72899628    0.00000000    0.00000000
   18.05333328   90.88300323    0.00000000    0.00000000
   18.05722237   96.97129822    0.00000000    0.00000000
   18.06110954   95.75859833    0.00000000    0.00000000
   18.06472206   98.81970215    0.00000000    0.00000000
   18.06805611   99.79720306    0.67000002    2.51999998
   18.07139015  109.19300079    0.67000002    2.51999998
   18.07444572  106.47100067    0.67000002    2.51999998
   18.07833481  110.80100250    0.67000002    2.51999998
   18.08139038  105.49800110    0.67000002    2.51999998
   18.08361244  100.14099884    0.67000002    2.51999998
   18.08527756  105.08200073    0.67000002    2.51999998
   18.09083366  105.08200073    0.67000002    2.51999998
   18.09500122   89.09870148    0.69000000    2.50000000
   18.09805679   99.19329834    0.67000002    2.51999998
   18.10138893   98.67130280    0.69000000    2.51999998
   18.10444450   86.64790344    0.67000002    2.50000000
   18.10777855   95.54380035    0.69000000    2.50000000
   18.11111069   89.29609680    0.69000000    2.51999998
   18.11416626  107.07700348    0.69000000    2.51999998
   18.11694527   97.20339966    0.69000000    2.51999998
   18.11805534   95.95719910    0.69000000    2.50000000
   18.12111092   83.15760040    0.67000002    2.50000000
   18.12444496   94.06490326    0.69000000    2.51999998
   18.12777710   87.32869720    0.70999998    2.51999998
   18.13361168   87.32869720    0.70999998    2.50000000
   18.13777733   95.39209747    0.70999998    2.51999998
   18.14083290   95.28559875    0.70999998    2.51999998
   18.14416695   90.92019653    0.69000000    2.51999998
   18.14749908  101.76399994    0.70999998    2.51999998
   18.15027809   87.64589691    0.70999998    2.51999998
   18.15111160   90.19200134    0.69000000    2.51999998
   18.15444374   89.54260254    0.69000000    2.51999998
   18.15749931   83.23889923    0.70999998    2.51999998
   18.16083336   91.36550140    0.70999998    2.51999998
   18.16416550   97.57009888    0.81999999    2.50000000
   18.16722107   85.87329865    0.80000001    2.50000000
   18.17055511   83.74340057    0.80000001    2.50000000
   18.17638779   83.74340057    0.79000002    2.50000000
   18.18055534   81.43779755    0.73000002    2.51999998
   18.18361092   89.19210052    0.73000002    2.51999998
   18.18416595   88.31939697    0.73000002    2.51999998
   18.18750000   90.66089630    0.73000002    2.50000000
   18.19055557   87.04940033    0.75000000    2.50000000
   18.19388771   94.31199646    0.76999998    2.50000000
   18.19722176   83.83570099    0.80000001    2.50000000
   18.20027924   89.82469940    0.83999997    2.51999998
   18.20361137   89.02510071    0.83999997    2.50000000
   18.20666695   87.43299866    0.86000001    2.50000000
   18.21000099   84.11209869    0.86000001    2.50000000
   18.21333504   90.87039948    0.83999997    2.50000000
   18.21916771   90.87039948    0.83999997    2.50000000
   18.22333336   94.46499634    0.83999997    2.50000000
   18.22666740   86.85469818    0.86000001    2.50000000
   18.23000145   87.98519897    0.86000001    2.50000000
   18.23305511   81.81620026    0.86000001    2.50000000
   18.23638916   85.80139923    0.86000001    2.50000000
   18.23944473   89.37580109    0.81999999    2.50000000
   18.24277878   89.58509827    0.81999999    2.51999998
   18.24611092   95.38749695    0.81999999    2.50000000
   18.24916649   89.14929962    0.80000001    2.50000000
   18.25027847   85.08869934    0.80000001    2.50000000
   18.25305557   84.70659637    0.81999999    2.51999998
   18.25611115   82.50029755    0.81999999    2.51999998
   18.26222229   82.50029755    0.75000000    2.50000000
   18.26638794   90.46990204    0.75000000    2.51999998
   18.26944351   90.08380127    0.75000000    2.50000000
   18.27277756   81.19930267    0.75000000    2.51999998
   18.27583313   87.66329956    0.75000000    2.50000000
   18.27916718   88.05090332    0.75000000    2.50000000
   18.28249931   90.80860138    0.76999998    2.51999998
   18.28361130   88.14060211    0.76999998    2.51999998
   18.28610992   83.25029755    0.79000002    2.50000000
   18.28944397   88.47460175    0.80000001    2.50000000
   18.29277802   84.99359894    0.80000001    2.50000000
   18.29583359   85.68560028    0.80000001    2.50000000
   18.29944420   84.89710236    0.79000002    2.50000000
   18.30499840   84.89710236    0.81999999    2.50000000
   18.30916595   88.82640076    0.81999999    2.50000000
   18.31222153   87.06999969    0.81999999    2.50000000
   18.31555557   89.76619720    0.81999999    2.50000000
   18.31722260   86.98410034    0.81999999    2.50000000
   18.31916809   85.07579803    0.81999999    2.50000000
   18.32250023   89.79119873    0.81999999    2.50000000
   18.32583427   89.69979858    0.81999999    2.50000000
   18.32888985   88.99530029    0.81999999    2.50000000
   18.33222389   91.21939850    0.81999999    2.50000000
   18.35527802   91.21939850    0.00000000    0.00000000
   18.35944557   83.73410034    0.81999999    2.50000000
   18.36277771   84.75879669    0.81999999    2.50000000
   18.36611176   88.97270203    0.81999999    2.50000000
   18.36916733   86.95529938    0.81999999    2.50000000
   18.37249947   90.73509979    0.81999999    2.50000000
   18.37555504   86.98840332    0.81999999    2.50000000
   18.37888908   93.08309937    0.81999999    2.50000000
   18.38222313   89.58390045    0.81999999    2.50000000
   18.38527679   86.55429840    0.81999999    2.50000000
   18.38583374   92.58059692    0.81999999    2.50000000
   18.38916588   89.14160156    0.80000001    2.50000000
   18.39222145   88.44589996    0.86000001    2.48000002
   18.39749908   88.44589996    0.88000000    2.50000000
   18.40194321   90.44409943    0.88000000    2.48000002
   18.40527725   85.17669678    0.89999998    2.50000000
   18.40833282   85.67849731    0.92000002    2.50000000
   18.41166687   80.46869659    0.89999998    2.50000000
   18.41499901   88.39430237    0.89999998    2.50000000
   18.41805458   85.84729767    0.89999998    2.50000000
   18.41916656   90.66419983    0.89999998    2.50000000
   18.42166519   84.30000305    0.89999998    2.50000000
   18.42472076   89.29029846    1.03999996    2.50000000
   18.42805481   91.28669739    0.89999998    2.50000000
   18.43138885   87.74109650    0.88000000    2.50000000
   18.43444443   82.36779785    0.88000000    2.48000002
   18.44027710   82.36779785    0.89999998    2.48000002
   18.44444275   81.00460052    0.92000002    2.48000002
   18.44777679   77.60739899    0.94000000    2.50000000
   18.45111275   84.03959656    0.95999998    2.50000000
   18.45277786   82.90260315    0.95999998    2.48000002
   18.45472336   78.21710205    0.98000002    2.48000002
   18.45777893   82.15730286    0.98000002    2.48000002
   18.46111107   81.45670319    0.98000002    2.48000002
   18.46416664   85.78009796    1.01999998    2.48000002
   18.46750069   89.14679718    1.01999998    2.48000002
   18.47083473   89.67910004    1.01999998    2.48000002
   18.47389030   90.87229919    1.01999998    2.48000002
   18.47722244   82.16190338    1.01999998    2.48000002
   18.48333359   82.16190338    1.07000005    2.46000004
   18.48722267   87.50789642    1.26999998    2.48000002
   18.49055672   81.98329926    1.23000002    2.48000002
   18.49388885   85.77249908    1.13000000    2.48000002
   18.49694443   80.40730286    1.13000000    2.48000002
   18.50027847   82.16100311    1.11000001    2.48000002
   18.50361061   84.69819641    4.90999985    2.53999996
   18.50666618   87.48940277    0.46000001    2.19000006
   18.51000023   87.96369934    0.13000000    0.44000000
   18.51305580   88.61150360    0.09000000    0.20999999
   18.51638794   85.53340149    0.07000000    0.09000000
   18.51944351   83.77010345    0.07000000    0.09000000
   18.52000046   80.83779907    0.07000000    0.09000000
   18.52611160   80.83779907    0.07000000    0.09000000
   18.53027725   90.45420074    0.07000000    0.09000000
   18.53333282   90.22550201    0.07000000    0.09000000
   18.53666687   83.83910370    0.07000000    0.09000000
   18.53999901   84.47460175    0.07000000    0.09000000
   18.54305458   86.26540375    0.07000000    0.09000000
   18.54638863   83.42569733    0.07000000    0.09000000
   18.54944420   88.45890045    0.07000000    0.09000000
   18.55277634   84.74130249    0.07000000    0.09000000
   18.55333328   86.27330017    0.07000000    0.09000000
   18.55638885   87.10669708    0.07000000    0.09000000
   18.55972099   93.16560364    0.07000000    0.09000000
   18.56305504   85.30460358    0.07000000    0.09000000
   18.56888962   85.30460358    0.07000000    0.09000000
   18.57305717   82.80339813    0.07000000    0.09000000
   18.57611275   84.46189880    0.07000000    0.09000000
   18.57944489   83.29570007    0.07000000    0.09000000
   18.58277893   81.47740173    0.07000000    0.09000000
   18.58583450   81.49739838    0.07000000    0.09000000
   18.58638954   82.69750214    0.07000000    0.09000000
   18.58972359   86.75039673    0.07000000    0.09000000
   18.59277916   84.51309967    0.07000000    0.09000000
   18.59611130   81.24349976    0.07000000    0.09000000
   18.59944534   84.23410034    0.07000000    0.09000000
   18.60250092   81.09809875    0.07000000    0.09000000
   18.60583305   84.69760132    0.07000000    0.09000000
   18.61166763   84.69760132    0.07000000    0.09000000
   18.61583328   83.33480072    0.07000000    0.09000000
   18.61916733   78.89550018    0.07000000    0.09000000
   18.61972237   84.88300323    0.07000000    0.09000000
   18.62277794   84.79660034    0.07000000    0.09000000
   18.62583351   85.88059998    0.07000000    0.09000000
   18.62916756   83.96520233    0.07000000    0.09000000
   18.63249969   82.07209778    0.07000000    0.09000000
   18.63555527   85.11389923    0.07000000    0.09000000
   18.63888931   85.72250366    0.07000000    0.09000000
   18.64194489   82.62480164    0.07000000    0.09000000
   18.64527702   84.41470337    0.07000000    0.09000000
   18.64861107   86.93399811    0.07000000    0.09000000
   18.65444374   86.93399811    0.07000000    0.09000000
   18.65861130   90.10859680    0.07000000    0.09000000
   18.66194344   96.69190216    0.07000000    0.09000000
   18.66527748   87.30159760    0.07000000    0.09000000
   18.66833305   86.02880096    0.07000000    0.09000000
   18.67166519   92.98159790    0.07000000    0.09000000
   18.67472076   91.58070374    0.07000000    0.09000000
   18.67805481   89.25749969    0.07000000    0.09000000
   18.68138885   92.94640350    0.07000000    0.09000000
   18.68444443   91.31909943    0.07000000    0.09000000
   18.68638802   90.34649658    0.07000000    0.09000000
   18.68833160   94.66380310    0.07000000    0.09000000
   18.69138718   83.02819824    0.07000000    0.09000000
   18.69749832   83.02819824    0.07000000    0.09000000
   18.70166779   96.59529877    0.07000000    0.09000000
   18.70472336   87.51529694    0.07000000    0.09000000
   18.70805550   90.95220184    0.07000000    0.09000000
   18.71111107   90.81340027    0.07000000    0.09000000
   18.71444511   90.21779633    0.07000000    0.09000000
   18.71777916   91.68869781    0.07000000    0.09000000
   18.71972275   96.31880188    0.07000000    0.09000000
   18.72138977   87.56089783    0.07000000    0.09000000
   18.72444534   93.88710022    0.07000000    0.09000000
   18.72777748   86.14810181    0.07000000    0.09000000
   18.73111153   98.59069824    0.07000000    0.09000000
   18.73416710   92.11430359    0.07000000    0.09000000
   18.74027824   92.11430359    0.07000000    0.09000000
   18.74444389  102.15200043    0.07000000    0.09000000
   18.74749947   91.46739960    0.07000000    0.09000000
   18.75083351  100.44000244    0.07000000    0.09000000
   18.75305557   97.99269867    0.07000000    0.09000000
   18.75444412   94.58409882    0.07000000    0.09000000
   18.75749969   86.50070190    0.07000000    0.09000000
   18.76083374   95.89949799    0.07000000    0.09000000
   18.76416588   88.09040070    0.07000000    0.09000000
   18.76722145   90.26029968    0.07000000    0.09000000
   18.77055550   93.98899841    0.07000000    0.09000000
   18.77361107   88.00530243    0.07000000    0.09000000
   18.77694511   97.09680176    0.07000000    0.09000000
   18.78305435   97.09680176    0.07000000    0.09000000
   18.78722191   87.40630341    0.07000000    0.09000000
   18.79055595   85.30300140    0.07000000    0.09000000
   18.79361153   87.05780029    0.07000000    0.09000000
   18.79694366   87.58110046    0.07000000    0.09000000
   18.80027771   94.59980011    0.07000000    0.09000000
   18.80333328   85.17359924    0.07000000    0.09000000
   18.80666542   89.87210083    0.07000000    0.09000000
   18.80972099   88.78309631    0.07000000    0.09000000
   18.81305504   93.60929871    0.07000000    0.09000000
   18.81638718   87.32859802    0.07000000    0.09000000
   18.81944466   86.78890228    0.07000000    0.09000000
   18.82000160   97.37840271    0.07000000    0.09000000
   18.82583427   97.37840271    0.07000000    0.09000000
   18.83000183   88.79679871    0.07000000    0.09000000
   18.83333397   86.53510284    0.07000000    0.09000000
   18.83666801   72.89810181    0.07000000    0.09000000
   18.83972359   73.50019836    0.07000000    0.09000000
   18.84305573   91.07830048    0.07000000    0.09000000
   18.84611130   90.56109619    0.07000000    0.09000000
   18.84944534   88.88520050    0.07000000    0.09000000
   18.85277748   89.40039825    0.07000000    0.09000000
   18.85333443   98.02570343    0.07000000    0.09000000
   18.85639000   90.13339996    0.07000000    0.09000000
   18.85944557   89.26049805    0.07000000    0.09000000
   18.86277771   91.00160217    0.07000000    0.09000000
   18.86888885   91.00160217    0.07000000    0.09000000
   18.87305641  104.35600281    0.07000000    0.09000000
   18.87611198  102.31700134    0.07000000    0.09000000
   18.87944412   91.87969971    0.07000000    0.09000000
   18.88249969   99.18830109    0.07000000    0.09000000
   18.88583374   90.68630219    0.07000000    0.09000000
   18.88666725   91.79299927    0.07000000    0.09000000
   18.88944435   98.87200165    0.07000000    0.09000000
   18.89249992  101.05100250    0.07000000    0.09000000
   18.89583397   94.87960052    0.07000000    0.09000000
   18.89916611   82.60350037    0.07000000    0.09000000
   18.90222168   92.68689728    0.07000000    0.09000000
   18.90555573  104.84500122    0.07000000    0.09000000
   18.91166687  104.84500122    0.07000000    0.09000000
   18.91583252   81.09639740    0.07000000    0.09000000
   18.91888809   88.61759949    0.07000000    0.09000000
   18.92000008   87.07479858    0.07000000    0.09000000
   18.92277718   92.12969971    0.07000000    0.09000000
   18.92583275   92.57769775    0.07000000    0.09000000
   18.92916679   90.02310181    0.07000000    0.09000000
   18.93249893   90.13390350    0.07000000    0.09000000
   18.93555450   91.13610077    0.07000000    0.09000000
   18.93888855   91.39720154    0.07000000    0.09000000
   18.94222069   97.06289673    0.07000000    0.09000000
   18.94527626   97.96929932    0.07000000    0.09000000
   18.94861031   96.85800171    0.07000000    0.09000000
   18.95444489   96.85800171    0.07000000    0.09000000
   18.95861244   89.17430115    0.07000000    0.09000000
   18.96194458   91.32910156    0.07000000    0.09000000
   18.96500015   96.49600220    0.07000000    0.09000000
   18.96833420   91.93219757    0.07000000    0.09000000
   18.97166634   86.48870087    0.07000000    0.09000000
   18.97472191   88.33049774    0.07000000    0.09000000
   18.97805595   86.48249817    0.07000000    0.09000000
   18.98111153   87.97039795    0.07000000    0.09000000
   18.98444557   87.43499756    0.07000000    0.09000000
   18.98666763   82.55410004    0.07000000    0.09000000
   18.98805618   83.42810059    0.07000000    0.09000000
   18.99111176   84.50370026    0.07000000    0.09000000
   18.99722290   84.50370026    0.07000000    0.09000000
   19.00138855   93.17579651    0.07000000    0.09000000
   19.00472260   93.61679840    0.07000000    0.09000000
   19.00805473   91.54070282    0.07000000    0.09000000
   19.01111031   91.54940033    0.07000000    0.09000000
   19.01444435   96.31759644    0.07000000    0.09000000
   19.01749992   80.61620331    0.07000000    0.09000000
   19.02000046   87.31839752    0.07000000    0.09000000
   19.02138901   83.16239929    0.07000000    0.09000000
   19.02444458   93.34339905    0.07000000    0.09000000
   19.02777672   85.10169983    0.07000000    0.09000000
   19.03111076   91.05460358    0.07000000    0.09000000
   19.03416634   83.81159973    0.07000000    0.09000000
   19.04027748   83.81159973    0.07000000    0.09000000
   19.04444313   82.13169861    0.07000000    0.09000000
   19.04749870   81.69750214    0.07000000    0.09000000
   19.05083275   82.57879639    0.07000000    0.09000000
   19.05333328   82.38449860    0.07000000    0.09000000
   19.05444336   88.74340057    0.07000000    0.09000000
   19.05749893   85.18710327    0.07000000    0.09000000
   19.06083298   82.42630005    0.07000000    0.09000000
   19.06416512   86.58769989    0.07000000    0.09000000
   19.06722260   92.24250031    0.07000000    0.09000000
   19.07055664   82.12860107    0.07000000    0.09000000
   19.07389069   90.81639862    0.07000000    0.09000000
   19.07694626   84.53269958    0.07000000    0.09000000
   19.08305550   84.53269958    0.07000000    0.09000000
   19.08722305   90.81120300    0.07000000    0.09000000
   19.09027863   89.47419739    0.07000000    0.09000000
   19.09361267   82.38400269    0.07000000    0.09000000
   19.09694481   87.37920380    0.07000000    0.09000000
   19.10000038   84.91290283    0.07000000    0.09000000
   19.10333443   82.70719910    0.07000000    0.09000000
   19.10666656   85.05699921    0.07000000    0.09000000
   19.10972214   87.23290253    0.07000000    0.09000000
   19.11305618   84.35279846    0.07000000    0.09000000
   19.11611176   89.67749786    0.07000000    0.09000000
   19.11944389   86.71099854    0.07000000    0.09000000
   19.12000084   84.21130371    0.07000000    0.09000000
   19.12583351   84.21130371    0.07000000    0.09000000
   19.13000107   85.88249969    0.07000000    0.09000000
   19.13333321   87.82119751    0.07000000    0.09000000
   19.13638878   87.14369965    0.07000000    0.09000000
   19.13972282   86.73120117    0.07000000    0.09000000
