    HOUR (UT)   FLARE FACTOR    SKY TESTER    SUN TESTER
   13.05638885   -1.00000000   -1.00000000   -1.00000000
   13.07638836  111.95600128    0.92000002    2.53999996
   13.08249950  102.08100128    0.88000000    2.53999996
   13.08555508  104.26000214    0.88000000    2.53999996
   13.08888817  100.05200195    0.75000000    2.51999998
   13.09222221  105.80300140    0.92000002    2.51999998
   13.09527779  102.93000031    0.94000000    2.51999998
   13.09861088   96.81510162    0.94000000    2.51999998
   13.10166740  100.61299896    1.07000005    2.53999996
   13.10500050  107.35700226    1.28999996    2.53999996
   13.10833359  102.12000275    1.26999998    2.53999996
   13.10944462  116.81999969    1.26999998    2.53999996
   13.11194515   97.79640198    1.00000000    2.53999996
   13.11527824   99.86650085    0.73000002    2.53999996
   13.11833382   95.78040314    0.63000000    2.53999996
   13.12166691   96.15760040    0.61000001    2.53999996
   13.12500000  102.14199829    0.63000000    2.53999996
   13.12805557   96.11160278    0.63000000    2.53999996
   13.13138866   99.62689972    0.56999999    2.53999996
   13.13472176   91.18910217    0.55000001    2.53999996
   13.13777733   99.91359711    0.55000001    2.53999996
   13.14111137  102.59400177    0.52999997    2.53999996
   13.14277744  105.81400299    0.52999997    2.53999996
   13.14472198  101.61799622    0.52999997    2.53999996
   13.14805508  100.92500305    0.52999997    2.55999994
   13.15111065  101.77799988    0.52999997    2.53999996
   13.15444374   99.88719940    0.51999998    2.53999996
   13.15777779  103.96600342    0.51999998    2.53999996
   13.16083336   91.79799652    0.52999997    2.53999996
   13.16416645   97.20110321    0.52999997    2.53999996
   13.16722298   99.10559845    0.52999997    2.53999996
   13.17055607   99.42549896    0.52999997    2.53999996
   13.17388916   93.75969696    0.51999998    2.53999996
   13.17611122   96.44850159    0.51999998    2.55999994
   13.17750072   98.02880096    0.51999998    2.55999994
   13.18083382  101.42800140    0.52999997    2.55999994
   13.18388939   96.47760010    0.52999997    2.53999996
   13.18722248  108.12500000    0.55000001    2.55999994
   13.19055557   98.06800079    0.52999997    2.53999996
   13.19361115   98.27259827    0.52999997    2.53999996
   13.19694424  100.19200134    0.52999997    2.53999996
   13.19999981   98.24780273    0.52999997    2.55999994
   13.20333290  100.32800293    0.55000001    2.53999996
   13.20666695   94.59559631    0.55000001    2.53999996
   13.20972157  107.92199707    0.55000001    2.53999996
   13.21000004   95.16249847    0.55000001    2.53999996
   13.21333313  101.15000153    0.55000001    2.53999996
   13.21638870  101.14499664    0.58999997    2.55999994
   13.21972179  103.28900146    0.58999997    2.55999994
   13.22305489  109.83899689    0.58999997    2.55999994
   13.22611046  102.16000366    0.58999997    2.53999996
   13.22944355  104.24299622    0.58999997    2.55999994
   13.23277760   95.33049774    0.58999997    2.55999994
   13.23583317  101.04799652    0.58999997    2.55999994
   13.23916721   95.19429779    0.58999997    2.55999994
   13.24250031   92.30590057    0.58999997    2.55999994
   13.24305534   93.84100342    0.58999997    2.55999994
   13.24583340   94.20690155    0.61000001    2.55999994
   13.24916649   97.91729736    0.58999997    2.55999994
   13.25249958   95.75920105    0.58999997    2.55999994
   13.25555515   97.80560303    0.56999999    2.55999994
   13.25888920   98.07350159    0.56999999    2.55999994
   13.26194477   94.61329651    0.56999999    2.55999994
   13.26527786  100.25000000    0.58999997    2.55999994
   13.26861095  101.53700256    0.58999997    2.53999996
   13.27166653   99.68869781    0.58999997    2.53999996
   13.27499962  105.99800110    0.56999999    2.55999994
   13.27638817  101.04900360    0.56999999    2.55999994
   13.27861118  108.17900085    0.56999999    2.55999994
   13.28194427   99.51180267    0.55000001    2.55999994
   13.28527832   98.91179657    0.55000001    2.55999994
   13.28833389   96.88670349    0.55000001    2.55999994
   13.29166698   95.21179962    0.56999999    2.55999994
   13.29500008   98.85630035    0.56999999    2.55999994
   13.29805565   97.41979980    0.58999997    2.55999994
   13.30138874   97.30660248    0.61000001    2.55999994
   13.30444431  101.87100220    0.61000001    2.55999994
   13.30777836   99.49530029    0.67000002    2.55999994
   13.30972195   97.65519714    0.73000002    2.55999994
   13.31138897   99.86509705    0.73000002    2.55999994
   13.31472206   98.29290009    0.79000002    2.55999994
   13.31805515  107.33399963    0.89999998    2.55999994
   13.32111073  101.84999847    0.94000000    2.55999994
   13.32444477  106.76699829    0.83999997    2.55999994
   13.32777786   98.00749969    0.79000002    2.55999994
   13.33083344   94.70929718    0.73000002    2.55999994
   13.33416653   95.29879761    0.70999998    2.55999994
   13.33749962  100.73000336    0.70999998    2.55999994
   13.34055519  100.05300140    0.80000001    2.55999994
   13.34305477   94.44149780    0.88000000    2.55999994
   13.34416676  106.83599854    0.88000000    2.55999994
   13.34749985   93.50800323    0.86000001    2.55999994
   13.35083389   94.36769867    0.81999999    2.57999992
   13.35388947  100.09300232    0.88000000    2.55999994
   13.35722256   96.94989777    0.94000000    2.55999994
   13.36027813   99.16210175    0.98000002    2.55999994
   13.36361122  101.52400208    1.05999994    2.55999994
   13.36694431   94.38500214    1.05999994    2.55999994
   13.36999989   96.06320190    0.98000002    2.55999994
   13.37333393  101.85099792    0.88000000    2.57999992
   13.37638855  100.40100098    0.80000001    2.55999994
   13.37694454  101.25599670    0.80000001    2.55999994
   13.38027763  101.49500275    0.80000001    2.55999994
   13.38361073  104.77899933    0.79000002    2.57999992
   13.38666630  101.64399719    0.73000002    2.57999992
   13.39000034  102.72200012    0.70999998    2.57999992
   13.39305496  101.83000183    0.73000002    2.57999992
   13.39638901   97.27929688    0.73000002    2.57999992
   13.39972210  105.42099762    0.75000000    2.57999992
   13.40277767   99.37349701    0.75000000    2.57999992
   13.40611076   98.42659760    0.76999998    2.57999992
   13.40944386   98.76260376    0.76999998    2.57999992
   13.40999985  104.88600159    0.79000002    2.55999994
   13.41305542  100.75499725    0.79000002    2.55999994
   13.41638851  103.85299683    0.76999998    2.57999992
   13.41944504  101.92900085    0.79000002    2.57999992
   13.42277813   97.23650360    0.76999998    2.57999992
   13.42611122   99.83609772    0.79000002    2.57999992
   13.42916679  103.05699921    0.79000002    2.57999992
   13.43249989  103.25199890    0.79000002    2.57999992
   13.43583298   96.69519806    0.79000002    2.57999992
   13.43888855   96.64170074    0.79000002    2.57999992
   13.44222260   97.61579895    0.79000002    2.57999992
   13.44333363   97.97160339    0.80000001    2.57999992
   13.44583321   99.03220367    0.80000001    2.57999992
   13.44916630   99.80439758    0.81999999    2.57999992
   13.45249939   98.05609894    0.81999999    2.57999992
   13.45555496  100.63200378    0.83999997    2.57999992
   13.45888901   95.76339722    0.80000001    2.57999992
   13.46194458   99.91750336    0.79000002    2.57999992
   13.46527767   95.63310242    0.80000001    2.57999992
   13.46861076  101.48100281    0.79000002    2.57999992
   13.47166634  100.44599915    0.79000002    2.57999992
   13.47499943  106.38200378    0.79000002    2.57999992
   13.47666645  102.60900116    0.79000002    2.57999992
   13.47861099  101.11499786    0.79000002    2.57999992
   13.48194408  101.45800018    0.79000002    2.57999992
   13.48500061   99.83100128    0.79000002    2.57999992
   13.48833370  106.82800293    0.79000002    2.57999992
   13.49166679   98.47119904    0.79000002    2.57999992
   13.49472237   94.01390076    0.79000002    2.57999992
   13.49805546  106.12899780    0.79000002    2.57999992
   13.50138855   97.46219635    0.79000002    2.57999992
   13.50444412   96.41739655    0.79000002    2.57999992
   13.50777817  103.83100128    0.79000002    2.57999992
   13.51000023   93.99500275    0.79000002    2.57999992
   13.51138878   95.38069916    0.79000002    2.57999992
   13.51472187   97.33100128    0.79000002    2.57999992
   13.51805496  106.55799866    0.79000002    2.57999992
   13.52111053  106.94400024    0.79000002    2.57999992
   13.52444458   96.73500061    0.79000002    2.57999992
   13.52750015   96.91010284    0.79000002    2.57999992
   13.53083324   95.91410065    0.79000002    2.57999992
   13.53416729   95.62860107    0.79000002    2.57999992
   13.53722286   93.03299713    0.79000002    2.57999992
   13.54055595   99.68569946    0.79000002    2.57999992
   13.54305553   96.09799957    0.79000002    2.57999992
   13.54416752   93.77799988    0.79000002    2.57999992
   13.54750061   95.49909973    0.79000002    2.57999992
   13.55055618   96.02020264    0.79000002    2.57999992
   13.55388927   90.99349976    0.79000002    2.57999992
   13.55694485   96.38569641    0.79000002    2.57999992
   13.56027794   94.16320038    0.79000002    2.57999992
   13.56361103   90.38809967    0.79000002    2.57999992
   13.56666660   94.39839935    0.79000002    2.57999992
   13.56999969   91.03630066    0.79000002    2.57999992
   13.57333374   91.77529907    0.79000002    2.57999992
   13.57638836   97.46610260    0.79000002    2.57999992
   13.57694435   97.92150116    0.79000002    2.57999992
   13.58027744   99.09989929    0.79000002    2.57999992
   13.58333302   96.14219666    0.79000002    2.57999992
   13.58666611   96.13690186    0.79000002    2.57999992
   13.58972168   91.30670166    0.79000002    2.57999992
   13.59305477   95.72820282    0.79000002    2.57999992
   13.59638882  101.05799866    0.79000002    2.57999992
   13.59944439   98.05629730    0.79000002    2.57999992
   13.60277843   93.33719635    0.79000002    2.57999992
   13.60611153   98.51719666    0.79000002    2.57999992
   13.60916710   94.60119629    0.79000002    2.57999992
   13.60972214  102.54399872    0.79000002    2.57999992
   13.61277771   92.28910065    0.79000002    2.57999992
   13.61611176   91.51069641    0.79000002    2.57999992
   13.61916637   89.90809631    0.79000002    2.57999992
   13.62250042   93.76830292    0.79000002    2.57999992
   13.62583351   93.91049957    0.79000002    2.57999992
   13.62888908   96.77529907    0.79000002    2.57999992
   13.63222218   97.94779968    0.79000002    2.57999992
   13.63527775   94.11930084    0.79000002    2.57999992
   13.63861084   95.58190155    0.79000002    2.57999992
   13.64194393   92.93440247    0.79000002    2.57999992
   13.64305496   96.19229889    0.79000002    2.57999992
   13.64555550   89.86849976    0.79000002    2.57999992
   13.64888859   94.56089783    0.79000002    2.57999992
   13.65194416   96.25749969    0.79000002    2.57999992
   13.65527725   96.06800079    0.79000002    2.57999992
   13.65861034   99.34619904    0.79000002    2.57999992
   13.66166592   94.74759674    0.79000002    2.57999992
   13.66499996   91.85859680    0.79000002    2.57999992
   13.66833401   90.88359833    0.79000002    2.57999992
   13.67138958   93.67330170    0.79000002    2.57999992
   13.67472267   93.91310120    0.79000002    2.57999992
   13.67638874   96.13510132    0.79000002    2.57999992
   13.67833328   95.47930145    0.79000002    2.57999992
   13.68166733   99.17700195    0.79000002    2.57999992
   13.68472195  103.91999817    0.79000002    2.57999992
   13.68805599   90.47619629    0.79000002    2.57999992
   13.69138908  100.61699677    0.79000002    2.57999992
   13.69444466   90.56130219    0.79000002    2.57999992
   13.69777775   97.37599945    0.79000002    2.57999992
   13.70083332  100.44899750    0.79000002    2.57999992
   13.70416641  103.97699738    0.79000002    2.57999992
   13.70749950   93.19080353    0.79000002    2.57999992
   13.70972157   97.88539886    0.79000002    2.57999992
   13.71111107   91.87239838    0.79000002    2.57999992
   13.71444416   96.67990112    0.79000002    2.57999992
   13.71749973   91.66590118    0.79000002    2.57999992
   13.72083282   95.30719757    0.79000002    2.57999992
   13.72416592   98.79010010    0.79000002    2.57999992
   13.72722149   90.36129761    0.79000002    2.57999992
   13.73055553   85.07409668    0.79000002    2.57999992
   13.73361111   90.98300171    0.79000002    2.57999992
   13.73694515   99.77749634    0.79000002    2.57999992
   13.74027824   92.91390228    0.79000002    2.57999992
   13.74305534   95.78630066    0.79000002    2.57999992
   13.74388885  105.73999786    0.79000002    2.57999992
   13.74722290  103.88099670    0.79000002    2.57999992
   13.75027752   99.50610352    0.79000002    2.57999992
   13.75361156  113.40499878    0.79000002    2.57999992
   13.75694466   97.10330200    0.79000002    2.57999992
   13.76000023  104.30999756    0.79000002    2.57999992
   13.76333332  115.03199768    0.79000002    2.57999992
   13.76638889  106.52899933    0.79000002    2.57999992
   13.76972198  108.11599731    0.79000002    2.57999992
   13.77305508   98.22419739    0.79000002    2.57999992
   13.77611065   99.57479858    0.79000002    2.57999992
   13.77666664  100.09899902    0.79000002    2.57999992
   13.77999973  104.75299835    0.79000002    2.57999992
   13.78305531   97.63960266    0.79000002    2.57999992
   13.78638935  100.36000061    0.79000002    2.57999992
   13.78972244   97.69830322    0.79000002    2.57999992
   13.79277802   96.89240265    0.79000002    2.57999992
   13.79611111   92.38240051    0.79000002    2.57999992
   13.79944515   92.45130157    0.79000002    2.57999992
   13.80249977   97.84919739    0.79000002    2.57999992
   13.80583382   96.66120148    0.79000002    2.57999992
   13.80916691   91.57450104    0.79000002    2.57999992
   13.81000042   97.02839661    0.79000002    2.57999992
   13.81277752   95.02449799    0.79000002    2.57999992
   13.81611156   87.98459625    0.79000002    2.57999992
   13.81916618   95.58300018    0.79000002    2.57999992
   13.82250023   92.81590271    0.79000002    2.57999992
   13.82555580   98.16210175    0.79000002    2.57999992
   13.82888889   92.12090302    0.79000002    2.57999992
   13.83222198   96.73249817    0.79000002    2.57999992
   13.83527756   91.50930023    0.79000002    2.57999992
   13.83861065   90.42990112    0.79000002    2.57999992
   13.84194374   86.57679749    0.79000002    2.57999992
   13.84333324  102.21299744    0.79000002    2.57999992
   13.84555531   96.65599823    0.79000002    2.57999992
   13.84888840   94.94879913    0.79000002    2.57999992
   13.85194492   90.89459991    0.79000002    2.57999992
   13.85527802  105.47899628    0.79000002    2.57999992
   13.85833359   94.54840088    0.79000002    2.57999992
   13.86166668   89.62660217    0.79000002    2.57999992
   13.86500072   86.64320374    0.79000002    2.57999992
   13.86805534  110.77200317    0.79000002    2.57999992
   13.87138939  111.17800140    0.79000002    2.57999992
   13.87444496   90.11070251    0.79000002    2.57999992
   13.87666702   95.45760345    0.79000002    2.57999992
   13.87833309  103.65100098    0.79000002    2.57999992
   13.88138866  100.51200104    0.79000002    2.57999992
   13.88472176   92.94170380    0.79000002    2.57999992
   13.88805580   90.83959961    0.79000002    2.57999992
   13.89111137   84.17659760    0.79000002    2.57999992
   13.89444447   91.93550110    0.79000002    2.57999992
   13.89777756   87.52189636    0.79000002    2.57999992
   13.90083313  105.06900024    0.79000002    2.57999992
   13.90416622   93.47660065    0.79000002    2.57999992
   13.90722179   91.78579712    0.79000002    2.57999992
   13.90999985  105.27700043    0.79000002    2.57999992
   13.91111088  105.50000000    0.79000002    2.57999992
   13.91416645   88.84819794    0.79000002    2.57999992
   13.91750050   98.28959656    0.79000002    2.57999992
   14.01999950   -1.00000000   -1.00000000   -1.00000000
   14.13194466   -1.00000000   -1.00000000   -1.00000000
   14.23249912   -1.00000000   -1.00000000   -1.00000000
   14.28611183   90.71209717    0.79000002    2.57999992
   14.28916740  101.76999664    0.79000002    2.57999992
   14.29250050   98.78050232    0.79000002    2.57999992
   14.29583359   99.64890289    0.79000002    2.57999992
   14.29888916  101.36000061    0.79000002    2.57999992
   14.30222225  103.14600372    0.79000002    2.57999992
   14.30638885  103.14600372    0.79000002    2.57999992
   14.31055546   95.96250153    0.79000002    2.57999992
   14.31361103  101.83899689    0.79000002    2.57999992
   14.31694412   96.92289734    0.79000002    2.57999992
   14.31944466   98.06999969    0.79000002    2.57999992
   14.32027817   96.44290161    0.79000002    2.57999992
   14.32361126   95.40319824    0.79000002    2.57999992
   14.32694435   95.66010284    0.79000002    2.57999992
   14.32999992   95.60220337    0.79000002    2.57999992
   14.33333302   86.71459961    0.79000002    2.57999992
   14.33666611   87.50869751    0.79000002    2.57999992
   14.33972168   90.34020233    0.79000002    2.57999992
   14.34305477   92.16239929    0.79000002    2.57999992
   14.34916592   92.16239929    0.79000002    2.57999992
   14.35333347   94.94400024    0.79000002    2.57999992
   14.35638905   95.34989929    0.79000002    2.57999992
   14.35972214   90.99199677    0.79000002    2.57999992
   14.36305618   93.36830139    0.79000002    2.57999992
   14.36611176   95.72200012    0.79000002    2.57999992
   14.36944485   94.24220276    0.79000002    2.57999992
   14.37277794   94.39649963    0.79000002    2.57999992
   14.37583351   98.04470062    0.79000002    2.57999992
   14.37916660   94.47969818    0.79000002    2.57999992
   14.38249969   93.86569977    0.79000002    2.57999992
   14.38555527   93.27790070    0.79000002    2.57999992
   14.38611126   95.89309692    0.79000002    2.57999992
   14.39194393   95.89309692    0.79000002    2.57999992
   14.39611053   89.94989777    0.79000002    2.57999992
   14.39944458   88.96620178    0.79000002    2.57999992
   14.40249920   84.99199677    0.79000002    2.57999992
   14.40583324   92.90200043    0.79000002    2.57999992
   14.40916634   89.36299896    0.79000002    2.57999992
   14.41222191   92.96029663    0.79000002    2.57999992
   14.41555500   93.71880341    0.79000002    2.57999992
   14.41888905   97.53009796    0.79000002    2.57999992
   14.41944504   94.22280121    0.79000002    2.57999992
   14.42250061   88.98229980    0.79000002    2.57999992
   14.42555618   93.80460358    0.79000002    2.57999992
   14.42888927   94.94750214    0.79000002    2.57999992
   14.43472195   94.94750214    0.79000002    2.57999992
   14.43888855   86.01529694    0.79000002    2.57999992
   14.44222260   98.52629852    0.79000002    2.57999992
   14.44555569   90.48490143    0.79000002    2.57999992
   14.44861126   96.20320129    0.79000002    2.57999992
   14.45194435   88.63249969    0.79000002    2.57999992
   14.45277786   94.61060333    0.79000002    2.57999992
   14.45555496  100.23400116    0.79000002    2.57999992
   14.45861053   98.32309723    0.79000002    2.57999992
   14.46194458   91.72280121    0.79000002    2.57999992
   14.46527767  103.56800079    0.79000002    2.57999992
   14.46833324   92.43190002    0.79000002    2.57999992
   14.47166634   92.07039642    0.79000002    2.57999992
   14.47777748   92.07039642    0.79000002    2.57999992
   14.48194408  101.02899933    0.79000002    2.57999992
   14.48500061   96.69629669    0.79000002    2.57999992
   14.48611164   96.32260132    0.79000002    2.57999992
   14.48861122   97.77950287    0.79000002    2.57999992
   14.49166679   94.19400024    0.79000002    2.57999992
   14.49499989   89.13189697    0.79000002    2.57999992
   14.49833393   96.18039703    0.79000002    2.57999992
   14.50138855  102.97799683    0.79000002    2.57999992
   14.50472260   99.22219849    0.79000002    2.57999992
   14.50777817   99.67250061    0.79000002    2.57999992
   14.51111126  102.06600189    0.79000002    2.57999992
   14.51444435   99.99150085    0.79000002    2.57999992
   14.52055550   99.99150085    0.79000002    2.57999992
   14.52472210  113.66200256    0.79000002    2.57999992
   14.52805519  103.67900085    0.79000002    2.57999992
   14.53111076  107.53399658    0.79000002    2.57999992
   14.53444481   98.84700012    0.79000002    2.57999992
   14.53750038   96.24389648    0.79000002    2.57999992
   14.54083347  105.33499908    0.79000002    2.57999992
   14.54416752   98.37870026    0.79000002    2.57999992
   14.54750061  111.87100220    0.79000002    2.57999992
   14.55055618   94.82820129    0.79000002    2.57999992
   14.55277824  105.26200104    0.79000002    2.57999992
   14.55416679  102.99900055    0.79000002    2.57999992
   14.55722237  101.83100128    0.79000002    2.57999992
   14.56333351  101.83100128    0.79000002    2.57999992
   14.56750011   93.80989838    0.79000002    2.57999992
   14.57083321   96.14510345    0.79000002    2.57999992
   14.57388878   93.11150360    0.79000002    2.57999992
   14.57722187  103.33100128    0.79000002    2.57999992
   14.58055592  104.45500183    0.79000002    2.57999992
   14.58361053  104.72399902    0.79000002    2.57999992
   14.58611107   98.83280182    0.79000002    2.57999992
   14.58722210  110.56300354    0.79000002    2.57999992
   14.59027767   97.30560303    0.79000002    2.57999992
   14.59361076   92.84400177    0.79000002    2.57999992
   14.59694386   91.93409729    0.79000002    2.57999992
   14.60000038  114.35700226    0.79000002    2.57999992
   14.60611153  114.35700226    0.79000002    2.57999992
   14.61027813   99.79830170    0.79000002    2.57999992
   14.61361122   96.12449646    0.79000002    2.57999992
   14.61694431  101.73100281    0.79000002    2.57999992
   14.61944485   95.09760284    0.79000002    2.57999992
   14.62055588  101.22200012    0.79000002    2.57999992
   14.62361145   92.27469635    0.79000002    2.57999992
   14.62694454  102.69499969    0.79000002    2.57999992
   14.63027763   98.94640350    0.79000002    2.57999992
   14.63333321   99.07510376    0.79000002    2.57999992
   14.63666630   92.18329620    0.79000002    2.57999992
   14.64000034   97.72720337    0.79000002    2.57999992
   14.64305496  100.38899994    0.79000002    2.57999992
   14.64916611  100.38899994    0.79000002    2.57999992
   14.65333271   95.15360260    0.79000002    2.57999992
   14.65638828  104.04000092    0.79000002    2.57999992
   14.65972137  109.19899750    0.79000002    2.57999992
   14.66305542   98.39430237    0.79000002    2.57999992
   14.66611099  121.43900299    0.79000002    2.57999992
   14.66944504  116.18499756    0.79000002    2.57999992
   14.67250061  106.22899628    0.79000002    2.57999992
   14.67583370  146.19299316    0.79000002    2.57999992
   14.67916679  141.71400452    0.79000002    2.57999992
   14.68222237  114.52500153    0.79000002    2.57999992
   14.68555546  116.75800323    0.79000002    2.57999992
   14.68611145  113.08899689    0.79000002    2.57999992
   14.69194412  113.08899689    0.79000002    2.57999992
   14.69611073  159.10400391    0.79000002    2.57999992
   14.69944477  110.26000214    0.79000002    2.57999992
   14.70249939  102.31500244    0.79000002    2.57999992
   14.70583344   97.33930206    0.79000002    2.57999992
   14.70888901  102.36900330    0.79000002    2.57999992
   14.71222210  101.07800293    0.79000002    2.57999992
   14.71555519   98.76799774    0.79000002    2.57999992
   14.71861076  108.72399902    0.79000002    2.57999992
   14.71944427   93.95749664    0.79000002    2.57999992
   14.72222137   99.08319855    0.79000002    2.57999992
   14.72555542   94.27259827    0.79000002    2.57999992
   14.72861099   94.07140350    0.79000002    2.57999992
   14.73472214   94.07140350    0.79000002    2.57999992
   14.73888874   92.73889923    0.79000002    2.57999992
   14.74222279   84.84120178    0.79000002    2.57999992
   14.74527836   91.06050110    0.79000002    2.57999992
   14.74861145   98.65239716    0.79000002    2.57999992
   14.75194454   88.61979675    0.79000002    2.57999992
   14.75277805   93.26709747    0.79000002    2.57999992
   14.75555515   94.19110107    0.79000002    2.57999992
   14.75888920   94.44640350    0.79000002    2.57999992
   14.76194477   96.30210114    0.79000002    2.57999992
   14.76527786   93.08010101    0.79000002    2.57999992
   14.76833344   93.61540222    0.79000002    2.57999992
   14.77166653   93.18900299    0.79000002    2.57999992
   14.77777767   93.18900299    0.79000002    2.57999992
   14.78166676  100.09100342    0.79000002    2.57999992
   14.78500080  103.07800293    0.79000002    2.57999992
   14.78611183   90.65470123    0.79000002    2.57999992
   14.78861141   95.55229950    0.79000002    2.57999992
   14.79194450   96.81670380    0.79000002    2.57999992
   14.79500008   91.08899689    0.79000002    2.57999992
   14.79833412   92.01470184    0.79000002    2.57999992
   14.80166721  100.40100098    0.79000002    2.57999992
   14.80472279   92.34400177    0.79000002    2.57999992
   14.80805588   93.66089630    0.79000002    2.57999992
   14.81138897   98.14900208    0.79000002    2.57999992
   14.81444454   93.29730225    0.79000002    2.57999992
   14.82055569   93.29730225    0.79000002    2.57999992
   14.82472229  100.88899994    0.79000002    2.57999992
   14.82777786   94.33820343    0.79000002    2.57999992
   14.83111095   94.06490326    0.79000002    2.57999992
   14.83444405   93.97070313    0.79000002    2.57999992
   14.83749962   92.31980133    0.79000002    2.57999992
   14.84083271   92.34100342    0.79000002    2.57999992
   14.84388828  103.79399872    0.79000002    2.57999992
   14.84722233  103.79699707    0.79000002    2.57999992
   14.85055637   93.35669708    0.79000002    2.57999992
   14.85277843   92.98629761    0.79000002    2.57999992
   14.85416698   94.72689819    0.79000002    2.57999992
   14.85750008   89.36150360    0.79000002    2.57999992
   14.86333370   89.36150360    0.79000002    2.57999992
   14.86750031   94.09700012    0.79000002    2.57999992
   14.87055588   91.33029938    0.79000002    2.57999992
   14.87388897   95.36620331    0.79000002    2.57999992
   14.87722206   91.30139923    0.79000002    2.57999992
   14.88027763   92.60910034    0.79000002    2.57999992
   14.88361073   98.16999817    0.79000002    2.57999992
   14.88611126   98.30329895    0.79000002    2.57999992
   14.88722229   96.41760254    0.79000002    2.57999992
   14.89055538   94.29470062    0.79000002    2.57999992
   14.89361095   92.56790161    0.79000002    2.57999992
   14.89694405   96.76950073    0.79000002    2.57999992
   14.89999962   89.08910370    0.79000002    2.57999992
   14.90611076   89.08910370    0.79000002    2.57999992
   14.91027737   94.75440216    0.79000002    2.57999992
   14.91361046  105.98999786    0.79000002    2.57999992
   14.91666698  100.92299652    0.79000002    2.57999992
   14.91944504   98.53780365    0.79000002    2.57999992
   14.92027855   97.65910339    0.79000002    2.57999992
   14.92361164   93.13990021    0.79000002    2.57999992
   14.92666721   94.12740326    0.79000002    2.57999992
   14.93000031   99.01260376    0.79000002    2.57999992
   14.93305588   95.40730286    0.79000002    2.57999992
   14.93638897   89.38230133    0.79000002    2.57999992
   14.93972206   91.72550201    0.79000002    2.57999992
   14.94277763   91.79239655    0.79000002    2.57999992
   14.94916630   91.79239655    0.79000002    2.57999992
   14.95305538   95.53320313    0.79000002    2.57999992
   14.95638847  102.10900116    0.79000002    2.57999992
   14.95972157  100.46600342    0.79000002    2.57999992
   14.96277714  100.45400238    0.79000002    2.57999992
   14.96611118   97.02059937    0.79000002    2.57999992
   14.96944427   89.78240204    0.79000002    2.57999992
   14.97249985   90.53790283    0.79000002    2.57999992
   14.97583294   86.14050293    0.79000002    2.57999992
   14.97888851   85.93049622    0.79000002    2.57999992
   14.98222160   92.47470093    0.79000002    2.57999992
   14.98555565   94.22979736    0.79000002    2.57999992
   14.98611164   89.61430359    0.79000002    2.57999992
   14.99194431   89.61430359    0.79000002    2.57999992
   14.99611092   93.64720154    0.79000002    2.57999992
   14.99916649   91.09609985    0.79000002    2.57999992
   15.00249958   96.25679779    0.79000002    2.57999992
   15.00555515   92.73780060    0.79000002    2.57999992
   15.00888920   89.66339874    0.79000002    2.57999992
   15.01222229   94.59339905    0.79000002    2.57999992
   15.01527786   89.29660034    0.79000002    2.57999992
   15.01861095   85.43759918    0.79000002    2.57999992
   15.01944447   97.35549927    0.79000002    2.57999992
   15.02222157   99.14219666    0.79000002    2.57999992
   15.02555561   97.80970001    0.79000002    2.57999992
   15.02861118   93.51119995    0.79000002    2.57999992
   15.03472233   93.51119995    0.79000002    2.57999992
   15.03888893   97.42299652    0.79000002    2.57999992
   15.04194450  100.27300262    0.79000002    2.57999992
   15.04527855  103.74199677    0.79000002    2.57999992
   15.04861164   97.41439819    0.79000002    2.57999992
   15.05166721  105.52100372    0.79000002    2.57999992
   15.05277824  103.03500366    0.79000002    2.57999992
   15.05527782  100.51999664    0.79000002    2.57999992
   15.05861092   96.99939728    0.79000002    2.57999992
   15.06166649  105.31600189    0.79000002    2.57999992
   15.06500053   97.16539764    0.79000002    2.57999992
   15.06833363   98.25679779    0.79000002    2.57999992
   15.07138920   91.39270020    0.79000002    2.57999992
   15.07750034   91.39270020    0.79000002    2.57999992
   15.08166695   97.89730072    0.79000002    2.57999992
   15.08500004   92.16500092    0.79000002    2.57999992
   15.08611107   97.12920380    0.79000002    2.57999992
   15.08861065   94.46929932    0.79000002    2.57999992
   15.09194374   88.95690155    0.79000002    2.57999992
   15.09499931   90.92389679    0.79000002    2.57999992
   15.09833336   91.65160370    0.79000002    2.57999992
   15.10166740   95.51360321    0.79000002    2.57999992
   15.10472298   91.94200134    0.79000002    2.57999992
   15.10805607   95.95649719    0.79000002    2.57999992
   15.11111164   89.33399963    0.79000002    2.57999992
   15.11444473   97.73739624    0.79000002    2.57999992
   15.12027836   97.73739624    0.79000002    2.57999992
   15.12444496   97.16110229    0.79000002    2.57999992
   15.12777805  101.68800354    0.79000002    2.57999992
   15.13111115   86.50520325    0.79000002    2.57999992
   15.13416672   96.46579742    0.79000002    2.57999992
   15.13749981   93.01770020    0.79000002    2.57999992
   15.14083290   98.33460236    0.79000002    2.57999992
   15.14388847   91.29879761    0.79000002    2.57999992
   15.14722252   91.09609985    0.79000002    2.57999992
   15.15055561   94.20829773    0.79000002    2.57999992
   15.15277767   90.74970245    0.79000002    2.57999992
   15.15388870   91.62920380    0.79000002    2.57999992
   15.15722179   87.75389862    0.79000002    2.57999992
   15.16333294   87.75389862    0.79000002    2.57999992
   15.16750050   95.16419983    0.79000002    2.57999992
   15.17055607   91.10720062    0.79000002    2.57999992
   15.17388916   89.26550293    0.79000002    2.57999992
   15.17694473   88.02100372    0.79000002    2.57999992
   15.18027782   94.73359680    0.79000002    2.57999992
   15.18361092   89.42299652    0.79000002    2.57999992
   15.18638897   87.74569702    0.79000002    2.57999992
   15.18722248   91.75949860    0.79000002    2.57999992
   15.19055557   91.36789703    0.79000002    2.57999992
   15.19361115   89.50399780    0.79000002    2.57999992
   15.19694424   90.66459656    0.79000002    2.57999992
   15.20027733   86.39679718    0.79000002    2.57999992
   15.20611095   86.39679718    0.79000002    2.57999992
   15.21027756   90.58740234    0.79000002    2.57999992
   15.21361065   93.49359894    0.79000002    2.57999992
   15.21666622   88.26709747    0.79000002    2.57999992
   15.21972179   90.47480011    0.79000002    2.57999992
   15.22027779   91.29720306    0.79000002    2.57999992
   15.22361088   88.71849823    0.79000002    2.57999992
   15.22666645   89.09780121    0.79000002    2.57999992
   15.22999954   92.70459747    0.79000002    2.57999992
   15.23333359   89.33209991    0.79000002    2.57999992
   15.23638916   92.91089630    0.79000002    2.57999992
   15.23972225   93.60510254    0.79000002    2.57999992
   15.24305534   92.04219818    0.79000002    2.57999992
   15.24888897   92.04219818    0.79000002    2.57999992
   15.25305557   90.06109619    0.79000002    2.57999992
   15.25638866   86.59539795    0.79000002    2.57999992
   15.25944424   93.48049927    0.79000002    2.57999992
   15.26277733   91.87220001    0.79000002    2.57999992
   15.26611137   92.17109680    0.79000002    2.57999992
   15.26916599   90.94850159    0.79000002    2.57999992
   15.27250004   91.12789917    0.79000002    2.57999992
   15.27583313   89.05729675    0.79000002    2.57999992
   15.27888870  102.01899719    0.79000002    2.57999992
   15.28222179   91.34040070    0.79000002    2.57999992
   15.28527832   89.82070160    0.79000002    2.57999992
   15.28638935   93.68579865    0.79000002    2.57999992
   15.30694485   93.68579865    0.79000002    2.57999992
   15.31111145   85.85639954    0.79000002    2.57999992
   15.31416702   87.83570099    0.79000002    2.57999992
   15.31750011   87.89129639    0.79000002    2.57999992
   15.31944466   84.73349762    0.79000002    2.57999992
   15.32111073   88.33000183    0.79000002    2.57999992
   15.32444477   87.06189728    0.79000002    2.57999992
   15.32750034   90.19190216    0.79000002    2.57999992
   15.33083344   82.43689728    0.79000002    2.57999992
   15.33416653   89.02839661    0.79000002    2.57999992
   15.33722210   82.84369659    0.79000002    2.57999992
   15.34055519   85.66760254    0.79000002    2.57999992
   15.34361076   89.12169647    0.79000002    2.57999992
   15.34972191   89.12169647    0.79000002    2.57999992
   15.35388947   91.20079803    0.79000002    2.57999992
   15.35694504   93.72209930    0.79000002    2.57999992
   15.36027813   93.44730377    0.79000002    2.57999992
   15.36361122   94.93609619    0.79000002    2.57999992
   15.36666679   87.85549927    0.79000002    2.57999992
   15.36999989   88.80239868    0.79000002    2.57999992
   15.37333393   93.65830231    0.79000002    2.57999992
   15.37638855   94.05359650    0.79000002    2.57999992
   15.37972260   86.66130066    0.79000002    2.57999992
   15.38277817   86.89389801    0.79000002    2.57999992
   15.38611126   94.63520050    0.79000002    2.57999992
   15.38666630   89.26409912    0.79000002    2.57999992
   15.39249992   89.26409912    0.79000002    2.57999992
   15.39666653   89.83560181    0.79000002    2.57999992
   15.39999962   88.53659821    0.79000002    2.57999992
   15.40305519   88.92299652    0.79000002    2.57999992
   15.40638828   89.81030273    0.79000002    2.57999992
   15.40972137   87.70189667    0.79000002    2.57999992
   15.41277695   86.32520294    0.79000002    2.57999992
   15.41611099   93.79979706    0.79000002    2.57999992
   15.41916656   87.15550232    0.79000002    2.57999992
   15.42000008   93.74549866    0.79000002    2.57999992
   15.42305565   89.37789917    0.79000002    2.57999992
   15.42611122   88.34729767    0.79000002    2.57999992
   15.42944431   90.05999756    0.79000002    2.57999992
   15.43527794   90.05999756    0.79000002    2.57999992
   15.43944454   87.28029633    0.79000002    2.57999992
   15.44277763   86.91179657    0.79000002    2.57999992
   15.44611073   85.77790070    0.79000002    2.57999992
   15.44916630   87.26820374    0.79000002    2.57999992
   15.45249939   92.47979736    0.79000002    2.57999992
   15.45333290   89.88520050    0.79000002    2.57999992
   15.45611095   97.90129852    0.79000002    2.57999992
   15.45916653   89.53880310    0.79000002    2.57999992
   15.46249962   90.68340302    0.79000002    2.57999992
   15.46583271   82.16690063    0.79000002    2.57999992
   15.46888828   90.61399841    0.79000002    2.57999992
   15.47222137   93.81620026    0.79000002    2.57999992
   15.47833252   93.81620026    0.79000002    2.57999992
   15.48249912   98.03260040    0.79000002    2.57999992
   15.48555565   94.85410309    0.79000002    2.57999992
   15.48666668   98.91449738    0.79000002    2.57999992
   15.48944473   96.02420044    0.79000002    2.57999992
   15.49250031   91.50589752    0.79000002    2.57999992
   15.49583340   94.60389709    0.79000002    2.57999992
   15.49916649   93.56749725    0.79000002    2.57999992
   15.50222206   95.37719727    0.79000002    2.57999992
   15.50555515  103.27200317    0.79000002    2.57999992
   15.50861073   95.00859833    0.79000002    2.57999992
   15.51194477   88.21230316    0.79000002    2.57999992
   15.51527786   96.64019775    0.79000002    2.57999992
   15.52111053   96.64019775    0.79000002    2.57999992
   15.52527714   94.64949799    0.79000002    2.57999992
   15.52861118   93.63400269    0.79000002    2.57999992
   15.53166676  109.77999878    0.79000002    2.57999992
   15.53500080  101.22399902    0.79000002    2.57999992
   15.53805637  105.51899719    0.79000002    2.57999992
   15.54138947   98.35399628    0.79000002    2.57999992
   15.54472256   96.21549988    0.79000002    2.57999992
   15.54777813   98.38289642    0.79000002    2.57999992
   15.55111122   89.80300140    0.79000002    2.57999992
   15.55333328  102.71800232    0.79000002    2.57999992
   15.55444431  105.60399628    0.79000002    2.57999992
   15.55777836   99.41519928    0.79000002    2.57999992
   15.56388950   99.41519928    0.79000002    2.57999992
   15.56805515   95.30410004    0.79000002    2.57999992
   15.57138920   97.55989838    0.79000002    2.57999992
   15.57444477   93.91230011    0.79000002    2.57999992
   15.57777786   98.94309998    0.79000002    2.57999992
   15.58111095  103.73200226    0.79000002    2.57999992
   15.58416653   91.35970306    0.79000002    2.57999992
   15.58666611  104.24400330    0.79000002    2.57999992
   15.58805561   88.02339935    0.79000002    2.57999992
   15.59111118   98.42070007    0.79000002    2.57999992
   15.59444427   96.59790039    0.79000002    2.57999992
   15.59749985  104.77200317    0.79000002    2.57999992
   15.60083389   96.11409760    0.79000002    2.57999992
   15.60666752   96.11409760    0.79000002    2.57999992
   15.61083412  103.54799652    0.79000002    2.57999992
   15.61416721  101.09700012    0.79000002    2.57999992
   15.61750031   99.74980164    0.79000002    2.57999992
   15.61999989   96.02729797    0.79000002    2.57999992
   15.62111092  101.12999725    0.79000002    2.57999992
   15.62416649  101.94100189    0.79000002    2.57999992
   15.62750053  104.50499725    0.79000002    2.57999992
   15.63083363   94.09079742    0.79000002    2.57999992
   15.63388920  101.98200226    0.79000002    2.57999992
   15.63722229   92.81400299    0.79000002    2.57999992
   15.64027786  106.52200317    0.79000002    2.57999992
   15.64361095   99.99440002    0.79000002    2.57999992
   15.64972210   99.99440002    0.79000002    2.57999992
   15.65388870   98.83290100    0.79000002    2.57999992
   15.65694427   89.08460236    0.79000002    2.57999992
   15.66027737   90.51529694    0.79000002    2.57999992
   15.66361046   95.08910370    0.79000002    2.57999992
   15.66666698   98.03079987    0.79000002    2.57999992
   15.67000008   99.08809662    0.79000002    2.57999992
   15.67305565   95.83100128    0.79000002    2.57999992
   15.67638874   99.95809937    0.79000002    2.57999992
   15.67972279   89.61340332    0.79000002    2.57999992
   15.68277836   95.43699646    0.79000002    2.57999992
   15.68611145   91.30280304    0.79000002    2.57999992
   15.68666649   92.29740143    0.79000002    2.57999992
   15.69250011   92.29740143    0.79000002    2.57999992
