    HOUR (UT)   FLARE FACTOR    SKY TESTER    SUN TESTER
   11.61250019   -1.00000000   -1.00000000   -1.00000000
   11.65472221  208.28799438    0.00000000    0.00000000
   11.65805531  155.46800232    0.00000000    0.00000000
   11.66111088  304.08801270    0.00000000    0.00000000
   11.66305542  218.07800293    0.00000000    0.00000000
   11.66333294  155.46800232    0.00000000    0.00000000
   11.66333294  304.08801270    0.00000000    0.00000000
   11.67583370  202.54800415    0.00000000    0.00000000
   11.67916679  252.28900146    0.00000000    0.00000000
   11.68249989  191.86500549    0.00000000    0.00000000
   11.68555546  190.84100342    0.00000000    0.00000000
   11.68861103  211.67599487    0.00000000    0.00000000
   11.68916702  210.40899658    0.00000000    0.00000000
   11.69305515  210.40899658    0.00000000    0.00000000
   11.69722271  167.56900024    0.00000000    0.00000000
   11.70055580  222.33999634    0.00000000    0.00000000
   11.70388889  164.14799500    0.00000000    0.00000000
   11.70694447  168.12300110    0.00000000    0.00000000
   11.71027756  186.09500122    0.00000000    0.00000000
   11.71333313  171.56599426    0.00000000    0.00000000
   11.71666622  154.57400513    0.00000000    0.00000000
   11.71999931  166.17300415    0.00000000    0.00000000
   11.72194386  167.81700134    0.00000000    0.00000000
   11.72361088  180.18099976    0.00000000    0.00000000
   11.72666645  199.37600708    0.67000002    0.05000000
   11.72999954  202.13999939    0.67000002    0.05000000
   11.73611164  202.13999939    0.67000002    0.05000000
   11.74027824  261.85800171    0.67000002    0.05000000
   11.74333382  205.93600464    0.67000002    0.05000000
   11.74666691  203.31700134    0.67000002    0.05000000
   11.74972248  188.50399780    0.67000002    0.05000000
   11.75305557  185.53999329    0.67000002    0.05000000
   11.75527763  223.13600159    0.67000002    0.05000000
   11.75666714  198.31700134    0.67000002    0.05000000
   11.76000023  255.21000671    0.67000002    0.05000000
   11.76305580  371.23400879    0.67000002    0.05000000
   11.76500034  326.64199829    0.67000002    0.05000000
   11.76638889  388.37100220    0.67000002    0.05000000
   11.76777744  311.94601440    0.67000002    0.05000000
   11.76916599  418.55599976    0.67000002    0.05000000
   11.77055550  362.45199585    0.67000002    0.05000000
   11.77194405  362.79800415    0.67000002    0.05000000
   11.77333355  447.65899658    0.67000002    0.05000000
   11.77472210  375.99798584    0.67000002    0.05000000
   11.77611065  518.20501709    0.67000002    0.05000000
   11.77750015  398.27301025    0.67000002    0.05000000
   11.77805519  203.31700134    0.67000002    0.05000000
   11.77833271  188.50399780    0.67000002    0.05000000
   11.77833271  185.53999329    0.67000002    0.05000000
   11.77833271  198.31700134    0.67000002    0.05000000
   11.77833271  255.21000671    0.67000002    0.05000000
   11.77861118  371.23400879    0.67000002    0.05000000
   11.77861118  202.13999939    0.67000002    0.05000000
   11.77861118  261.85800171    0.67000002    0.05000000
   11.77861118  205.93600464    0.67000002    0.05000000
   11.78500080  314.33099365    0.67000002    0.05000000
   11.78833389  284.26901245    0.67000002    0.05000000
   11.78888893  319.94799805    0.67000002    0.05000000
   11.79194450  352.55300903    0.67000002    0.05000000
   11.79527855  337.10198975    0.67000002    0.05000000
   11.79833412  421.18200684    0.67000002    0.05000000
   11.80249977  421.18200684    0.67000002    0.05000000
   11.80666733  108.52799988    0.67000002    0.05000000
   11.81000042  391.41101074    0.67000002    0.05000000
   11.81305599  373.72399902    0.67000002    0.05000000
   11.81638908  331.67401123    0.67000002    0.05000000
   11.81972218  278.12600708    0.67000002    0.05000000
   11.82222176  470.23901367    0.67000002    0.05000000
   11.82305527  196.92999268    0.67000002    0.05000000
   11.82638836   -1.00000000    0.67000002    0.05000000
   11.82944393   67.25939941    0.67000002    0.05000000
   11.83277798  114.99500275    0.67000002    0.05000000
   11.83611107  389.80300903    0.67000002    0.05000000
   11.83916664  391.67999268    0.67000002    0.05000000
   11.84527779  391.67999268    0.67000002    0.05000000
   11.84944439   23.57019997    0.67000002    0.05000000
   11.85277843   55.80059814    0.67000002    0.05000000
   11.85555553   80.76439667    0.67000002    0.05000000
   11.85638905  104.28500366    0.67000002    0.05000000
   11.85972214  175.63499451    0.67000002    0.05000000
   11.86305618  121.33100128    0.67000002    0.05000000
   11.86611176  125.77100372    0.67000002    0.05000000
   11.86944485   -1.00000000    0.67000002    0.05000000
   11.87250042   -1.00000000   -1.00000000   -1.00000000
   11.87583351   -1.00000000    0.67000002    0.05000000
   11.87916660   -1.00000000    0.67000002    0.05000000
   11.88222218   -1.00000000    0.67000002    0.05000000
   11.88833332   -1.00000000    0.67000002    0.05000000
   11.89249992   -1.00000000    0.67000002    0.05000000
   11.89555550   -1.00000000    0.67000002    0.05000000
   11.89888859   89.71649933    0.67000002    0.05000000
   11.90194416   87.84449768    0.67000002    0.05000000
   11.90527725   79.73079681    0.67000002    0.05000000
   11.90861034   -1.00000000    0.67000002    0.05000000
   11.91166592  101.98300171    0.67000002    0.05000000
   11.91499996  116.04699707    0.67000002    0.05000000
   11.91833401   75.32189941    0.67000002    0.05000000
   11.92138958  109.98500061    0.67000002    0.05000000
   11.92333412  116.74700165    0.67000002    0.05000000
   11.92500019   87.98609924    0.67000002    0.05000000
   11.93111134   87.98609924    0.67000002    0.05000000
   11.93527794   57.81539917    0.67000002    0.05000000
   11.93833351   79.87190247    0.67000002    0.05000000
   11.94166660   79.13259888    0.67000002    0.05000000
   11.94499969   -1.00000000    0.67000002    0.05000000
   11.94805527   -1.00000000    0.67000002    0.05000000
   11.95138836   -1.00000000    0.67000002    0.05000000
   11.95472240   -1.00000000    0.67000002    0.05000000
   11.95805550   -1.00000000    0.67000002    0.05000000
   11.96138859   -1.00000000    0.67000002    0.05000000
   11.96444416   71.61239624    0.67000002    0.05000000
   11.96777725   -1.00000000   -1.00000000   -1.00000000
   11.97388840   -1.00000000   -1.00000000   -1.00000000
   11.97805500   -1.00000000    0.67000002    0.05000000
   11.98138809   -1.00000000    0.67000002    0.05000000
   11.98444462   -1.00000000    0.67000002    0.05000000
   11.98777771   -1.00000000    0.67000002    0.05000000
   11.99138927   -1.00000000    0.67000002    0.05000000
   11.99472237   -1.00000000    0.67000002    0.05000000
   11.99777794   -1.00000000    0.67000002    0.05000000
   12.00111103   -1.00000000    0.67000002    0.05000000
   12.00416660   -1.00000000    0.67000002    0.05000000
   12.00749969   -1.00000000    0.67000002    0.05000000
   12.01083374   -1.00000000    0.67000002    0.05000000
   12.02083302   -1.00000000    0.67000002    0.05000000
   12.02444458   -1.00000000    0.67000002    0.05000000
   12.02777767   -1.00000000    0.67000002    0.05000000
   12.03083324   -1.00000000    0.67000002    0.05000000
   12.03416729   -1.00000000    0.67000002    0.05000000
   12.03722286   -1.00000000    0.67000002    0.05000000
   12.04055595   -1.00000000    0.67000002    0.05000000
   12.04388905   -1.00000000    0.67000002    0.05000000
   12.04694462   -1.00000000    0.67000002    0.05000000
   12.05027771   -1.00000000    0.67000002    0.05000000
   12.05361176   -1.00000000    0.67000002    0.05000000
   12.06361103   -1.00000000    0.67000002    0.05000000
   12.06694412   -1.00000000    0.67000002    0.05000000
   12.07027817   -1.00000000    0.67000002    0.05000000
   12.07333374   -1.00000000    0.67000002    0.05000000
   12.07666683   -1.00000000    0.67000002    0.05000000
   12.07972240   -1.00000000    0.67000002    0.05000000
   12.08305550   -1.00000000    0.67000002    0.05000000
   12.08638859   -1.00000000    0.67000002    0.05000000
   12.08944416   -1.00000000    0.67000002    0.05000000
   12.09305477   -1.00000000    0.67000002    0.05000000
   12.09638882   -1.00000000    0.67000002    0.05000000
   12.10666752   -1.00000000    0.67000002    0.05000000
   12.10972214   -1.00000000    0.67000002    0.05000000
   12.11305618   -1.00000000    0.67000002    0.05000000
   12.11638927   -1.00000000    0.67000002    0.05000000
   12.11944485   -1.00000000    0.67000002    0.05000000
   12.12277794   -1.00000000    0.67000002    0.05000000
   12.12611103   -1.00000000    0.67000002    0.05000000
   12.12944412   -1.00000000    0.67000002    0.05000000
   12.13277817   -1.00000000    0.67000002    0.05000000
   12.13583279   -1.00000000    0.67000002    0.05000000
   12.13916683   -1.00000000    0.67000002    0.05000000
   12.14944458   -1.00000000    0.67000002    0.05000000
   12.15277767   -1.00000000    0.67000002    0.05000000
   12.15583324   -1.00000000    0.67000002    0.05000000
   12.15944386   -1.00000000    0.67000002    0.05000000
   12.16277695   -1.00000000    0.67000002    0.05000000
   12.16583252   -1.00000000    0.67000002    0.05000000
   12.16916656   -1.00000000    0.67000002    0.05000000
   12.17250061   -1.00000000    0.67000002    0.05000000
   12.17555618   -1.00000000    0.67000002    0.05000000
   12.17888927   -1.00000000    0.67000002    0.05000000
   12.18222237   -1.00000000    0.67000002    0.05000000
   12.19222260   -1.00000000    0.67000002    0.05000000
   12.19555569   -1.00000000    0.67000002    0.05000000
   12.19861126   -1.00000000    0.67000002    0.05000000
   12.20194435   -1.00000000    0.67000002    0.05000000
   12.20527744   -1.00000000    0.67000002    0.05000000
   12.20833302   -1.00000000    0.67000002    0.05000000
   12.21166611   -1.00000000    0.67000002    0.05000000
   12.21500015   -1.00000000    0.67000002    0.05000000
   12.21805477   -1.00000000    0.67000002    0.05000000
   12.22138882   -1.00000000    0.67000002    0.05000000
   12.22472191   -1.00000000    0.67000002    0.05000000
   12.23500061   -1.00000000    0.67000002    0.05000000
   12.23833370   -1.00000000    0.67000002    0.05000000
   12.24166679   -1.00000000    0.67000002    0.05000000
   12.24472237   -1.00000000    0.67000002    0.05000000
   12.24805546   -1.00000000    0.67000002    0.05000000
   12.25111103   -1.00000000    0.67000002    0.05000000
   12.25444412   -1.00000000    0.67000002    0.05000000
   12.25805569   -1.00000000    0.67000002    0.05000000
   12.26138878   -1.00000000    0.67000002    0.05000000
   12.26444435   -1.00000000    0.67000002    0.05000000
   12.26777744   -1.00000000    0.67000002    0.05000000
   12.27805519   -1.00000000    0.67000002    0.05000000
   12.28111076   -1.00000000    0.67000002    0.05000000
   12.28444481   -1.00000000    0.67000002    0.05000000
   12.28750038   -1.00000000    0.67000002    0.05000000
   12.29111195   -1.00000000    0.67000002    0.05000000
   12.29444504   -1.00000000    0.67000002    0.05000000
   12.29750061   -1.00000000    0.67000002    0.05000000
   12.30083370   -1.00000000    0.67000002    0.05000000
   12.30416679   -1.00000000    0.67000002    0.05000000
   12.30722237   -1.00000000    0.67000002    0.05000000
   12.31055546   -1.00000000    0.67000002    0.05000000
   12.32083321   -1.00000000    0.67000002    0.05000000
   12.32416630   -1.00000000    0.67000002    0.05000000
   12.32777786   -1.00000000    0.67000002    0.05000000
   12.33083344   -1.00000000    0.67000002    0.05000000
   12.33416653   -1.00000000    0.67000002    0.05000000
   12.33749962   -1.00000000    0.67000002    0.05000000
   12.34055519   -1.00000000    0.67000002    0.05000000
   12.34388828   -1.00000000    0.67000002    0.05000000
   12.34722233   -1.00000000    0.67000002    0.05000000
   12.35027790   -1.00000000    0.67000002    0.05000000
   12.35361195   -1.00000000    0.67000002    0.05000000
   12.36361122   -1.00000000    0.67000002    0.05000000
   12.36694431   -1.00000000    0.67000002    0.05000000
   12.36999989  151.73899841    0.67000002    0.05000000
   12.37333393  341.47799683    0.67000002    0.05000000
   12.37666702  110.53399658    0.67000002    0.05000000
   12.37972260  484.17800903    0.67000002    0.05000000
   12.38305569   -1.00000000    0.67000002    0.05000000
   12.38611126   -1.00000000    0.67000002    0.05000000
   12.38944435   -1.00000000    0.67000002    0.05000000
   12.39305496   -1.00000000    0.67000002    0.05000000
   12.39611053   -1.00000000    0.67000002    0.05000000
   12.40638828   -1.00000000    0.67000002    0.05000000
   12.40972137   -1.00000000    0.67000002    0.05000000
   12.41305542   -1.00000000    0.67000002    0.05000000
   12.41611099   -1.00000000    0.67000002    0.05000000
   12.41944504   -1.00000000    0.67000002    0.05000000
   12.42250061   68.60189819    0.67000002    0.05000000
   12.42444515   39.68349838    0.67000002    0.05000000
   12.42611122  108.00399780    0.67000002    0.05000000
   12.42944431  248.81900024    0.67000002    0.05000000
   12.43249989  414.84698486    0.67000002    0.05000000
   12.43583298  505.70901489    0.67000002    0.05000000
   12.43777752  383.92800903    0.67000002    0.05000000
   12.43916702  410.97601318    0.67000002    0.05000000
   12.44055557  450.90899658    0.67000002    0.05000000
   12.44194412  357.67599487    0.67000002    0.05000000
   12.44333363  219.65199280    0.67000002    0.05000000
   12.44333363   -1.00000000    0.67000002    0.05000000
   12.44333363   -1.00000000    0.67000002    0.05000000
   12.44333363   68.60189819    0.67000002    0.05000000
   12.44361115  108.00399780    0.67000002    0.05000000
   12.44361115  248.81900024    0.67000002    0.05000000
   12.44361115  414.84698486    0.67000002    0.05000000
   12.44361115  505.70901489    0.67000002    0.05000000
   12.44361115   -1.00000000    0.67000002    0.05000000
   12.44388866   -1.00000000    0.67000002    0.05000000
   12.44444466  174.43099976    0.67000002    0.05000000
   12.44750023  177.59300232    0.67000002    0.05000000
   12.45083332  181.61700439    0.67000002    0.05000000
   12.45416641  186.14799500    0.67000002    0.05000000
   12.45722198  192.04899597    0.67000002    0.05000000
   12.46416664  192.04899597    0.67000002    0.05000000
   12.46805477  205.84100342    0.67000002    0.05000000
   12.47722149  177.23699951    0.67000002    0.05000000
   12.48055553  209.77499390    0.67000002    0.05000000
   12.48361111  177.56599426    0.67000002    0.05000000
   12.48694515  205.31500244    0.67000002    0.05000000
   12.49027824  169.62899780    0.67000002    0.05000000
   12.49333382  166.64399719    0.67000002    0.05000000
   12.49750042  166.64399719    0.67000002    0.05000000
   12.50166702  184.24000549    0.67000002    0.05000000
   12.50500011  195.26300049    0.67000002    0.05000000
   12.50805569  170.73399353    0.67000002    0.05000000
   12.51055527  169.08999634    0.67000002    0.05000000
   12.51166630  169.04400635    0.67000002    0.05000000
   12.51472187  181.13499451    0.67000002    0.05000000
   12.51805496  210.27799988    0.67000002    0.05000000
   12.52138901  200.29499817    0.67000002    0.05000000
   12.52444458  177.77400208    0.67000002    0.05000000
   12.52777767  167.84500122    0.67000002    0.05000000
   12.53083324  158.59399414    0.67000002    0.05000000
   12.53416729  190.12899780    0.67000002    0.05000000
   12.54027843  190.12899780    0.67000002    0.05000000
   12.54444504  160.05999756    0.67000002    0.05000000
   12.54777813  149.71400452    0.67000002    0.05000000
   12.55083370  150.82400513    0.67000002    0.05000000
   12.55416679  154.77000427    0.67000002    0.05000000
   12.55749989  157.62300110    0.67000002    0.05000000
   12.56055546  153.72200012    0.67000002    0.05000000
   12.56388950  151.90499878    0.67000002    0.05000000
   12.56722260  160.95799255    0.67000002    0.05000000
   12.57027817  160.86599731    0.67000002    0.05000000
   12.57361126  168.41999817    0.67000002    0.05000000
   12.57666683  155.77499390    0.67000002    0.05000000
   12.57722187  151.93800354    0.67000002    0.05000000
   12.58333302  151.93800354    0.67000002    0.05000000
   12.58722210  154.99400330    0.67000002    0.05000000
   12.59055519  153.33099365    0.67000002    0.05000000
   12.59388828  154.45799255    0.67000002    0.05000000
   12.59694386  141.45799255    0.67000002    0.05000000
   12.60027790  146.45799255    0.67000002    0.05000000
   12.60361195  174.68899536    0.67000002    0.05000000
   12.60666752  140.67999268    0.67000002    0.05000000
   12.61000061  191.39599609    0.67000002    0.05000000
   12.61055565  193.51600647    0.67000002    0.05000000
   12.61361122  119.57599640    0.67000002    0.05000000
   12.61666679  213.44599915    0.67000002    0.05000000
   12.61999989   76.97669983    0.67000002    0.05000000
   12.62611103   76.97669983    0.67000002    0.05000000
   12.63027763  303.64700317    0.67000002    0.05000000
   12.63333321   -1.00000000    0.67000002    0.05000000
   12.63666630  201.20700073    0.67000002    0.05000000
   12.64000034  253.17999268    0.67000002    0.05000000
   12.64333344  332.47500610    0.67000002    0.05000000
   12.64388847  374.79400635    0.67000002    0.05000000
   12.64694405  227.89599609    0.67000002    0.05000000
   12.65027714  212.33200073    0.67000002    0.05000000
   12.65333271  187.04200745    0.67000002    0.05000000
   12.65666676  175.14799500    0.67000002    0.05000000
   12.65972137  155.91099548    0.67000002    0.05000000
   12.66305542  150.27900696    0.67000002    0.05000000
   12.66888905  150.27900696    0.67000002    0.05000000
   12.67305565  177.54699707    0.67000002    0.05000000
   12.67611122  419.86599731    0.67000002    0.05000000
   12.67833328  383.79901123    0.67000002    0.05000000
   12.67944431  364.83099365    0.67000002    0.05000000
   12.68083382  400.21798706    0.67000002    0.05000000
   12.68222237  342.39199829    0.67000002    0.05000000
   12.68361092  345.36801147    0.67000002    0.05000000
   12.68500042  340.35699463    0.67000002    0.05000000
   12.68638897  457.21499634    0.67000002    0.05000000
   12.68777752  328.14300537    0.67000002    0.05000000
   12.68916702  272.58599854    0.67000002    0.05000000
   12.69055557  257.11898804    0.67000002    0.05000000
   12.69194412  213.53500366    0.67000002    0.05000000
   12.69194412  187.04200745    0.67000002    0.05000000
   12.69222260  175.14799500    0.67000002    0.05000000
   12.69222260  155.91099548    0.67000002    0.05000000
   12.69222260  150.27900696    0.67000002    0.05000000
   12.69222260  177.54699707    0.67000002    0.05000000
   12.69250011  419.86599731    0.67000002    0.05000000
   12.69250011  332.47500610    0.67000002    0.05000000
   12.69250011  227.89599609    0.67000002    0.05000000
   12.69250011  212.33200073    0.67000002    0.05000000
   12.69305515  239.23800659    0.67000002    0.05000000
   12.69638920  227.96899414    0.67000002    0.05000000
   12.69944477  208.31700134    0.67000002    0.05000000
   12.70277786  203.12699890    0.67000002    0.05000000
   12.70611095  182.62199402    0.67000002    0.05000000
   12.71277714  182.62199402    0.67000002    0.05000000
   12.71694374  164.30099487    0.67000002    0.05000000
   12.72027779  167.09899902    0.67000002    0.05000000
   12.72333336  162.25999451    0.67000002    0.05000000
   12.72583294  165.43099976    0.67000002    0.05000000
   12.72694397  169.43200684    0.67000002    0.05000000
   12.72999954  148.77900696    0.67000002    0.05000000
   12.73333359  157.48599243    0.67000002    0.05000000
   12.73638916  170.02699280    0.67000002    0.05000000
   12.73972225  146.30099487    0.67000002    0.05000000
   12.74305534  150.89599609    0.67000002    0.05000000
   12.74611092  154.72900391    0.67000002    0.05000000
   12.74944496  149.34100342    0.67000002    0.05000000
   12.75555515  149.34100342    0.67000002    0.05000000
   12.75972176  158.32200623    0.67000002    0.05000000
   12.76305580  152.81399536    0.67000002    0.05000000
   12.76611137  154.55000305    0.67000002    0.05000000
   12.76944447  178.01100159    0.67000002    0.05000000
   12.77277756  170.93299866    0.67000002    0.05000000
   12.77583313  197.84199524    0.67000002    0.05000000
   12.77916622  254.04100037    0.67000002    0.05000000
   12.78222179  196.36300659    0.67000002    0.05000000
   12.78555584  173.53399658    0.67000002    0.05000000
   12.78888893  216.23699951    0.67000002    0.05000000
   12.79194450  231.15100098    0.67000002    0.05000000
   12.79250050  230.74000549    0.67000002    0.05000000
   12.79888916  230.74000549    0.67000002    0.05000000
   12.80305576  228.04200745    0.67000002    0.05000000
   12.80611134  234.81599426    0.67000002    0.05000000
   12.80944443   61.71340179    0.67000002    0.05000000
   12.81277752  344.56500244    0.67000002    0.05000000
   12.81583309  209.77900696    0.67000002    0.05000000
   12.81916618  291.93200684    0.67000002    0.05000000
   12.82222176  230.05099487    0.67000002    0.05000000
   12.82555580  294.54699707    0.67000002    0.05000000
   12.82611084  300.93099976    0.67000002    0.05000000
   12.82944393   -1.00000000    0.67000002    0.05000000
   12.83249950   -1.00000000    0.67000002    0.05000000
   12.83583260   -1.00000000    0.67000002    0.05000000
   12.84138870   -1.00000000    0.67000002    0.05000000
   12.84555531  262.79998779    0.67000002    0.05000000
   12.84861088  172.64900208    0.67000002    0.05000000
   12.85194492  235.33700562    0.67000002    0.05000000
   12.85527802  470.48800659    0.67000002    0.05000000
   12.85722256   83.24669647    0.67000002    0.05000000
   12.85722256   -1.00000000    0.67000002    0.05000000
   12.85722256   -1.00000000    0.67000002    0.05000000
   12.85750008  262.79998779    0.67000002    0.05000000
   12.85750008  172.64900208    0.67000002    0.05000000
   12.85750008  235.33700562    0.67000002    0.05000000
   12.85750008  470.48800659    0.67000002    0.05000000
   12.85777855  230.05099487    0.67000002    0.05000000
   12.85777855  294.54699707    0.67000002    0.05000000
   12.85777855   -1.00000000    0.67000002    0.05000000
   12.85972214  369.24899292    0.67000002    0.05000000
   12.86166668  269.39001465    0.67000002    0.05000000
   12.86305618  263.23599243    0.67000002    0.05000000
   12.86444473  358.62100220    0.67000002    0.05000000
   12.86583328  457.31698608    0.67000002    0.05000000
   12.86722279  307.60400391    0.67000002    0.05000000
   12.86861134  398.78100586    0.67000002    0.05000000
   12.87027836  327.94500732    0.67000002    0.05000000
   12.87138939  350.86599731    0.67000002    0.05000000
   12.87277794  222.03999329    0.67000002    0.05000000
   12.87277794  369.24899292    0.67000002    0.05000000
   12.87333393  197.39100647    0.67000002    0.05000000
   12.87666702  224.16299438    0.67000002    0.05000000
   12.87972260  224.22200012    0.67000002    0.05000000
   12.88305569  187.48800659    0.67000002    0.05000000
   12.88638878  253.81900024    0.67000002    0.05000000
   12.88944435  209.83099365    0.67000002    0.05000000
   12.89361095  209.83099365    0.67000002    0.05000000
   12.89777756  199.11399841    0.67000002    0.05000000
   12.90111065  222.91799927    0.67000002    0.05000000
   12.90416622  197.47000122    0.67000002    0.05000000
   12.90666676  227.64199829    0.67000002    0.05000000
   12.90777779  217.11799622    0.67000002    0.05000000
   12.91111088  198.20700073    0.67000002    0.05000000
   12.91444397  184.30400085    0.67000002    0.05000000
   12.91750050  190.89300537    0.67000002    0.05000000
   12.92083359  184.40899658    0.67000002    0.05000000
   12.92388916  176.57499695    0.67000002    0.05000000
   12.92722225  158.13200378    0.67000002    0.05000000
   12.93055630  181.97200012    0.67000002    0.05000000
   12.93638897  181.97200012    0.67000002    0.05000000
   12.94055557  207.51400757    0.67000002    0.05000000
   12.94388866  194.84800720    0.67000002    0.05000000
   12.94694424  161.90899658    0.67000002    0.05000000
   12.95027733  191.66799927    0.67000002    0.05000000
   12.95361137  217.00599670    0.67000002    0.05000000
   12.95694447  161.86799622    0.67000002    0.05000000
   12.96000004  161.79100037    0.67000002    0.05000000
   12.96333313  196.60899353    0.67000002    0.05000000
   12.96638870  148.28300476    0.67000002    0.05000000
   12.96972179  166.13999939    0.67000002    0.05000000
   12.97305489  208.13400269    0.67000002    0.05000000
   12.97333336  207.63499451    0.67000002    0.05000000
   12.97916603  207.63499451    0.67000002    0.05000000
   12.98333359  155.03399658    0.67000002    0.05000000
   12.98666668  207.25300598    0.67000002    0.05000000
   12.99000072   69.02880096    0.67000002    0.05000000
   12.99305534  203.90600586    0.67000002    0.05000000
   12.99638939   -1.00000000    0.67000002    0.05000000
   12.99944496  234.99000549    0.67000002    0.05000000
   13.00277805  151.57400513    0.67000002    0.05000000
   13.00611115  394.07699585    0.67000002    0.05000000
   13.00805569  208.13400269    0.67000002    0.05000000
   13.00805569  155.03399658    0.67000002    0.05000000
   13.00805569  207.25300598    0.67000002    0.05000000
   13.00833321   69.02880096    0.67000002    0.05000000
   13.00833321  203.90600586    0.67000002    0.05000000
   13.00833321   -1.00000000    0.67000002    0.05000000
   13.00833321  234.99000549    0.67000002    0.05000000
   13.00833321  151.57400513    0.67000002    0.05000000
   13.00861073  394.07699585    0.67000002    0.05000000
   13.01027775  268.06500244    0.67000002    0.05000000
   13.01333332  169.95199585    0.67000002    0.05000000
   13.01666641  179.67500305    0.67000002    0.05000000
   13.01999950  201.03999329    0.67000002    0.05000000
   13.02305508  265.29901123    0.67000002    0.05000000
   13.02888870  265.29901123    0.67000002    0.05000000
   13.03277779  339.39099121    0.67000002    0.05000000
   13.03611183   -1.00000000    0.67000002    0.05000000
   13.03944492   -1.00000000    0.67000002    0.05000000
   13.04277802   -1.00000000    0.67000002    0.05000000
   13.04611111   -1.00000000    0.67000002    0.05000000
   13.04916668   -1.00000000    0.67000002    0.05000000
   13.05249977   42.47949982    0.67000002    0.05000000
   13.05555534   -1.00000000    0.67000002    0.05000000
   13.05888939   -1.00000000    0.67000002    0.05000000
   13.06222248   -1.00000000    0.67000002    0.05000000
   13.06527805   -1.00000000    0.67000002    0.05000000
   13.07166672   -1.00000000    0.67000002    0.05000000
   13.07583332  114.51399994    0.67000002    0.05000000
   13.07888889   -1.00000000    0.67000002    0.05000000
   13.08222198   74.23639679    0.67000002    0.05000000
   13.08527756   -1.00000000    0.67000002    0.05000000
   13.08861065   -1.00000000    0.67000002    0.05000000
   13.09194374   -1.00000000    0.67000002    0.05000000
   13.09499931   -1.00000000    0.67000002    0.05000000
   13.09833336   -1.00000000    0.67000002    0.05000000
   13.10166740   -1.00000000    0.67000002    0.05000000
   13.10472298   -1.00000000    0.67000002    0.05000000
   13.10805607   -1.00000000    0.67000002    0.05000000
   13.11861134   -1.00000000    0.67000002    0.05000000
   13.12166691  137.49699402    0.67000002    0.05000000
   13.12500000   23.57019997    0.67000002    0.05000000
   13.12833309  410.23800659    0.67000002    0.05000000
   13.13027763   99.15000153    0.67000002    0.05000000
   13.13027763   -1.00000000    0.67000002    0.05000000
   13.13027763  137.49699402    0.67000002    0.05000000
   13.13027763   23.57019997    0.67000002    0.05000000
   13.13055611  410.23800659    0.67000002    0.05000000
   13.13055611   -1.00000000    0.67000002    0.05000000
   13.13055611   -1.00000000    0.67000002    0.05000000
   13.13055611   -1.00000000    0.67000002    0.05000000
   13.13055611   -1.00000000    0.67000002    0.05000000
   13.13083363   -1.00000000    0.67000002    0.05000000
   13.13944435  190.66799927    0.67000002    0.05000000
   13.14194393  203.35699463    0.67000002    0.05000000
   13.14333344  205.83099365    0.67000002    0.05000000
   13.14666653  537.49700928    0.67000002    0.05000000
   13.14861107  190.66799927    0.67000002    0.05000000
   13.14861107  205.83099365    0.67000002    0.05000000
   13.14861107  537.49700928    0.67000002    0.05000000
   13.15027714   44.74480057    0.67000002    0.05000000
   13.15361118   -1.00000000    0.67000002    0.05000000
   13.15666676  356.62399292    0.67000002    0.05000000
   13.15999985  174.53700256    0.67000002    0.05000000
   13.16333294  510.32598877    0.67000002    0.05000000
   13.16527748  212.11799622    0.67000002    0.05000000
   13.16527748   44.74480057    0.67000002    0.05000000
   13.16527748   -1.00000000    0.67000002    0.05000000
   13.16527748  356.62399292    0.67000002    0.05000000
   13.16555500  174.53700256    0.67000002    0.05000000
   13.16555500  510.32598877    0.67000002    0.05000000
   13.16972256  510.32598877    0.67000002    0.05000000
   13.17388916   66.04029846    0.67000002    0.05000000
   13.17694473   38.28779984    0.67000002    0.05000000
   13.18027782   -1.00000000    0.67000002    0.05000000
   13.18361092   -1.00000000    0.67000002    0.05000000
   13.18666649   -1.00000000    0.67000002    0.05000000
   13.19000053   -1.00000000    0.67000002    0.05000000
   13.19333363   -1.00000000    0.67000002    0.05000000
   13.19638920  172.83399963    0.67000002    0.05000000
   13.19916630  445.65600586    0.67000002    0.05000000
   13.19999981  220.72000122    0.67000002    0.05000000
   13.20333290   -1.00000000    0.67000002    0.05000000
   13.20638847  204.46600342    0.67000002    0.05000000
   13.21249962  204.46600342    0.67000002    0.05000000
   13.21666622  215.00900269    0.67000002    0.05000000
   13.21972179  234.11799622    0.67000002    0.05000000
   13.22305489  297.34100342    0.67000002    0.05000000
   13.22638798  340.33300781    0.67000002    0.05000000
   13.22944355   -1.00000000    0.67000002    0.05000000
   13.23249912  220.78999329    0.67000002    0.05000000
   13.23305511  220.41900635    0.67000002    0.05000000
   13.23638916  473.17898560    0.67000002    0.05000000
   13.23972225  255.78900146    0.67000002    0.05000000
   13.24277782  288.61099243    0.67000002    0.05000000
   13.24611092   93.20469666    0.67000002    0.05000000
   13.24916649  179.78900146    0.67000002    0.05000000
   13.25527763  179.78900146    0.67000002    0.05000000
   13.25944424  203.79699707    0.67000002    0.05000000
   13.26277733  164.09599304    0.67000002    0.05000000
   13.26583290  200.73199463    0.67000002    0.05000000
   13.26611137  190.40600586    0.67000002    0.05000000
   13.26944447  208.94999695    0.67000002    0.05000000
   13.27250004  264.08401489    0.67000002    0.05000000
   13.27583313  327.44500732    0.67000002    0.05000000
   13.27916622   71.71499634    0.67000002    0.05000000
   13.28222179  239.09700012    0.67000002    0.05000000
   13.28555584  410.86599731    0.67000002    0.05000000
   13.28888893  156.90800476    0.67000002    0.05000000
   13.29194450   -1.00000000    0.67000002    0.05000000
   13.29805565   -1.00000000    0.67000002    0.05000000
   13.30222225   -1.00000000    0.67000002    0.05000000
   13.30555534  203.67999268    0.67000002    0.05000000
   13.30861092  383.64700317    0.67000002    0.05000000
   13.31194496  232.07200623    0.67000002    0.05000000
   13.31527805   -1.00000000    0.67000002    0.05000000
   13.31833363  237.92900085    0.67000002    0.05000000
   13.32166672  188.75599670    0.67000002    0.05000000
   13.32499981  163.89799500    0.67000002    0.05000000
   13.32805538  192.83799744    0.67000002    0.05000000
   13.33138847  210.11399841    0.67000002    0.05000000
   13.33305550  191.45100403    0.67000002    0.05000000
   13.33500004  179.74699402    0.67000002    0.05000000
   13.34111118  179.74699402    0.67000002    0.05000000
   13.34499931  143.52200317    0.67000002    0.05000000
   13.34833336  164.73100281    0.67000002    0.05000000
   13.35166740  157.24299622    0.67000002    0.05000000
   13.35472298  154.14799500    0.67000002    0.05000000
   13.35805607  162.89300537    0.67000002    0.05000000
   13.36138916  156.52000427    0.67000002    0.05000000
   13.36444473  152.85699463    0.67000002    0.05000000
   13.36638927  141.93899536    0.67000002    0.05000000
   13.36805534  151.54299927    0.67000002    0.05000000
   13.37138939  168.58599854    0.67000002    0.05000000
   13.37444496  161.43400574    0.67000002    0.05000000
   13.37777805  147.25100708    0.67000002    0.05000000
   13.38388920  147.25100708    0.67000002    0.05000000
   13.38805580  186.38000488    0.67000002    0.05000000
   13.39111137  157.02400208    0.67000002    0.05000000
   13.39444447  172.78100586    0.67000002    0.05000000
   13.39777756  161.92500305    0.67000002    0.05000000
   13.39999962  163.86599731    0.67000002    0.05000000
   13.40138817  156.53399658    0.67000002    0.05000000
   13.40444374  173.78300476    0.67000002    0.05000000
   13.40777779  158.94599915    0.67000002    0.05000000
   13.41111088  150.67700195    0.67000002    0.05000000
   13.41416645  166.64199829    0.67000002    0.05000000
   13.41750050  160.06799316    0.67000002    0.05000000
   13.42055607  158.38099670    0.67000002    0.05000000
   13.42666721  158.38099670    0.67000002    0.05000000
   13.43083382  161.18200684    0.67000002    0.05000000
   13.43333340  164.88699341    0.67000002    0.05000000
   13.43444443  173.50399780    0.67000002    0.05000000
   13.43750000  163.74200439    0.67000002    0.05000000
   13.44083309  137.46800232    0.67000002    0.05000000
   13.44416714  154.97500610    0.67000002    0.05000000
   13.44722271  166.90499878    0.67000002    0.05000000
   13.45055580  155.10299683    0.67000002    0.05000000
   13.45361137  160.28700256    0.67000002    0.05000000
   13.45694447  137.64100647    0.67000002    0.05000000
   13.46027756  163.50399780    0.67000002    0.05000000
   13.46333313  137.05799866    0.67000002    0.05000000
   13.46944427  137.05799866    0.67000002    0.05000000
   13.47361088  185.17399597    0.67000002    0.05000000
   13.47694397  165.78900146    0.67000002    0.05000000
   13.47999954  166.57600403    0.67000002    0.05000000
   13.48333359  146.56900024    0.67000002    0.05000000
   13.48666668  174.45100403    0.67000002    0.05000000
   13.48972225  160.09700012    0.67000002    0.05000000
   13.49305534  238.30099487    0.67000002    0.05000000
   13.49638939  137.96699524    0.67000002    0.05000000
   13.49944496  164.29499817    0.67000002    0.05000000
   13.50055599  152.33799744    0.67000002    0.05000000
   13.50305557  162.13600159    0.67000002    0.05000000
   13.50638866  143.72099304    0.67000002    0.05000000
   13.51249981  143.72099304    0.67000002    0.05000000
   13.51638889  145.73100281    0.67000002    0.05000000
   13.51972198  191.71400452    0.67000002    0.05000000
   13.52305508  144.76499939    0.67000002    0.05000000
   13.52611065  288.13299561    0.67000002    0.05000000
   13.52944374  162.41700745    0.67000002    0.05000000
   13.53277779  191.99600220    0.67000002    0.05000000
   13.53388977  182.36199951    0.67000002    0.05000000
   13.53611183  163.27499390    0.67000002    0.05000000
   13.53944492  163.25999451    0.67000002    0.05000000
   13.54277802  171.58299255    0.67000002    0.05000000
   13.54583359  156.55700684    0.67000002    0.05000000
   13.54916668  151.42799377    0.67000002    0.05000000
   13.55527782  151.42799377    0.67000002    0.05000000
   13.55944443  148.87699890    0.67000002    0.05000000
   13.56250000  155.01899719    0.67000002    0.05000000
   13.56583309  157.31300354    0.67000002    0.05000000
   13.56722260  143.75799561    0.67000002    0.05000000
   13.56944466  170.54400635    0.67000002    0.05000000
   13.57277775  152.38699341    0.67000002    0.05000000
   13.57583332  120.33699799    0.67000002    0.05000000
   13.57916641  148.72799683    0.67000002    0.05000000
   13.58249950  147.05700684    0.67000002    0.05000000
   13.58555508  150.12500000    0.67000002    0.05000000
   13.58888817  147.82899475    0.67000002    0.05000000
   13.59194374  137.83500671    0.67000002    0.05000000
   13.59805489  137.83500671    0.67000002    0.05000000
   13.60222244  172.50599670    0.67000002    0.05000000
   13.60555553  168.08099365    0.67000002    0.05000000
   13.60861111  153.92100525    0.67000002    0.05000000
   13.61194515  158.96400452    0.67000002    0.05000000
   13.61500072  169.55499268    0.67000002    0.05000000
   13.61833382  151.26899719    0.67000002    0.05000000
   13.62166691  174.29800415    0.67000002    0.05000000
   13.62472248  189.95899963    0.67000002    0.05000000
   13.62805557  178.02600098    0.67000002    0.05000000
   13.63138866  167.54600525    0.67000002    0.05000000
   13.63388920  175.39700317    0.67000002    0.05000000
   13.63500023  167.05200195    0.67000002    0.05000000
   13.64083290  167.05200195    0.67000002    0.05000000
   13.64499950  148.59399414    0.67000002    0.05000000
   13.64833355  150.47900391    0.67000002    0.05000000
   13.65138817  166.23899841    0.67000002    0.05000000
   13.65472221  151.55999756    0.67000002    0.05000000
   13.65805531  143.23100281    0.67000002    0.05000000
   13.66111088  144.97000122    0.67000002    0.05000000
   13.66444397  158.69400024    0.67000002    0.05000000
   13.66722298  155.00999451    0.67000002    0.05000000
   13.66805553  148.54400635    0.67000002    0.05000000
   13.67138958  148.09700012    0.67000002    0.05000000
   13.67444515  142.22799683    0.67000002    0.05000000
   13.67777824  161.21499634    0.67000002    0.05000000
   13.68388939  161.21499634    0.67000002    0.05000000
   13.68777752  142.72300720    0.67000002    0.05000000
   13.69111156  154.86700439    0.67000002    0.05000000
   13.69444466  149.85400391    0.67000002    0.05000000
   13.69750023  152.27799988    0.67000002    0.05000000
   13.70055580  147.97000122    0.67000002    0.05000000
   13.70111084  154.26100159    0.67000002    0.05000000
   13.70444393  165.03199768    0.67000002    0.05000000
   13.70749950  154.05900574    0.67000002    0.05000000
   13.71083355  146.03599548    0.67000002    0.05000000
   13.71416664  148.22200012    0.67000002    0.05000000
   13.71722221  152.14199829    0.67000002    0.05000000
   13.72055531  152.71899414    0.67000002    0.05000000
   13.72666645  152.71899414    0.67000002    0.05000000
   13.73083305   23.57019997    0.67000002    0.05000000
   13.73388958  362.39599609    0.67000002    0.05000000
   13.73444462  239.18899536    0.67000002    0.05000000
   13.73777771  181.92700195    0.67000002    0.05000000
   13.74083328  206.41299438    0.67000002    0.05000000
   13.74416733  171.78799438    0.67000002    0.05000000
   13.74750042  282.79901123    0.67000002    0.05000000
   13.75055599  246.73399353    0.67000002    0.05000000
   13.75388908   23.47870064    0.67000002    0.05000000
   13.75694466  201.53799438    0.67000002    0.05000000
   13.76027775  294.78201294    0.67000002    0.05000000
   13.76361084  204.78100586    0.67000002    0.05000000
   13.76944447  204.78100586    0.67000002    0.05000000
   13.77361107  320.37600708    0.67000002    0.05000000
   13.77694416  277.51998901    0.67000002    0.05000000
   13.77999973  246.17900085    0.67000002    0.05000000
   13.78333378  219.58599854    0.67000002    0.05000000
   13.78638935   23.57019997    0.67000002    0.05000000
   13.78972244   -1.00000000    0.67000002    0.05000000
   13.79305553  215.67799377    0.67000002    0.05000000
   13.79611111  263.10900879    0.67000002    0.05000000
   13.79944515   -1.00000000    0.67000002    0.05000000
   13.80305576   -1.00000000    0.67000002    0.05000000
   13.80638885   33.33330154    0.67000002    0.05000000
   13.81222248   33.33330154    0.67000002    0.05000000
   13.81638908  324.48599243    0.67000002    0.05000000
   13.81972218  160.66200256    0.67000002    0.05000000
   13.82277775  154.63900757    0.67000002    0.05000000
   13.82611084  149.31700134    0.67000002    0.05000000
   13.82944393  154.24499512    0.67000002    0.05000000
   13.83277798  173.43299866    0.67000002    0.05000000
   13.83388901  161.33599854    0.67000002    0.05000000
   13.83611107  151.60099792    0.67000002    0.05000000
   13.83944416  158.76600647    0.67000002    0.05000000
   13.84249973  157.82000732    0.67000002    0.05000000
   13.84583282  167.96000671    0.67000002    0.05000000
   13.84916592  196.36700439    0.67000002    0.05000000
   13.85527802  196.36700439    0.67000002    0.05000000
   13.85916710  209.29400635    0.67000002    0.05000000
   13.86250019  335.61401367    0.67000002    0.05000000
   13.86583328  189.57000732    0.67000002    0.05000000
   13.86750031  225.57400513    0.67000002    0.05000000
   13.86944485  192.34599304    0.67000002    0.05000000
   13.87277794  147.03599548    0.67000002    0.05000000
   13.87583351  245.92300415    0.67000002    0.05000000
   13.87916660  142.47300720    0.67000002    0.05000000
   13.88222218  149.46800232    0.67000002    0.05000000
   13.88555527  159.53100586    0.67000002    0.05000000
   13.88888836  213.69099426    0.67000002    0.05000000
   13.89194393  163.55900574    0.67000002    0.05000000
   13.89805508  163.55900574    0.67000002    0.05000000
   13.90222168  149.19900513    0.67000002    0.05000000
   13.90527725  142.24899292    0.67000002    0.05000000
   13.90861034   80.72019958    0.67000002    0.05000000
   13.91194439  161.94700623    0.67000002    0.05000000
   13.91499996  404.33898926    0.67000002    0.05000000
   13.91833401  227.24200439    0.67000002    0.05000000
   13.92138958  264.55899048    0.67000002    0.05000000
   13.92472267   41.29159927    0.67000002    0.05000000
   13.92805576   -1.00000000    0.67000002    0.05000000
   13.93111134   -1.00000000    0.67000002    0.05000000
   13.93416691  144.33099365    0.67000002    0.05000000
   13.93472195  163.24899292    0.67000002    0.05000000
   13.94083309  163.24899292    0.67000002    0.05000000
   13.94499969  181.21899414    0.67000002    0.05000000
   13.94833374  146.21899414    0.67000002    0.05000000
   13.95138836  187.98100281    0.67000002    0.05000000
   13.95472240  143.63099670    0.67000002    0.05000000
   13.95777798  180.91700745    0.67000002    0.05000000
   13.96111107  157.75399780    0.67000002    0.05000000
   13.96444416   -1.00000000   -1.00000000   -1.00000000
   13.96749973  199.97799683    0.67000002    0.05000000
   13.96805477  206.86300659    0.67000002    0.05000000
   13.97138882  126.81199646    0.67000002    0.05000000
   13.97444439  222.97099304    0.67000002    0.05000000
   13.97777748   41.76779938    0.67000002    0.05000000
   13.98361111   41.76779938    0.67000002    0.05000000
   13.98777771  157.29499817    0.67000002    0.05000000
   13.99111176  171.95899963    0.67000002    0.05000000
   13.99444485  148.54100037    0.67000002    0.05000000
   13.99750042  148.02400208    0.67000002    0.05000000
   14.00083351  158.83200073    0.67000002    0.05000000
   14.00138855  148.61500549    0.67000002    0.05000000
   14.00444412  159.49499512    0.67000002    0.05000000
   14.00777817  299.54199219    0.67000002    0.05000000
   14.01111126  186.37600708    0.67000002    0.05000000
   14.01416683  159.68899536    0.67000002    0.05000000
   14.01749992  254.03700256    0.67000002    0.05000000
   14.02083302  163.47399902    0.67000002    0.05000000
   14.02666664  163.47399902    0.67000002    0.05000000
   14.03055573  333.12500000    0.67000002    0.05000000
   14.03388977  204.83099365    0.67000002    0.05000000
   14.03472233  196.59800720    0.67000002    0.05000000
   14.03750038  366.34201050    0.67000002    0.05000000
   14.04083347  151.57699585    0.67000002    0.05000000
   14.04416752  149.99800110    0.67000002    0.05000000
   14.04722309  269.24798584    0.67000002    0.05000000
   14.05055618  160.55000305    0.67000002    0.05000000
   14.05388927  162.65199280    0.67000002    0.05000000
   14.05694485  147.81100464    0.67000002    0.05000000
   14.06027794  149.75900269    0.67000002    0.05000000
   14.06333351  147.80799866    0.67000002    0.05000000
   14.06944466  147.80799866    0.67000002    0.05000000
   14.07361126  140.59500122    0.67000002    0.05000000
   14.07666683  138.92999268    0.67000002    0.05000000
   14.07999992  175.26499939    0.67000002    0.05000000
   14.08333302  143.39900208    0.67000002    0.05000000
   14.08638859  147.41499329    0.67000002    0.05000000
   14.08972168  157.62800598    0.67000002    0.05000000
   14.09277725  143.20399475    0.67000002    0.05000000
   14.09611034  163.13200378    0.67000002    0.05000000
   14.09944439  142.16200256    0.67000002    0.05000000
   14.10138893  147.73599243    0.67000002    0.05000000
   14.10277843  148.02900696    0.67000002    0.05000000
   14.10611153  155.70799255    0.67000002    0.05000000
   14.11222267  155.70799255    0.67000002    0.05000000
   14.11638927  142.38499451    0.67000002    0.05000000
   14.11972237  152.39599609    0.67000002    0.05000000
   14.12277794  160.60299683    0.67000002    0.05000000
   14.12611103  161.31100464    0.67000002    0.05000000
   14.12916660  167.48199463    0.67000002    0.05000000
   14.13249969  151.09500122    0.67000002    0.05000000
   14.13472176  152.50900269    0.67000002    0.05000000
   14.13611126  144.28900146    0.67000002    0.05000000
   14.15722179  144.28900146    0.67000002    0.05000000
   14.16138840  145.82800293    0.67000002    0.05000000
   14.16472149  138.38000488    0.67000002    0.05000000
   14.16777802  151.49800110    0.67000002    0.05000000
   14.16833401  144.94999695    0.67000002    0.05000000
   14.17166710  149.32499695    0.67000002    0.05000000
   14.17500019  137.74600220    0.67000002    0.05000000
   14.17805576  120.57800293    0.67000002    0.05000000
   14.18138885  133.15400696    0.67000002    0.05000000
   14.18472195  130.60800171    0.67000002    0.05000000
   14.18777752  135.86199951    0.67000002    0.05000000
   14.19111156  134.65299988    0.67000002    0.05000000
   14.19416714  131.55599976    0.67000002    0.05000000
   14.19999981  131.55599976    0.67000002    0.05000000
   14.20416641  133.96600342    0.67000002    0.05000000
   14.20749950  136.14999390    0.67000002    0.05000000
   14.21055508  133.73300171    0.67000002    0.05000000
   14.21388912  132.52000427    0.67000002    0.05000000
   14.21722221  150.89999390    0.67000002    0.05000000
   14.22027779  149.66299438    0.67000002    0.05000000
   14.22361088  158.26400757    0.67000002    0.05000000
   14.22666645  203.66099548    0.67000002    0.05000000
   14.22999954  192.07800293    0.67000002    0.05000000
   14.23333359  156.89399719    0.67000002    0.05000000
   14.23500061  161.24899292    0.67000002    0.05000000
   14.23694515  231.72700500    0.67000002    0.05000000
   14.24277782  231.72700500    0.67000002    0.05000000
   14.24694443  263.88400269    0.67000002    0.05000000
   14.25027752  176.42199707    0.67000002    0.05000000
   14.25333309  150.16099548    0.67000002    0.05000000
   14.25666714  146.04100037    0.67000002    0.05000000
   14.26000023  155.33599854    0.67000002    0.05000000
   14.26305580  153.58599854    0.67000002    0.05000000
   14.26638889  216.73199463    0.67000002    0.05000000
   14.26833344  249.33099365    0.67000002    0.05000000
   14.26999950  126.17400360    0.67000002    0.05000000
   14.27333355  157.64999390    0.67000002    0.05000000
   14.27638817  154.35099792    0.67000002    0.05000000
   14.27972221  229.70799255    0.67000002    0.05000000
   14.28583336  229.70799255    0.67000002    0.05000000
   14.29000092   -1.00000000    0.67000002    0.05000000
   14.29305553   87.58239746    0.67000002    0.05000000
   14.29638958  243.20799255    0.67000002    0.05000000
   14.29944515  210.55599976    0.67000002    0.05000000
   14.30194473   43.47420120    0.67000002    0.05000000
   14.30333328  198.02999878    0.67000002    0.05000000
   14.30638885  180.03500366    0.67000002    0.05000000
   14.30972195  134.89300537    0.67000002    0.05000000
   14.31277752  134.99299622    0.67000002    0.05000000
   14.31611156  134.98899841    0.67000002    0.05000000
   14.31944466  150.49600220    0.67000002    0.05000000
   14.32250023  132.06799316    0.67000002    0.05000000
   14.32861137  132.06799316    0.67000002    0.05000000
   14.33277798  139.14700317    0.67000002    0.05000000
   14.33527756  142.11700439    0.67000002    0.05000000
   14.33638859  136.97000122    0.67000002    0.05000000
   14.33944416  150.66600037    0.67000002    0.05000000
   14.34277725  144.28900146    0.67000002    0.05000000
   14.34611034  189.27499390    0.67000002    0.05000000
   14.34916592  175.45399475    0.67000002    0.05000000
   14.35249996  200.56599426    0.67000002    0.05000000
   14.35583401  145.00199890    0.67000002    0.05000000
   14.35888958  148.62899780    0.67000002    0.05000000
   14.36222267  155.54100037    0.67000002    0.05000000
   14.36527824  156.71200562    0.67000002    0.05000000
   14.37138939  156.71200562    0.67000002    0.05000000
   14.37555599  183.01800537    0.67000002    0.05000000
   14.37888908  149.92599487    0.67000002    0.05000000
   14.38194466  138.87699890    0.67000002    0.05000000
   14.38527775  131.76199341    0.67000002    0.05000000
   14.38833332  155.86799622    0.67000002    0.05000000
   14.39166641  136.55200195    0.67000002    0.05000000
   14.39499950  139.39399719    0.67000002    0.05000000
   14.39805508  136.16999817    0.67000002    0.05000000
   14.40138817  126.70300293    0.67000002    0.05000000
   14.40222168  136.22099304    0.67000002    0.05000000
   14.40499973  135.55499268    0.67000002    0.05000000
   14.40833282  154.76499939    0.67000002    0.05000000
   14.41416645  154.76499939    0.67000002    0.05000000
   14.41833401  159.33799744    0.67000002    0.05000000
   14.42166710  132.39100647    0.67000002    0.05000000
   14.42472267  138.27200317    0.67000002    0.05000000
   14.42805576  145.99499512    0.67000002    0.05000000
   14.43138885  130.42799377    0.67000002    0.05000000
   14.43444443  136.60600281    0.67000002    0.05000000
   14.43555546  131.09599304    0.67000002    0.05000000
   14.43805599  139.85400391    0.67000002    0.05000000
   14.44138908  140.36099243    0.67000002    0.05000000
   14.44444466  114.17199707    0.67000002    0.05000000
   14.44777775  182.73699951    0.67000002    0.05000000
   14.45111084  150.35099792    0.67000002    0.05000000
   14.45722198  150.35099792    0.67000002    0.05000000
   14.46111107  162.74099731    0.67000002    0.05000000
   14.46444416  172.42300415    0.67000002    0.05000000
   14.46777725  183.97099304    0.67000002    0.05000000
   14.46916580  159.75700378    0.67000002    0.05000000
   14.47138882  167.84300232    0.67000002    0.05000000
   14.47444439  155.32099915    0.67000002    0.05000000
   14.47777748  205.11000061    0.67000002    0.05000000
   14.48111057  213.40199280    0.67000002    0.05000000
   14.48416710  398.82901001    0.67000002    0.05000000
   14.48750019  207.53199768    0.67000002    0.05000000
   14.49055576  312.40798950    0.67000002    0.05000000
   14.49388885  288.16101074    0.67000002    0.05000000
   14.50000000  288.16101074    0.67000002    0.05000000
   14.50416660  305.65301514    0.67000002    0.05000000
   14.50722218  327.51800537    0.67000002    0.05000000
   14.51055527  312.65899658    0.67000002    0.05000000
   14.51388931  250.69000244    0.67000002    0.05000000
   14.51694393  192.39999390    0.67000002    0.05000000
   14.52027798  143.37100220    0.67000002    0.05000000
   14.52333355  157.05000305    0.67000002    0.05000000
   14.52666664  205.13999939    0.67000002    0.05000000
   14.52999973  278.62500000    0.67000002    0.05000000
   14.53305531  178.33099365    0.67000002    0.05000000
   14.53583336  156.27799988    0.67000002    0.05000000
   14.53694534  180.80999756    0.67000002    0.05000000
   14.54277802  180.80999756    0.67000002    0.05000000
   14.54694462  193.44500732    0.67000002    0.05000000
   14.55027771  181.80999756    0.67000002    0.05000000
   14.55333328  168.61799622    0.67000002    0.05000000
   14.55666733  188.53399658    0.67000002    0.05000000
   14.55972195  141.07600403    0.67000002    0.05000000
   14.56305599  146.14300537    0.67000002    0.05000000
   14.56638908  168.43400574    0.67000002    0.05000000
   14.56916618  182.27299500    0.67000002    0.05000000
   14.56999969  214.08900452    0.67000002    0.05000000
   14.67138958   -1.00000000   -1.00000000   -1.00000000
   14.79944515   -1.00000000   -1.00000000   -1.00000000
   14.95916653   -1.00000000   -1.00000000   -1.00000000
   14.99611092   77.27539825    0.67000002    0.05000000
   14.99944496  202.84399414    0.67000002    0.05000000
   15.00249958  191.77200317    0.67000002    0.05000000
   15.00583363  452.16198730    0.67000002    0.05000000
   15.00916672   63.96070099    0.67000002    0.05000000
   15.01222229  509.39498901    0.67000002    0.05000000
   15.01416683  202.84399414    0.67000002    0.05000000
   15.01444435  191.77200317    0.67000002    0.05000000
   15.01444435  452.16198730    0.67000002    0.05000000
   15.01444435   63.96070099    0.67000002    0.05000000
   15.01444435  509.39498901    0.67000002    0.05000000
   15.01638889   -1.00000000    0.67000002    0.05000000
   15.01972198  340.82501221    0.67000002    0.05000000
   15.02305508  201.08599854    0.67000002    0.05000000
   15.02611065  146.36999512    0.67000002    0.05000000
   15.02944374  140.46200562    0.67000002    0.05000000
   15.03500080  140.46200562    0.67000002    0.05000000
   15.03916740  134.39399719    0.67000002    0.05000000
   15.04250050  130.47200012    0.67000002    0.05000000
   15.04555607  133.00399780    0.67000002    0.05000000
   15.04805565  129.06500244    0.67000002    0.05000000
   15.04916668  126.19100189    0.67000002    0.05000000
   15.05222225  128.13299561    0.67000002    0.05000000
   15.05555534  126.56800079    0.67000002    0.05000000
   15.05888939  124.50499725    0.67000002    0.05000000
   15.06194496  124.51200104    0.67000002    0.05000000
   15.06527805  145.90800476    0.67000002    0.05000000
   15.06833363  146.03399658    0.67000002    0.05000000
   15.07166672  124.21299744    0.67000002    0.05000000
   15.07777786  124.21299744    0.67000002    0.05000000
   15.08194447  138.29400635    0.67000002    0.05000000
   15.08527756  125.81500244    0.67000002    0.05000000
   15.08833313  133.72099304    0.67000002    0.05000000
   15.09166622  118.65200043    0.67000002    0.05000000
   15.09499931  131.47099304    0.67000002    0.05000000
   15.09805489  132.47999573    0.67000002    0.05000000
   15.10138893  124.55500031    0.67000002    0.05000000
   15.10472298  118.45400238    0.67000002    0.05000000
   15.10777855  130.95799255    0.67000002    0.05000000
   15.11111164  119.05000305    0.67000002    0.05000000
   15.11416721  122.37000275    0.67000002    0.05000000
   15.11472225  126.69499969    0.67000002    0.05000000
   15.12083340  126.69499969    0.67000002    0.05000000
   15.12472248  124.88300323    0.67000002    0.05000000
   15.12805557  134.18200684    0.67000002    0.05000000
   15.13138866  120.94400024    0.67000002    0.05000000
   15.13444424  122.92800140    0.67000002    0.05000000
   15.13777733  135.81100464    0.67000002    0.05000000
   15.14111137  130.28700256    0.67000002    0.05000000
   15.14416695  128.13699341    0.67000002    0.05000000
   15.14750004  120.90499878    0.67000002    0.05000000
   15.14805508  120.99800110    0.67000002    0.05000000
   15.15111065  137.33500671    0.67000002    0.05000000
   15.15416622  123.23699951    0.67000002    0.05000000
   15.15749931  158.71000671    0.67000002    0.05000000
   15.16361046  158.71000671    0.67000002    0.05000000
   15.16777802  134.61399841    0.67000002    0.05000000
   15.17083359  126.14499664    0.67000002    0.05000000
   15.17416668  126.15200043    0.67000002    0.05000000
   15.17750072  122.66000366    0.67000002    0.05000000
   15.18055630  119.12000275    0.67000002    0.05000000
   15.18138885  125.35399628    0.67000002    0.05000000
   15.18416691  118.85800171    0.67000002    0.05000000
   15.18750000  113.81500244    0.67000002    0.05000000
   15.19055557  126.57900238    0.67000002    0.05000000
   15.19388866  130.58799744    0.67000002    0.05000000
   15.19694424  128.88900757    0.67000002    0.05000000
   15.20027733  121.46600342    0.67000002    0.05000000
   15.20638847  121.46600342    0.67000002    0.05000000
   15.21055508  119.68199921    0.67000002    0.05000000
   15.21388912  118.91799927    0.67000002    0.05000000
   15.21472168  114.49800110    0.67000002    0.05000000
   15.21749973  123.60600281    0.67000002    0.05000000
   15.22083282  129.50000000    0.67000002    0.05000000
   15.22388840  120.35099792    0.67000002    0.05000000
   15.22722149  124.23699951    0.67000002    0.05000000
   15.23027706  123.47799683    0.67000002    0.05000000
   15.23361111  120.97200012    0.67000002    0.05000000
   15.23694515  124.11100006    0.67000002    0.05000000
   15.24000072  121.45500183    0.67000002    0.05000000
   15.24333382  128.96299744    0.67000002    0.05000000
   15.24916649  128.96299744    0.67000002    0.05000000
   15.26055527  140.06799316    0.00000000    0.00000000
   15.26416683  119.53199768    0.00000000    0.00000000
   15.26805496  124.74900055    0.00000000    0.00000000
   15.27194405  120.83699799    0.00000000    0.00000000
   15.27583313  127.50700378    0.00000000    0.00000000
   15.27972221  125.79000092    0.00000000    0.00000000
   15.28138828  124.09500122    0.00000000    0.00000000
   15.28388977  123.26399994    0.00000000    0.00000000
   15.28777790  113.75900269    0.00000000    0.00000000
   15.29277802  113.75900269    0.00000000    0.00000000
   15.29750061  135.15299988    0.00000000    0.00000000
   15.30138874  126.89800262    0.00000000    0.00000000
   15.30527782  157.76100159    0.00000000    0.00000000
   15.30888939  134.29899597    0.00000000    0.00000000
   15.31277752  169.65100098    0.00000000    0.00000000
   15.31472206  127.33200073    0.00000000    0.00000000
   15.31694412  189.23199463    0.00000000    0.00000000
   15.32083321  122.17500305    0.00000000    0.00000000
   15.32472229  159.58999634    0.00000000    0.00000000
   15.32861137  130.74699402    0.00000000    0.00000000
   15.33555508  130.74699402    0.00000000    0.00000000
   15.33972168  133.54499817    1.11000001    2.71000004
   15.34277725  145.16099548    1.11000001    2.71000004
   15.34611034  154.04899597    1.11000001    2.71000004
   15.35138893  157.55000305    1.11000001    2.71000004
   15.35638905  144.67799377    1.11000001    2.71000004
   15.35972214  356.82199097    1.11000001    2.71000004
   15.36333370  127.62999725    1.11000001    2.71000004
   15.36666679  128.03300476    1.11000001    2.71000004
   15.36972237  132.55400085    1.11000001    2.71000004
   15.37305546  128.64799500    1.11000001    2.71000004
   15.37888908  128.64799500    1.11000001    2.71000004
   15.38305569  131.29899597    1.03999996    2.71000004
   15.38638878  154.89100647    4.90999985    2.55999994
   15.38944435  158.62600708    4.90999985    2.36999989
   15.39277744  126.51200104    4.90999985    2.53999996
   15.39583302  134.76400757    4.90999985    2.53999996
   15.39916611  201.62699890    4.90999985    2.05999994
   15.40249920  291.04901123    4.90999985    2.30999994
   15.40555477  145.95300293    4.90999985    2.17000008
   15.40888882  163.73699951    4.90999985    2.51999998
   15.41222191  141.34100342    4.90999985    2.53999996
   15.41472149  125.62300110    4.90999985    2.53999996
   15.41583252  126.40499878    4.90999985    2.57999992
   15.42194462  126.40499878    4.90999985    2.71000004
   15.42583370  132.55099487    4.90999985    2.69000006
   15.42916679  139.08999634    4.90999985    2.59999990
   15.43249989  141.58799744    4.90999985    2.40000010
   15.43555546  130.40100098    4.90999985    2.53999996
   15.43888855  133.10000610    4.90999985    2.69000006
   15.44194412  118.32099915    4.90999985    2.67000008
   15.44527817  121.49299622    4.90999985    2.66000009
   15.44805527  127.25700378    4.90999985    2.71000004
   15.44888878  124.36599731    4.90999985    2.53999996
   15.45222187  116.24600220    4.90999985    2.71000004
   15.45527744  123.72299957    4.76000023    2.73000002
   15.45861053  161.05099487    4.90999985    2.51999998
   15.46472168  161.05099487    4.90999985    2.75000000
   15.46861076  251.53799438    4.90999985    2.23000002
   15.47194386  249.18699646    4.90999985    2.17000008
   15.47527695  196.70100403    4.90999985    2.03999996
   15.47833252  180.87100220    4.90999985    2.40000010
   15.48138809  165.15600586    4.90999985    2.57999992
   15.48194408  170.04800415    4.90999985    2.57999992
   15.48527813  131.92199707    4.90999985    2.13000011
   15.48833370  121.42600250    4.90999985    2.67000008
   15.49166679  151.41499329    4.90999985    2.59999990
   15.49472237  123.32399750    4.90999985    2.64000010
   15.49805546  130.05200195    4.90999985    2.46000004
   15.50138855  146.71099854    4.90999985    2.57999992
   15.50749969  146.71099854    4.90999985    2.61999989
   15.51166630  127.05000305    4.90999985    2.53999996
   15.51472187  120.24600220    4.82999992    2.69000006
   15.51527786  126.78700256    4.82999992    2.69000006
   15.51861095  130.34500122    4.90999985    2.61999989
   15.52166653  141.05299377    4.90999985    2.59999990
   15.52499962  138.40199280    4.90999985    2.42000008
   15.52805519  188.90299988    4.90999985    2.55999994
   15.53138828  167.28799438    4.90999985    2.09999990
   15.53472233  159.52900696    4.90999985    2.15000010
   15.53777790  175.98100281    4.90999985    2.46000004
   15.54111195  131.58099365    4.90999985    2.40000010
   15.54444504  171.12699890    4.90999985    2.21000004
   15.55027771  171.12699890    4.90999985    2.32999992
   15.55444431  162.19099426    4.90999985    2.55999994
   15.55777836  125.04499817    4.90999985    1.94000006
   15.56083393  138.47200012    4.90999985    2.59999990
   15.56416702  121.17099762    4.90999985    2.67000008
   15.56722260  121.92299652    2.75000000    2.67000008
   15.57055569  122.36699677    1.13000000    2.71000004
   15.57388878  119.47799683    0.98000002    2.71000004
   15.57694435  124.12599945    0.89999998    2.71000004
   15.58027744  117.57599640    0.95999998    2.71000004
   15.58138847  118.30500031    0.95999998    2.71000004
   15.58388901  121.81300354    0.95999998    2.71000004
   15.58722210  128.11300659    0.95999998    2.71000004
   15.59305477  128.11300659    0.95999998    2.71000004
   15.59722233  125.76300049    0.95999998    2.71000004
   15.60055637  139.41000366    0.95999998    2.71000004
   15.60361195  130.59899902    0.95999998    2.71000004
   15.60694504  119.38500214    0.95999998    2.71000004
   15.61027813  125.95600128    0.95999998    2.71000004
   15.61361122  119.29199982    0.95999998    2.71000004
   15.61472225  126.14199829    0.95999998    2.71000004
   15.61694431  130.18299866    0.95999998    2.71000004
   15.62027836  126.78500366    0.95999998    2.71000004
   15.62333393  127.69999695    0.95999998    2.71000004
   15.62666702  126.13099670    0.95999998    2.71000004
   15.62972260  131.95899963    0.95999998    2.71000004
   15.63611126  131.95899963    0.95999998    2.71000004
   15.64000034  124.46800232    0.95999998    2.71000004
   15.64333344  121.74900055    0.95999998    2.71000004
   15.64666653  122.41699982    0.95999998    2.71000004
   15.64833355  120.30300140    0.95999998    2.71000004
   15.65027714  118.59100342    0.95999998    2.71000004
   15.65361118  117.55300140    0.95999998    2.71000004
   15.65666676  125.46199799    0.95999998    2.71000004
   15.65999985  125.10700226    0.95999998    2.71000004
   15.66305542  118.97799683    0.95999998    2.71000004
   15.66638851  118.05999756    0.95999998    2.71000004
   15.66972256  123.16999817    0.95999998    2.71000004
   15.67277813  121.48400116    0.95999998    2.71000004
   15.67888927  121.48400116    0.95999998    2.71000004
   15.68305588  124.98200226    0.95999998    2.71000004
   15.68611145  122.68499756    0.95999998    2.71000004
   15.68944454  122.20600128    0.95999998    2.71000004
   15.69277763  123.25900269    0.95999998    2.71000004
   15.69583321  117.12699890    0.95999998    2.71000004
   15.69916630  118.89900208    0.95999998    2.71000004
   15.70222187  118.11299896    0.95999998    2.71000004
   15.70555496  113.74800110    0.95999998    2.71000004
   15.70888901  121.70400238    0.95999998    2.71000004
   15.71194458  115.02300262    0.95999998    2.71000004
   15.71500015  123.16400146    0.95999998    2.71000004
   15.71555519  117.23600006    0.95999998    2.71000004
   15.72166634  117.23600006    0.95999998    2.71000004
   15.72583294  118.24800110    0.95999998    2.71000004
   15.72916603  121.60600281    0.95999998    2.71000004
   15.73222160  124.61299896    0.95999998    2.71000004
   15.73555565  129.43899536    0.95999998    2.71000004
   15.73861122  126.09500122    0.95999998    2.71000004
   15.74194431  117.64499664    0.95999998    2.71000004
   15.74527836  124.12000275    0.95999998    2.71000004
   15.74833393  121.73000336    0.95999998    2.71000004
   15.74888897  112.25399780    0.95999998    2.71000004
   15.75222206  111.06400299    0.95999998    2.71000004
   15.75527763  122.15299988    0.95999998    2.71000004
   15.75861073  115.97599792    0.95999998    2.71000004
   15.76444435  115.97599792    0.95999998    2.71000004
   15.76861095  123.40399933    0.95999998    2.71000004
   15.77194405  123.94899750    0.95999998    2.71000004
   15.77527714  130.53500366    0.95999998    2.71000004
   15.77833271  120.62500000    0.95999998    2.71000004
   15.78166676  121.60900116    0.95999998    2.71000004
   15.78222179  120.61900330    0.95999998    2.71000004
   15.78527832  123.39199829    0.95999998    2.71000004
   15.78861141  130.97900391    0.95999998    2.71000004
   15.79194450  124.76599884    0.95999998    2.71000004
   15.79500008  126.64700317    0.95999998    2.71000004
   15.79833412  122.76000214    0.95999998    2.71000004
   15.80166721  126.47699738    0.95999998    2.71000004
   15.80749989  126.47699738    0.95999998    2.71000004
   15.81138897  130.16200256    0.95999998    2.71000004
   15.81472206  123.95400238    0.95999998    2.71000004
   15.81555557  119.41699982    0.95999998    2.71000004
   15.81833363  120.35399628    0.95999998    2.71000004
   15.82166672  126.70800018    0.95999998    2.71000004
   15.82499981  121.95500183    0.95999998    2.71000004
   15.82805538  127.12300110    0.95999998    2.71000004
   15.83138847  125.92099762    0.95999998    2.71000004
   15.83472157  124.80400085    0.95999998    2.71000004
   15.83777714  127.62200165    0.95999998    2.71000004
   15.84111118  123.77700043    0.95999998    2.71000004
   15.84416676  126.88999939    0.95999998    2.71000004
   15.85027790  126.88999939    0.95999998    2.71000004
   15.85444450  124.61199951    0.95999998    2.71000004
   15.85750008  127.48400116    0.95999998    2.71000004
   15.86083412  124.12699890    0.95999998    2.71000004
   15.86416721  127.82599640    0.95999998    2.71000004
   15.86722279  119.61900330    0.95999998    2.71000004
   15.87055588  130.71899414    0.95999998    2.71000004
   15.87361145  132.49200439    0.95999998    2.71000004
   15.87694454  129.09700012    0.95999998    2.71000004
   15.88027763  123.17199707    0.95999998    2.71000004
   15.88222218  121.93699646    0.95999998    2.71000004
   15.88361073  126.00299835    0.95999998    2.71000004
   15.88694477  119.65799713    0.95999998    2.71000004
   15.89305496  119.65799713    0.95999998    2.71000004
   15.89722252  122.29900360    0.95999998    2.71000004
   15.90055561  117.01300049    0.95999998    2.71000004
   15.90361118  123.86100006    0.95999998    2.71000004
   15.90694427  129.96800232    0.95999998    2.71000004
   15.90999985  119.57299805    0.95999998    2.71000004
   15.91333294  130.16999817    0.95999998    2.71000004
   15.91555500  116.17299652    0.95999998    2.71000004
   15.91694450  117.27999878    0.95999998    2.71000004
   15.92027855  123.13999939    0.95999998    2.71000004
   15.92361164  125.55100250    0.95999998    2.71000004
   15.92666721  124.74700165    0.95999998    2.71000004
   15.93000031  123.88600159    0.95999998    2.71000004
   15.93583298  123.88600159    0.95999998    2.71000004
   15.94000053  123.08799744    0.95999998    2.71000004
   15.94333363  125.53099823    0.95999998    2.71000004
   15.94666672  122.38700104    0.95999998    2.71000004
   15.94888878  125.73899841    0.95999998    2.71000004
   15.94999981  134.87300110    0.95999998    2.71000004
   15.95333290  134.68800354    0.95999998    2.71000004
   15.95666695  130.62300110    0.95999998    2.71000004
   15.95972157  127.52400208    0.95999998    2.71000004
   15.96305561  120.22200012    0.95999998    2.71000004
   15.96638870  124.60800171    0.95999998    2.71000004
   15.96944427  128.30700684    0.95999998    2.71000004
   15.97277737  123.78199768    0.95999998    2.71000004
   15.97888851  123.78199768    0.95999998    2.71000004
   15.98277760  121.37300110    0.95999998    2.71000004
   15.98611164  121.32299805    0.95999998    2.71000004
   15.98944473  128.21099854    0.95999998    2.71000004
   15.99250031  118.17400360    0.95999998    2.71000004
   15.99583340  118.26300049    0.95999998    2.71000004
   16.01527786  117.25800323    0.95999998    2.71000004
   16.01583290  119.02200317    0.95999998    2.71000004
   16.02194405  119.02200317    0.95999998    2.71000004
   16.02583313  139.20899963    0.95999998    2.71000004
   16.02916718  124.49299622    0.95999998    2.71000004
   16.03249931  133.60699463    0.95999998    2.71000004
   16.03555489  139.23399353    0.95999998    2.71000004
   16.03888893  158.44200134    0.95999998    2.71000004
   16.04194450  145.06100464    0.95999998    2.71000004
   16.04527664  132.92999268    0.95999998    2.71000004
   16.04861069  129.60400391    0.95999998    2.71000004
   16.04916573  134.49899292    0.95999998    2.71000004
   16.05222130  131.58000183    0.95999998    2.71000004
   16.05527687  135.94200134    0.95999998    2.71000004
   16.05861092  143.45899963    0.95999998    2.71000004
   16.06472206  143.45899963    0.95999998    2.71000004
   16.06888962  142.24800110    0.95999998    2.71000004
   16.07194519  122.96900177    0.95999998    2.71000004
   16.07527924  139.57699585    0.95999998    2.71000004
   16.07833481  142.56100464    0.95999998    2.71000004
   16.08166695  137.32899475    0.95999998    2.71000004
   16.08250046  135.51699829    0.95999998    2.71000004
   16.08527756  138.97799683    0.95999998    2.71000004
   16.08833313  136.82200623    0.95999998    2.71000004
   16.09166718  130.83700562    0.95999998    2.71000004
   16.09472275  131.24400330    0.95999998    2.71000004
   16.09805679  140.36900330    0.95999998    2.71000004
   16.10138893  129.22999573    0.95999998    2.71000004
   16.10750008  129.22999573    0.95999998    2.71000004
   16.11166763  135.77900696    0.95999998    2.71000004
   16.11472321  129.65400696    0.95999998    2.71000004
   16.11583328  132.19400024    0.95999998    2.71000004
   16.11861038  137.29800415    0.95999998    2.71000004
   16.12166595  127.84700012    0.95999998    2.71000004
   16.12500000  132.97200012    0.95999998    2.71000004
   16.12805557  132.04600525    0.95999998    2.71000004
   16.13138962  127.72599792    0.95999998    2.71000004
   16.13472176  124.93499756    0.95999998    2.71000004
   16.13777733  122.90399933    0.95999998    2.71000004
   16.14111137  121.71299744    0.95999998    2.71000004
   16.14444351  134.05900574    0.95999998    2.71000004
   16.15027809  134.05900574    0.95999998    2.71000004
   16.15444374  133.72999573    0.95999998    2.71000004
   16.15777779  136.45599365    0.95999998    2.71000004
   16.16083336  134.11799622    0.95999998    2.71000004
   16.16416550  134.75000000    0.95999998    2.71000004
   16.16722107  129.65199280    0.95999998    2.71000004
   16.17055511  140.15299988    0.95999998    2.71000004
   16.17388916  133.52200317    0.95999998    2.71000004
   16.17694473  145.15899658    0.95999998    2.71000004
   16.18027687  131.34399414    0.95999998    2.71000004
   16.18249893  144.38299561    0.95999998    2.71000004
   16.18388748  133.88999939    0.95999998    2.71000004
   16.18694305  132.66999817    0.95999998    2.71000004
   16.19305420  132.66999817    0.95999998    2.71000004
   16.19722176  136.24600220    0.95999998    2.71000004
   16.20055580  134.98899841    0.95999998    2.71000004
   16.20361137  133.24000549    0.95999998    2.71000004
   16.20694542  137.26899719    0.95999998    2.71000004
   16.21027946  135.02499390    0.95999998    2.71000004
   16.21333504  140.76800537    0.95999998    2.71000004
   16.21583366  131.57499695    0.95999998    2.71000004
   16.21722221  120.17199707    0.95999998    2.71000004
   16.22027779  140.94599915    0.95999998    2.71000004
   16.22361183  140.62699890    0.95999998    2.71000004
   16.22694588  127.93199921    0.95999998    2.71000004
   16.23000145  139.19099426    0.95999998    2.71000004
   16.23611069  139.19099426    0.95999998    2.71000004
   16.23999977  136.02099609    0.95999998    2.71000004
   16.24333382  144.19400024    0.95999998    2.71000004
   16.24666786  133.77600098    0.95999998    2.71000004
   16.24916649  145.27400208    0.95999998    2.71000004
   16.25027847  143.79499817    0.95999998    2.71000004
   16.25333405  139.06199646    0.95999998    2.71000004
   16.25666618  136.58399963    0.95999998    2.71000004
   16.26000023  135.08799744    0.95999998    2.71000004
   16.26305580  136.98699951    0.95999998    2.71000004
   16.26638794  136.60800171    0.95999998    2.71000004
   16.26944351  127.50800323    0.95999998    2.71000004
   16.27277756  132.55599976    0.95999998    2.71000004
   16.27888870  132.55599976    0.95999998    2.71000004
   16.28305435  136.10200500    0.95999998    2.71000004
   16.28610992  132.54499817    0.95999998    2.71000004
   16.28944397  130.92799377    0.95999998    2.71000004
   16.29277802  138.15499878    0.95999998    2.71000004
   16.29583359  145.85899353    0.95999998    2.71000004
   16.29916573  148.79200745    0.95999998    2.71000004
   16.30222130  143.07800293    0.95999998    2.71000004
   16.30555534  141.18800354    0.95999998    2.71000004
   16.30888748  144.91299438    0.95999998    2.71000004
   16.31194305  145.88299561    0.95999998    2.71000004
   16.31527710  141.33900452    0.95999998    2.71000004
   16.31583214  139.01699829    0.95999998    2.71000004
   16.32166672  139.01699829    0.95999998    2.71000004
   16.32583427  139.05999756    0.95999998    2.71000004
   16.32916832  144.06900024    0.95999998    2.71000004
   16.33222389  149.99400330    0.95999998    2.71000004
   16.33555603  142.89500427    0.95999998    2.71000004
   16.33861160  141.89399719    0.95999998    2.71000004
   16.34194565  139.78599548    0.95999998    2.71000004
   16.34527779  146.53799438    0.95999998    2.71000004
   16.34833336  153.47700500    0.95999998    2.71000004
   16.34916687  136.28700256    0.95999998    2.71000004
   16.35194397  144.08999634    0.95999998    2.71000004
   16.35499954  139.24800110    0.95999998    2.71000004
   16.35833359  144.89199829    0.95999998    2.71000004
   16.36444473  144.89199829    0.95999998    2.71000004
   16.36861038  141.32499695    0.95999998    2.71000004
   16.37194443  144.31199646    0.95999998    2.71000004
   16.37500000  133.46000671    0.95999998    2.71000004
   16.37833405  139.58200073    0.95999998    2.71000004
   16.38166618  141.95700073    0.95999998    2.71000004
   16.38249969  133.25300598    0.95999998    2.71000004
   16.38527679  149.99000549    0.95999998    2.71000004
   16.38833237  140.31199646    0.95999998    2.71000004
   16.39166641  137.18299866    0.95999998    2.71000004
   16.39500046  133.39799500    0.95999998    2.71000004
   16.39805603  129.75700378    0.95999998    2.71000004
   16.40138817  129.68400574    0.95999998    2.71000004
   16.40749931  129.68400574    0.95999998    2.71000004
   16.41138840  130.80400085    0.95999998    2.71000004
   16.41472244  139.99299622    0.95999998    2.71000004
   16.41583252  139.70599365    0.95999998    2.71000004
   16.41833305  131.25000000    0.95999998    2.71000004
   16.42138863  128.21000671    0.95999998    2.71000004
   16.42472076  133.73500061    0.95999998    2.71000004
   16.42805481  133.88699341    0.95999998    2.71000004
   16.43111038  137.27900696    0.95999998    2.71000004
   16.43444443  137.59300232    0.95999998    2.71000004
   16.43750000  132.63000488    0.95999998    2.71000004
   16.44083214  137.90299988    0.95999998    2.71000004
   16.44416618  131.81500244    0.95999998    2.71000004
   16.45027924  131.81500244    0.95999998    2.71000004
   16.45444489  130.91999817    0.95999998    2.71000004
   16.45750046  127.50700378    0.95999998    2.71000004
   16.46083450  127.87699890    0.95999998    2.71000004
   16.46416664  134.42199707    0.95999998    2.71000004
   16.46722221  131.92300415    0.95999998    2.71000004
   16.47055626  136.80799866    0.95999998    2.71000004
   16.47361183  136.88600159    0.95999998    2.71000004
   16.47694588  136.10400391    0.95999998    2.71000004
   16.48027802  137.78900146    0.95999998    2.71000004
   16.48250008  154.25700378    0.95999998    2.71000004
   16.48388863  141.17399597    0.95999998    2.71000004
   16.48694420  144.99600220    0.95999998    2.71000004
   16.49305534  144.99600220    0.95999998    2.71000004
   16.49722290  145.87100220    0.95999998    2.71000004
   16.50055504  136.18699646    0.95999998    2.71000004
   16.50361061  138.65499878    0.95999998    2.71000004
   16.50694466  146.32000732    0.95999998    2.71000004
   16.51000023  140.50900269    0.95999998    2.71000004
   16.51333427  142.30400085    0.95999998    2.71000004
   16.51583290  136.75700378    0.95999998    2.71000004
   16.51694489  142.33700562    0.95999998    2.71000004
   16.52000046  132.57499695    0.95999998    2.71000004
   16.52333260  134.69000244    0.95999998    2.71000004
   16.52666664  146.14500427    0.95999998    2.71000004
   16.52972221  141.51800537    0.95999998    2.71000004
   16.53583336  141.51800537    0.95999998    2.71000004
   16.53999901  142.89999390    0.95999998    2.71000004
   16.54333305  137.34899902    0.95999998    2.71000004
   16.54638863  134.21299744    0.95999998    2.71000004
   16.54916573  135.03300476    0.95999998    2.71000004
   16.55027771  135.28199768    0.95999998    2.71000004
   16.55333328  132.59500122    0.95999998    2.71000004
   16.55666542  137.86900330    0.95999998    2.71000004
   16.55999947  140.07099915    0.95999998    2.71000004
   16.56305504  137.07099915    0.95999998    2.71000004
   16.56638718  138.68400574    0.95999998    2.71000004
   16.56972313  146.49899292    0.95999998    2.71000004
   16.57277870  139.33599854    0.95999998    2.71000004
   16.57888985  139.33599854    0.95999998    2.71000004
   16.58277893  141.17500305    0.95999998    2.71000004
   16.58611107  152.50700378    0.95999998    2.71000004
   16.58944511  155.12800598    0.95999998    2.71000004
   16.59250069  144.63299561    0.95999998    2.71000004
   16.59583473  153.70500183    0.95999998    2.71000004
   16.59916687  135.90299988    0.95999998    2.71000004
   16.60222244  148.41999817    0.95999998    2.71000004
   16.60555649  136.53799438    0.95999998    2.71000004
   16.60861206  138.22300720    0.95999998    2.71000004
   16.61194420  135.57200623    0.95999998    2.71000004
   16.61527824  141.50300598    0.95999998    2.71000004
   16.61583328  136.84100342    0.95999998    2.71000004
   16.62166595  136.84100342    0.95999998    2.71000004
   16.62583351  141.84399414    0.95999998    2.71000004
   16.62888908  136.95100403    0.95999998    2.71000004
   16.63222313  135.04400635    0.95999998    2.71000004
   16.63555527  137.80499268    0.95999998    2.71000004
   16.63861084  135.98500061    0.95999998    2.71000004
   16.64194489  141.25900269    0.95999998    2.71000004
   16.64500046  134.15299988    0.95999998    2.71000004
   16.64833260  134.79499817    0.95999998    2.71000004
   16.64916611  132.85299683    0.95999998    2.71000004
   16.65194321  130.97999573    0.95999998    2.71000004
   16.65499878  121.28600311    0.95999998    2.71000004
   16.65833282  129.38800049    0.95999998    2.71000004
   16.66444397  129.38800049    0.95999998    2.71000004
   16.66860962  139.67399597    0.95999998    2.71000004
   16.67194366  142.53300476    0.95999998    2.71000004
   16.67499924  133.07099915    0.95999998    2.71000004
   16.67833328  132.04299927    0.95999998    2.71000004
   16.68138885  135.90600586    0.95999998    2.71000004
   16.68249893  129.95599365    0.95999998    2.71000004
   16.68499947  136.81599426    0.95999998    2.71000004
   16.68833160  126.25000000    0.95999998    2.71000004
   16.69138718  131.70199585    0.95999998    2.71000004
   16.69472122  126.53800201    0.95999998    2.71000004
   16.69777679  129.03599548    0.95999998    2.71000004
   16.70111275  133.32800293    0.95999998    2.71000004
   16.70722389  133.32800293    0.95999998    2.71000004
   16.71138954  131.28799438    0.95999998    2.71000004
   16.71472359  136.13000488    0.95999998    2.71000004
   16.71583366  139.32699585    0.95999998    2.71000004
   16.71833420  134.60499573    0.95999998    2.71000004
   16.72166634  127.22100067    0.95999998    2.71000004
   16.72472191  125.66799927    0.95999998    2.71000004
   16.72805595  128.93600464    0.95999998    2.71000004
   16.73111153  125.53800201    0.95999998    2.71000004
   16.73444557  127.90299988    0.95999998    2.71000004
   16.73777771  134.52799988    0.95999998    2.71000004
   16.74083328  134.94099426    0.95999998    2.71000004
   16.74416733  130.47599792    0.95999998    2.71000004
   16.75027847  130.47599792    0.95999998    2.71000004
   16.75416756  130.20399475    0.95999998    2.71000004
   16.75749969  127.98300171    0.95999998    2.71000004
   16.76083374  137.06500244    0.95999998    2.71000004
   16.76388931  124.20999908    0.95999998    2.71000004
   16.76722145  140.10899353    0.95999998    2.71000004
   16.77055550  120.23999786    0.95999998    2.71000004
   16.77361107  131.77799988    0.95999998    2.71000004
   16.77694511  125.46399689    0.95999998    2.71000004
   16.78000069  126.02500153    0.95999998    2.71000004
   16.78249931  133.32699585    0.95999998    2.71000004
   16.78361130  132.20300293    0.95999998    2.71000004
   16.78694344  128.56900024    0.95999998    2.71000004
   16.79305458  128.56900024    0.95999998    2.71000004
   16.79722214  128.16900635    0.95999998    2.71000004
   16.80027771  130.27000427    0.95999998    2.71000004
   16.80360985  128.01100159    0.95999998    2.71000004
   16.80694389  124.10600281    0.95999998    2.71000004
   16.80999947  122.77500153    0.95999998    2.71000004
   16.81333351  130.65600586    0.95999998    2.71000004
   16.81583214  126.13500214    0.95999998    2.71000004
   16.81694603  130.72500610    0.95999998    2.71000004
   16.82027817  124.98400116    0.95999998    2.71000004
   16.82333374  125.51000214    0.95999998    2.71000004
   16.82666779  127.94100189    0.95999998    2.71000004
   16.82972336  129.53900146    0.95999998    2.71000004
   16.83583450  129.53900146    0.95999998    2.71000004
   16.84000015  130.60499573    0.95999998    2.71000004
   16.84333420  128.03599548    0.95999998    2.71000004
   16.84638977  128.89100647    0.95999998    2.71000004
   16.84916687  125.97200012    0.95999998    2.71000004
   16.85000038  127.75800323    0.95999998    2.71000004
   16.85333443  119.55599976    0.95999998    2.71000004
   16.85639000  120.54100037    0.95999998    2.71000004
   16.85972214  127.61199951    0.95999998    2.71000004
   16.86277771  121.85099792    0.95999998    2.71000004
   16.86611176  126.59999847    0.95999998    2.71000004
   16.86944389  128.39300537    0.95999998    2.71000004
   16.87249947  126.10099792    0.95999998    2.71000004
   16.87861061  126.10099792    0.95999998    2.71000004
   16.88277817  133.74299622    0.95999998    2.71000004
   16.88611031  132.23399353    0.95999998    2.71000004
   16.88944435  124.79399872    0.95999998    2.71000004
   16.89249992  128.10400391    0.95999998    2.71000004
   16.89583397  129.45100403    0.95999998    2.71000004
   16.89916611  123.99800110    0.95999998    2.71000004
   16.90222168  125.05899811    0.95999998    2.71000004
   16.90555573  132.49299622    0.95999998    2.71000004
   16.90861130  126.08799744    0.95999998    2.71000004
   16.91194344  133.92199707    0.95999998    2.71000004
   16.91527748  124.10900116    0.95999998    2.71000004
   16.91583252  124.16300201    0.95999998    2.71000004
   16.92166519  124.16300201    0.95999998    2.71000004
   16.92555428  129.25199890    0.95999998    2.71000004
   16.92888832  135.13000488    0.95999998    2.71000004
   16.93222237  135.83000183    0.95999998    2.71000004
   16.93527603  128.47900391    0.95999998    2.71000004
   16.93861008  129.41999817    0.95999998    2.71000004
   16.94194412  131.81700134    0.95999998    2.71000004
   16.94499969  123.41000366    0.95999998    2.71000004
   16.94833183  131.13999939    0.95999998    2.71000004
   16.94916534  130.61999512    0.95999998    2.71000004
   16.95194435  139.94099426    0.95999998    2.71000004
   16.95527840  130.38400269    0.95999998    2.71000004
   16.95833397  131.99400330    0.95999998    2.71000004
   16.96444511  131.99400330    0.95999998    2.71000004
   16.96861076  134.67399597    0.95999998    2.71000004
   16.97166634  137.56399536    0.95999998    2.71000004
   16.97500038  136.72300720    0.95999998    2.71000004
   16.97833443  133.83500671    0.95999998    2.71000004
   16.98139000  121.38999939    0.95999998    2.71000004
   16.98250008  126.66300201    0.95999998    2.71000004
   16.98500061  127.53700256    0.95999998    2.71000004
   16.98833275  122.19799805    0.95999998    2.71000004
   16.99138832  131.65499878    0.95999998    2.71000004
   16.99472237  127.35800171    0.95999998    2.71000004
   16.99805641  131.18499756    0.95999998    2.71000004
   17.00111198  133.19299316    0.95999998    2.71000004
   17.00722313  133.19299316    0.95999998    2.71000004
   17.01138878  126.11499786    0.95999998    2.71000004
   17.01472282  129.66299438    0.95999998    2.71000004
   17.03166580  128.12600708    0.95999998    2.71000004
   17.03416634  129.98699951    0.95999998    2.71000004
   17.03750038  125.95999908    0.95999998    2.71000004
   17.04083252  135.08599854    0.95999998    2.71000004
   17.04388809  125.68900299    0.95999998    2.71000004
   17.04999924  125.68900299    0.95999998    2.71000004
   17.05416679  128.17700195    0.95999998    2.71000004
   17.05749893  124.69300079    0.95999998    2.71000004
   17.06055450  123.46600342    0.95999998    2.71000004
   17.06388855  126.91100311    0.95999998    2.71000004
   17.06499863  124.05100250    0.95999998    2.71000004
   17.06750107  131.28500366    0.95999998    2.71000004
   17.07083511  128.79600525    0.95999998    2.71000004
   17.07416725  130.35699463    0.95999998    2.71000004
   17.07722282  127.68599701    0.95999998    2.71000004
   17.08055687  130.12600708    0.95999998    2.71000004
   17.08361244  127.96099854    0.95999998    2.71000004
   17.08694458  132.15800476    0.95999998    2.71000004
   17.09305573  132.15800476    0.95999998    2.71000004
   17.09694481  132.30599976    0.95999998    2.71000004
   17.09833336  129.51899719    0.95999998    2.71000004
   17.10055542  129.87699890    0.95999998    2.71000004
   17.10388947  128.96499634    0.95999998    2.71000004
   17.10722351  126.64199829    0.95999998    2.71000004
   17.11027908  124.01100159    0.95999998    2.71000004
   17.11361122  122.61499786    0.95999998    2.71000004
   17.11666679  126.34600067    0.95999998    2.71000004
   17.12000084  132.19799805    0.95999998    2.71000004
   17.12333298  133.18600464    0.95999998    2.71000004
   17.12638855  133.08599854    0.95999998    2.71000004
   17.12972260  130.80999756    0.95999998    2.71000004
   17.13166618  126.57099915    0.95999998    2.71000004
   17.13583374  126.57099915    0.95999998    2.71000004
   17.13999939  132.04800415    0.95999998    2.71000004
   17.14305496  131.66799927    0.95999998    2.71000004
   17.14638901  130.53100586    0.95999998    2.71000004
   17.14972115  129.04600525    0.95999998    2.71000004
   17.15305519  131.92799377    0.95999998    2.71000004
   17.15611076  130.55700684    0.95999998    2.71000004
   17.15944481  131.85299683    0.95999998    2.71000004
   17.16250038  127.07399750    0.95999998    2.71000004
   17.16499901  127.78099823    0.95999998    2.71000004
   17.16611099  129.12500000    0.95999998    2.71000004
   17.16944313  126.30400085    0.95999998    2.71000004
   17.17277718  126.87799835    0.95999998    2.71000004
   17.17860985  126.87799835    0.95999998    2.71000004
   17.18277740  125.17199707    0.95999998    2.71000004
   17.18610954  130.92399597    0.95999998    2.71000004
   17.18916512  137.26600647    0.95999998    2.71000004
   17.19249916  128.36799622    0.95999998    2.71000004
   17.19555473  129.66499329    0.95999998    2.71000004
   17.19833183  121.94000244    0.95999998    2.71000004
   17.19916534  125.09999847    0.95999998    2.71000004
   17.20250130  131.07499695    0.95999998    2.71000004
   17.20583344  126.78099823    0.95999998    2.71000004
   17.20888901  133.08000183    0.95999998    2.71000004
   17.21222305  131.15800476    0.95999998    2.71000004
   17.21527863  134.02799988    0.95999998    2.71000004
   17.22138977  134.02799988    0.95999998    2.71000004
   17.22555542  129.85099792    0.95999998    2.71000004
   17.22888947  134.80599976    0.95999998    2.71000004
   17.23166656  125.49900055    0.95999998    2.71000004
   17.23250008  131.21600342    0.95999998    2.71000004
   17.23555565  132.28399658    0.95999998    2.71000004
   17.23888969  127.01000214    0.95999998    2.71000004
   17.24222183  122.46499634    0.95999998    2.71000004
   17.24527740  133.32099915    0.95999998    2.71000004
   17.24861145  130.73399353    0.95999998    2.71000004
   17.25166702  130.34500122    0.95999998    2.71000004
   17.25499916  126.06300354    0.95999998    2.71000004
   17.25833321  121.48400116    0.95999998    2.71000004
   17.26444435  121.48400116    0.95999998    2.71000004
   17.26833344  124.54000092    0.95999998    2.71000004
   17.27166557  128.12199402    0.95999998    2.71000004
   17.27499962  124.51799774    0.95999998    2.71000004
   17.27805519  122.50599670    0.95999998    2.71000004
   17.28138924  167.85099792    0.95999998    2.71000004
   17.28472137  123.46800232    0.95999998    2.71000004
   17.28777695  132.45799255    0.95999998    2.71000004
   17.29111099  124.85500336    0.95999998    2.71000004
   17.29416656  128.75199890    0.95999998    2.71000004
   17.29749870  122.51899719    0.95999998    2.71000004
   17.29944420  126.37799835    0.95999998    2.71000004
   17.30111122  128.03399658    0.95999998    2.71000004
   17.30722237  128.03399658    0.95999998    2.71000004
   17.31138802  125.50700378    0.95999998    2.71000004
   17.31444359  128.81199646    0.95999998    2.71000004
   17.31777954  125.28700256    0.95999998    2.71000004
   17.32111168  124.94300079    0.95999998    2.71000004
   17.32416725  131.92599487    0.95999998    2.71000004
   17.32750130  123.86499786    0.95999998    2.71000004
   17.33055687  125.58000183    0.95999998    2.71000004
   17.33277893  132.53199768    0.95999998    2.71000004
   17.33416748  131.66499329    0.95999998    2.71000004
   17.33750153  123.88700104    0.95999998    2.71000004
   17.34055710  123.06400299    0.95999998    2.71000004
   17.34388924  131.06799316    0.95999998    2.71000004
   17.35000038  131.06799316    0.95999998    2.71000004
   17.35416794  124.50000000    0.95999998    2.71000004
   17.35750008  125.26799774    0.95999998    2.71000004
   17.36055565  131.11099243    0.95999998    2.71000004
   17.36388969  134.52699280    0.95999998    2.71000004
   17.36611176  126.98100281    0.95999998    2.71000004
   17.36750031  136.73699951    0.95999998    2.71000004
   17.37083435  126.27400208    0.95999998    2.71000004
   17.37388992  129.64599609    0.95999998    2.71000004
   17.37722206  130.91000366    0.95999998    2.71000004
   17.38055611  131.03700256    0.95999998    2.71000004
   17.38361168  130.92199707    0.95999998    2.71000004
   17.38694382  127.58999634    0.95999998    2.71000004
   17.39277840  127.58999634    0.95999998    2.71000004
   17.39694405  129.41400146    0.95999998    2.71000004
   17.39944458  127.08100128    0.95999998    2.71000004
   17.40055466  131.01100159    0.95999998    2.71000004
   17.40388870  132.75999451    0.95999998    2.71000004
   17.40694427  128.40899658    0.95999998    2.71000004
   17.41027832  138.11700439    0.95999998    2.71000004
   17.41333389  135.63600159    0.95999998    2.71000004
   17.41666603  143.25900269    0.95999998    2.71000004
   17.42000008  133.70399475    0.95999998    2.71000004
   17.42305565  139.94000244    0.95999998    2.71000004
   17.42638779  151.87899780    0.95999998    2.71000004
   17.42972183  153.87699890    0.95999998    2.71000004
   17.43583298  153.87699890    0.95999998    2.71000004
   17.43972206  150.13299561    0.95999998    2.71000004
   17.44305420  140.33700562    0.95999998    2.71000004
   17.44638824  146.50700378    0.95999998    2.71000004
   17.44944382  142.40299988    0.95999998    2.71000004
   17.45277786  145.42799377    0.95999998    2.71000004
   17.45611191  151.68200684    0.95999998    2.71000004
   17.45916748  155.29899597    0.95999998    2.71000004
   17.46250153  140.25599670    0.95999998    2.71000004
   17.46555710  141.80599976    0.95999998    2.71000004
   17.46666718  150.89199829    0.95999998    2.71000004
   17.46916771  139.22900391    0.95999998    2.71000004
   17.47249985  137.30599976    0.95999998    2.71000004
   17.47861099  137.30599976    0.95999998    2.71000004
   17.48277855  139.33799744    0.95999998    2.71000004
   17.48583412  123.22699738    0.95999998    2.71000004
   17.48916626  122.96700287    0.95999998    2.71000004
   17.49250031  135.01800537    0.95999998    2.71000004
   17.49555588  137.43400574    0.95999998    2.71000004
   17.49888992  133.49400330    0.95999998    2.71000004
   17.50000000  136.88000488    0.95999998    2.71000004
   17.50222206  134.86700439    0.95999998    2.71000004
   17.50555611  138.53999329    0.95999998    2.71000004
   17.50888824  146.67700195    0.95999998    2.71000004
   17.51194382  135.36399841    0.95999998    2.71000004
   17.51527786  134.97599792    0.95999998    2.71000004
   17.52138901  134.97599792    0.95999998    2.71000004
   17.52555466  134.26100159    0.95999998    2.71000004
   17.52888870  139.90899658    0.95999998    2.71000004
   17.53194427  135.47900391    0.95999998    2.71000004
   17.53333282  129.77900696    0.95999998    2.71000004
   17.53555489  141.57699585    0.95999998    2.71000004
   17.53888893  127.56500244    0.95999998    2.71000004
   17.54194450  126.62999725    0.95999998    2.71000004
   17.54527664  137.00300598    0.95999998    2.71000004
   17.54861069  133.77699280    0.95999998    2.71000004
   17.55166626  123.89600372    0.95999998    2.71000004
   17.55499840  134.57200623    0.95999998    2.71000004
   17.55833244  128.65800476    0.95999998    2.71000004
   17.56416512  128.65800476    0.95999998    2.71000004
   17.56833458  132.37500000    0.95999998    2.71000004
   17.57166672  139.09199524    0.95999998    2.71000004
   17.57472229  147.32899475    0.95999998    2.71000004
   17.57805634  133.52099609    0.95999998    2.71000004
   17.58139038  137.15299988    0.95999998    2.71000004
   17.58444595  144.63499451    0.95999998    2.71000004
   17.58777809  124.50499725    0.95999998    2.71000004
   17.59111214  140.58799744    0.95999998    2.71000004
   17.59416771  132.16400146    0.95999998    2.71000004
   17.59749985  124.37699890    0.95999998    2.71000004
   17.60027885  134.33299255    0.95999998    2.71000004
   17.60111237  122.44999695    0.95999998    2.71000004
   17.60722351  122.44999695    0.95999998    2.71000004
   17.61111069  132.08599854    0.95999998    2.71000004
   17.61444473  136.41900635    0.95999998    2.71000004
   17.61777878  134.83000183    0.95999998    2.71000004
   17.62083435  132.72000122    0.95999998    2.71000004
   17.62416649  139.46600342    0.95999998    2.71000004
   17.62750053  134.27000427    0.95999998    2.71000004
   17.63055611  131.91799927    0.95999998    2.71000004
   17.63361168  147.90899658    0.95999998    2.71000004
   17.63416672  137.01699829    0.95999998    2.71000004
   17.63750076  133.39199829    0.95999998    2.71000004
   17.64055634  133.76899719    0.95999998    2.71000004
   17.64388847  145.10299683    0.95999998    2.71000004
   17.64999962  145.10299683    0.95999998    2.71000004
   17.65416718  127.75900269    0.95999998    2.71000004
   17.65722275  136.52799988    0.95999998    2.71000004
   17.66055489  131.16000366    0.95999998    2.71000004
   17.66388893  134.12899780    0.95999998    2.71000004
   17.66694450  141.18099976    0.95999998    2.71000004
   17.66722107  135.37899780    0.95999998    2.71000004
   17.67055511  127.70899963    0.95999998    2.71000004
   17.67361069  126.55999756    0.95999998    2.71000004
   17.67694473  132.26600647    0.95999998    2.71000004
   17.68027687  131.05999756    0.95999998    2.71000004
   17.68333244  125.23500061    0.95999998    2.71000004
   17.68666649  132.85400391    0.95999998    2.71000004
   17.69277763  132.85400391    0.95999998    2.71000004
   17.69694328  135.77900696    0.95999998    2.71000004
   17.70027924  131.95799255    0.95999998    2.71000004
   17.70055580  126.10800171    0.95999998    2.71000004
   17.70388985  133.21899414    0.95999998    2.71000004
   17.70694542  126.33499908    0.95999998    2.71000004
   17.71027946  139.80900574    0.95999998    2.71000004
   17.71361160  139.22700500    0.95999998    2.71000004
   17.71666718  142.59100342    0.95999998    2.71000004
   17.72000122  138.24899292    0.95999998    2.71000004
   17.72333336  146.04400635    0.95999998    2.71000004
   17.72638893  138.91299438    0.95999998    2.71000004
   17.72972298  127.55300140    0.95999998    2.71000004
   17.73555565  127.55300140    0.95999998    2.71000004
   17.73972321  146.83399963    0.95999998    2.71000004
   17.74305534  133.52699280    0.95999998    2.71000004
   17.74611092  144.69500732    0.95999998    2.71000004
   17.74944496  147.26499939    0.95999998    2.71000004
   17.75277710  143.38000488    0.95999998    2.71000004
   17.75611115  143.29100037    0.95999998    2.71000004
   17.75916672  145.60000610    0.95999998    2.71000004
   17.76250076  147.81100464    0.95999998    2.71000004
   17.76583290  138.67100525    0.95999998    2.71000004
   17.76694489  136.97200012    0.95999998    2.71000004
   17.76916695  138.16099548    0.95999998    2.71000004
   17.77249908  136.34199524    0.95999998    2.71000004
   17.77833366  136.34199524    0.95999998    2.71000004
   17.78249931  139.91600037    0.95999998    2.71000004
   17.78583336  132.92999268    0.95999998    2.71000004
   17.78916550  138.97300720    0.95999998    2.71000004
   17.79222107  132.53199768    0.95999998    2.71000004
   17.79555511  135.80499268    0.95999998    2.71000004
   17.79888916  132.78300476    0.95999998    2.71000004
   17.80027771  138.55299377    0.95999998    2.71000004
   17.80222130  146.56799316    0.95999998    2.71000004
   17.80555534  151.74499512    0.95999998    2.71000004
   17.80888748  137.03999329    0.95999998    2.71000004
   17.81194305  145.12100220    0.95999998    2.71000004
   17.81527710  139.78599548    0.95999998    2.71000004
   17.82139015  139.78599548    0.95999998    2.71000004
   17.82555580  142.26899719    0.95999998    2.71000004
   17.82861137  145.86599731    0.95999998    2.71000004
   17.83194542  168.79600525    0.95999998    2.71000004
   17.83361244  152.10099792    0.95999998    2.71000004
   17.83555603  147.97099304    0.95999998    2.71000004
   17.83889008  155.77400208    0.95999998    2.71000004
   17.84194565  156.61999512    0.95999998    2.71000004
   17.84527779  155.89399719    0.95999998    2.71000004
   17.84861183  158.60899353    0.95999998    2.71000004
   17.85166740  147.69599915    0.95999998    2.71000004
   17.85499954  151.36399841    0.95999998    2.71000004
   17.85833359  152.07899475    0.95999998    2.71000004
   17.86416626  152.07899475    0.95999998    2.71000004
   17.86833382  146.63999939    0.95999998    2.71000004
   17.87166595  150.20199585    0.95999998    2.71000004
   17.87472153  148.79100037    0.95999998    2.71000004
   17.87805557  153.62800598    0.95999998    2.71000004
   17.88111115  148.05599976    0.95999998    2.71000004
   17.88444519  134.36000061    0.95999998    2.71000004
   17.88777733  135.88900757    0.95999998    2.71000004
   17.89083290  143.65600586    0.95999998    2.71000004
   17.89416695  131.12100220    0.95999998    2.71000004
   17.89722252  130.92500305    0.95999998    2.71000004
   17.90055466  140.67399597    0.95999998    2.71000004
   17.90083313  138.69000244    0.95999998    2.71000004
   17.90694427  138.69000244    0.95999998    2.71000004
   17.91110992  168.25199890    0.95999998    2.71000004
   17.91444397  172.08799744    0.95999998    2.71000004
   17.91749954  156.41200256    0.95999998    2.71000004
   17.92083359  153.56300354    0.95999998    2.71000004
   17.92416573  148.55200195    0.95999998    2.71000004
   17.92722130  147.98399353    0.95999998    2.71000004
   17.93055534  165.58599854    0.95999998    2.71000004
   17.93388748  155.53900146    0.95999998    2.71000004
   17.93416595  148.93400574    0.95999998    2.71000004
   17.93750000  170.95599365    0.95999998    2.71000004
   17.94055557  181.64100647    0.95999998    2.71000004
   17.94388771  222.90899658    0.95999998    2.71000004
   17.95000076  222.90899658    0.95999998    2.71000004
   17.95388985  150.93400574    0.95999998    2.71000004
   17.95722389  154.63900757    0.95999998    2.71000004
   17.96055603  146.94500732    0.95999998    2.71000004
   17.96361160  170.68600464    0.95999998    2.71000004
   17.96694565  150.97799683    0.95999998    2.71000004
   17.96750069  164.03700256    0.95999998    2.71000004
   17.97055626  148.67199707    0.95999998    2.71000004
   17.97389030  198.37899780    0.95999998    2.71000004
   17.97694588  210.91400146    0.95999998    2.71000004
   17.98027802  213.73899841    0.95999998    2.71000004
   17.98361206  271.13699341    0.95999998    2.71000004
   17.98666763  162.71200562    0.95999998    2.71000004
   17.99277878  162.71200562    0.95999998    2.71000004
   17.99694443  229.03599548    0.95999998    2.71000004
   18.00000000  175.29800415    0.95999998    2.71000004
   18.00083351  182.10699463    0.95999998    2.71000004
   18.00361061  180.17999268    0.95999998    2.71000004
   18.00694466  164.91400146    0.95999998    2.71000004
   18.01000023  213.04499817    0.95999998    2.71000004
   18.01333427  355.51300049    0.95999998    2.71000004
   18.01666641  187.76199341    0.95999998    2.71000004
   18.01972198  210.49699402    0.95999998    2.71000004
   18.02305603  386.00500488    0.95999998    2.71000004
   18.02638817  240.88200378    0.95999998    2.71000004
   18.02944374  188.80799866    0.95999998    2.71000004
   18.04972076   87.36239624    0.95999998    2.71000004
   18.05055428   96.64820099    0.95999998    2.71000004
   18.05360985  217.55900574    0.95999998    2.71000004
   18.05694389  114.72899628    0.95999998    2.71000004
   18.06027794  145.75399780    0.95999998    2.71000004
   18.06333351   85.61119843    0.95999998    2.71000004
   18.06666756   -1.00000000    0.95999998    2.71000004
   18.06972313   -1.00000000    0.95999998    2.71000004
   18.07305717   -1.00000000    0.95999998    2.71000004
   18.07833481   -1.00000000    0.95999998    2.71000004
   18.08250046   -1.00000000    0.95999998    2.71000004
   18.08611107   -1.00000000    0.95999998    2.71000004
   18.08944511   -1.00000000    0.95999998    2.71000004
   18.09277916   -1.00000000    0.95999998    2.71000004
   18.09583473   -1.00000000    0.95999998    2.71000004
   18.09916687   -1.00000000    0.95999998    2.71000004
   18.10222244   -1.00000000    0.95999998    2.71000004
   18.10555649   -1.00000000    0.95999998    2.71000004
   18.10888863   -1.00000000    0.95999998    2.71000004
   18.11194420   -1.00000000    0.95999998    2.71000004
   18.11527824   -1.00000000    0.95999998    2.71000004
   18.12527847   -1.00000000    0.95999998    2.71000004
   18.12861061   -1.00000000    0.95999998    2.71000004
   18.13166618   -1.00000000    0.95999998    2.71000004
   18.13500023   -1.00000000    0.95999998    2.71000004
   18.13833237   -1.00000000    0.95999998    2.71000004
   18.14138794   -1.00000000    0.95999998    2.71000004
   18.14472198   -1.00000000    0.95999998    2.71000004
   18.14777756   -1.00000000    0.95999998    2.71000004
   18.15138817   -1.00000000    0.95999998    2.71000004
   18.15472221   -1.00000000    0.95999998    2.71000004
   18.15805435   -1.00000000    0.95999998    2.71000004
   18.16805458   -1.00000000    0.95999998    2.71000004
   18.17138863   -1.00000000    0.95999998    2.71000004
   18.17472076   -1.00000000    0.95999998    2.71000004
   18.17777634   -1.00000000    0.95999998    2.71000004
   18.18111038   -1.00000000    0.95999998    2.71000004
   18.18444443   -1.00000000    0.95999998    2.71000004
   18.18777657   -1.00000000    0.95999998    2.71000004
   18.19111061   -1.00000000    0.95999998    2.71000004
   18.19416618   -1.00000000    0.95999998    2.71000004
   18.19749832   -1.00000000    0.95999998    2.71000004
   18.20055580   -1.00000000    0.95999998    2.71000004
   18.21111107   -1.00000000    0.95999998    2.71000004
   18.21416664   -1.00000000    0.95999998    2.71000004
   18.21777916   -1.00000000    0.95999998    2.71000004
   18.22111130   -1.00000000    0.95999998    2.71000004
   18.22444534   -1.00000000    0.95999998    2.71000004
   18.22750092   -1.00000000    0.95999998    2.71000004
   18.23083305   -1.00000000    0.95999998    2.71000004
   18.23388863   -1.00000000    0.95999998    2.71000004
   18.23722267   -1.00000000    0.95999998    2.71000004
   18.24055672   -1.00000000    0.95999998    2.71000004
   18.24361229   -1.00000000    0.95999998    2.71000004
   18.25388908   -1.00000000    0.95999998    2.71000004
   18.25694466   -1.00000000    0.95999998    2.71000004
   18.26027870   -1.00000000    0.95999998    2.71000004
   18.26361084   -1.00000000    0.95999998    2.71000004
   18.26666641   -1.00000000    0.95999998    2.71000004
   18.27000046   -1.00000000    0.95999998    2.71000004
   18.27333260   -1.00000000    0.95999998    2.71000004
   18.27638817   -1.00000000    0.95999998    2.71000004
   18.27972221   -1.00000000    0.95999998    2.71000004
   18.28277779   -1.00000000    0.95999998    2.71000004
   18.28666687   -1.00000000    0.95999998    2.71000004
   18.29666710   -1.00000000    0.95999998    2.71000004
   18.29999924   -1.00000000    0.95999998    2.71000004
   18.30305481   -1.00000000    0.95999998    2.71000004
   18.30638885   -1.00000000    0.95999998    2.71000004
   18.30972099   -1.00000000    0.95999998    2.71000004
   18.31277657   -1.00000000    0.95999998    2.71000004
   18.31611061   -1.00000000    0.95999998    2.71000004
   18.31972313   -1.00000000    0.95999998    2.71000004
   18.32277870   -1.00000000    0.95999998    2.71000004
   18.32611275   -1.00000000    0.95999998    2.71000004
   18.32944489   -1.00000000    0.95999998    2.71000004
   18.33944511   -1.00000000    0.95999998    2.71000004
   18.34277916   -1.00000000    0.95999998    2.71000004
   18.34611130   -1.00000000    0.95999998    2.71000004
   18.34916687   -1.00000000    0.95999998    2.71000004
   18.35277748   -1.00000000    0.95999998    2.71000004
   18.35583305   -1.00000000    0.95999998    2.71000004
   18.35916710   -1.00000000    0.95999998    2.71000004
   18.36250114   -1.00000000    0.95999998    2.71000004
   18.36555672   -1.00000000    0.95999998    2.71000004
   18.36888885   -1.00000000    0.95999998    2.71000004
   18.37194443   -1.00000000    0.95999998    2.71000004
   18.38249969   -1.00000000    0.95999998    2.71000004
   18.38611031   -1.00000000    0.95999998    2.71000004
   18.38916588   -1.00000000    0.95999998    2.71000004
   18.39249992   -1.00000000    0.95999998    2.71000004
   18.39583397   -1.00000000    0.95999998    2.71000004
   18.39888954   -1.00000000    0.95999998    2.71000004
   18.40222168   -1.00000000    0.95999998    2.71000004
   18.40527725   -1.00000000    0.95999998    2.71000004
   18.40861130   -1.00000000    0.95999998    2.71000004
   18.41194344   -1.00000000    0.95999998    2.71000004
   18.41499901   -1.00000000    0.95999998    2.71000004
   18.42527771   -1.00000000    0.95999998    2.71000004
   18.42833328   -1.00000000    0.95999998    2.71000004
   18.43166542   -1.00000000    0.95999998    2.71000004
   18.43499947   -1.00000000    0.95999998    2.71000004
   18.43805504   -1.00000000    0.95999998    2.71000004
   18.44138718   -1.00000000    0.95999998    2.71000004
   18.44472122   -1.00000000    0.95999998    2.71000004
   18.44777679   -1.00000000    0.95999998    2.71000004
   18.45138931   -1.00000000    0.95999998    2.71000004
   18.45444489   -1.00000000    0.95999998    2.71000004
   18.45777893   -1.00000000    0.95999998    2.71000004
   18.46805573   -1.00000000    0.95999998    2.71000004
   18.47138977   -1.00000000    0.95999998    2.71000004
   18.47444534   -1.00000000    0.95999998    2.71000004
   18.47777748   -1.00000000    0.95999998    2.71000004
   18.48111153   -1.00000000    0.95999998    2.71000004
   18.48472214   -1.00000000    0.95999998    2.71000004
   18.48777771   -1.00000000    0.95999998    2.71000004
   18.49111176   -1.00000000    0.95999998    2.71000004
   18.49444389   -1.00000000    0.95999998    2.71000004
   18.49749947   -1.00000000    0.95999998    2.71000004
   18.50083351   -1.00000000    0.95999998    2.71000004
   18.51083374   -1.00000000    0.95999998    2.71000004
   18.51416588   -1.00000000    0.95999998    2.71000004
   18.51777840   -1.00000000    0.95999998    2.71000004
   18.52083397   -1.00000000    0.95999998    2.71000004
   18.52416611   -1.00000000    0.95999998    2.71000004
   18.52750015   -1.00000000    0.95999998    2.71000004
   18.53055573   -1.00000000    0.95999998    2.71000004
   18.53388786   -1.00000000    0.95999998    2.71000004
   18.53694344   -1.00000000    0.95999998    2.71000004
   18.54027748   -1.00000000    0.95999998    2.71000004
   18.54361153   -1.00000000    0.95999998    2.71000004
   18.55388832   -1.00000000    0.95999998    2.71000004
   18.55694389   -1.00000000    0.95999998    2.71000004
   18.56027794   -1.00000000    0.95999998    2.71000004
   18.56333351   -1.00000000    0.95999998    2.71000004
   18.56666756   -1.00000000    0.95999998    2.71000004
   18.57000160   -1.00000000    0.95999998    2.71000004
   18.57305717   -1.00000000    0.95999998    2.71000004
   18.57638931   -1.00000000    0.95999998    2.71000004
   18.57972336   -1.00000000    0.95999998    2.71000004
   18.58277893   -1.00000000    0.95999998    2.71000004
   18.58638954   -1.00000000    0.95999998    2.71000004
   18.59666824   -1.00000000    0.95999998    2.71000004
   18.59972191   -1.00000000    0.95999998    2.71000004
   18.60305595   -1.00000000    0.95999998    2.71000004
   18.60639000   -1.00000000    0.95999998    2.71000004
   18.60944557   -1.00000000    0.95999998    2.71000004
   18.61277771   -1.00000000    0.95999998    2.71000004
   18.61611176   -1.00000000    0.95999998    2.71000004
   18.61944389   -1.00000000    0.95999998    2.71000004
   18.62277794   -1.00000000    0.95999998    2.71000004
   18.62583351   -1.00000000    0.95999998    2.71000004
   18.62916756   -1.00000000    0.95999998    2.71000004
   18.63944435   -1.00000000    0.95999998    2.71000004
   18.64277840   -1.00000000    0.95999998    2.71000004
   18.64583397   -1.00000000    0.95999998    2.71000004
   18.64916611   -1.00000000    0.95999998    2.71000004
   18.65277672   -1.00000000    0.95999998    2.71000004
   18.65583229   -1.00000000    0.95999998    2.71000004
   18.65916634   -1.00000000    0.95999998    2.71000004
   18.66250038   -1.00000000    0.95999998    2.71000004
   18.66555595   -1.00000000    0.95999998    2.71000004
   18.66888809   -1.00000000    0.95999998    2.71000004
   18.67222214   -1.00000000    0.95999998    2.71000004
   18.68222237   -1.00000000    0.95999998    2.71000004
   18.68583298   -1.00000000    0.95999998    2.71000004
   18.68888855   -1.00000000    0.95999998    2.71000004
   18.69222069   -1.00000000    0.95999998    2.71000004
   18.69555473   -1.00000000    0.95999998    2.71000004
   18.69861031   -1.00000000    0.95999998    2.71000004
   18.70194435   -1.00000000    0.95999998    2.71000004
   18.70527840   -1.00000000    0.95999998    2.71000004
   18.70833397   -1.00000000    0.95999998    2.71000004
   18.71166801   -1.00000000    0.95999998    2.71000004
   18.71472359   -1.00000000    0.95999998    2.71000004
   18.72527885   -1.00000000    0.95999998    2.71000004
   18.72833443   -1.00000000    0.95999998    2.71000004
   18.73166656   -1.00000000    0.95999998    2.71000004
   18.73472214   -1.00000000    0.95999998    2.71000004
   18.73805618   -1.00000000    0.95999998    2.71000004
   18.74138832   -1.00000000    0.95999998    2.71000004
   18.74444389   -1.00000000    0.95999998    2.71000004
   18.74777794   -1.00000000    0.95999998    2.71000004
   18.75111198   -1.00000000    0.95999998    2.71000004
   18.75472260   -1.00000000    0.95999998    2.71000004
   18.75777817   -1.00000000    0.95999998    2.71000004
   18.76805496   -1.00000000    0.95999998    2.71000004
   18.77111053   -1.00000000    0.95999998    2.71000004
   18.77444458   -1.00000000    0.95999998    2.71000004
   18.77777672   -1.00000000    0.95999998    2.71000004
   18.78083229   -1.00000000    0.95999998    2.71000004
   18.78416634   -1.00000000    0.95999998    2.71000004
   18.78777695   -1.00000000    0.95999998    2.71000004
   18.79083252   -1.00000000    0.95999998    2.71000004
   18.79416656   -1.00000000    0.95999998    2.71000004
   18.79722214   -1.00000000    0.95999998    2.71000004
   18.80055428   -1.00000000    0.95999998    2.71000004
   18.81083298   -1.00000000    0.95999998    2.71000004
   18.81416512   -1.00000000    0.95999998    2.71000004
   18.81722260   -1.00000000    0.95999998    2.71000004
   18.82083511   -1.00000000    0.95999998    2.71000004
   18.82416725   -1.00000000    0.95999998    2.71000004
   18.82750130   -1.00000000    0.95999998    2.71000004
   18.83055687   -1.00000000    0.95999998    2.71000004
   18.83388901   -1.00000000    0.95999998    2.71000004
   18.83694458   -1.00000000    0.95999998    2.71000004
   18.84027863   -1.00000000    0.95999998    2.71000004
   18.84361267   -1.00000000    0.95999998    2.71000004
   18.85361099   -1.00000000    0.95999998    2.71000004
   18.85694504   -1.00000000    0.95999998    2.71000004
   18.86000061   -1.00000000    0.95999998    2.71000004
   18.86333466   -1.00000000    0.95999998    2.71000004
   18.86666679   -1.00000000    0.95999998    2.71000004
   18.86972237   -1.00000000    0.95999998    2.71000004
   18.87305641   -1.00000000    0.95999998    2.71000004
   18.87638855   -1.00000000    0.95999998    2.71000004
   18.87944412   -1.00000000    0.95999998    2.71000004
   18.88277817   -1.00000000    0.95999998    2.71000004
   18.88611031   -1.00000000    0.95999998    2.71000004
   18.89666748   -1.00000000    0.95999998    2.71000004
   18.89972115   -1.00000000    0.95999998    2.71000004
   18.90305519   -1.00000000    0.95999998    2.71000004
   18.90611076   -1.00000000    0.95999998    2.71000004
   18.90944481   -1.00000000    0.95999998    2.71000004
   18.91277695   -1.00000000    0.95999998    2.71000004
   18.91583252   -1.00000000    0.95999998    2.71000004
   18.91944313   -1.00000000    0.95999998    2.71000004
   18.92277718   -1.00000000    0.95999998    2.71000004
   18.92583275   -1.00000000    0.95999998    2.71000004
   18.92916679   -1.00000000    0.95999998    2.71000004
   18.93944359   -1.00000000    0.95999998    2.71000004
   18.94249916   -1.00000000    0.95999998    2.71000004
   18.94583321   -1.00000000    0.95999998    2.71000004
   18.94916534   -1.00000000    0.95999998    2.71000004
   18.95250130   -1.00000000    0.95999998    2.71000004
   18.95583344   -1.00000000    0.95999998    2.71000004
   18.95888901   -1.00000000    0.95999998    2.71000004
   18.96222305   -1.00000000    0.95999998    2.71000004
   18.96555710   -1.00000000    0.95999998    2.71000004
   18.96861076   -1.00000000    0.95999998    2.71000004
   18.97194481   -1.00000000    0.95999998    2.71000004
   18.98222351   -1.00000000    0.95999998    2.71000004
   18.98583412   -1.00000000    0.95999998    2.71000004
   18.98916626   -1.00000000    0.95999998    2.71000004
   18.99250031   -1.00000000    0.95999998    2.71000004
   18.99555588   -1.00000000    0.95999998    2.71000004
   18.99888992   -1.00000000    0.95999998    2.71000004
   19.00194359   -1.00000000    0.95999998    2.71000004
   19.00527763   -1.00000000    0.95999998    2.71000004
   19.00861168   -1.00000000    0.95999998    2.71000004
   19.01166725   -1.00000000    0.95999998    2.71000004
   19.01499939   -1.00000000    0.95999998    2.71000004
   19.02499962   -1.00000000    0.95999998    2.71000004
   19.02833366   -1.00000000    0.95999998    2.71000004
   19.03166580   -1.00000000    0.95999998    2.71000004
   19.03472137   -1.00000000    0.95999998    2.71000004
   19.03805542   -1.00000000    0.95999998    2.71000004
   19.04111099   -1.00000000    0.95999998    2.71000004
   19.04444313   -1.00000000    0.95999998    2.71000004
   19.04777718   -1.00000000    0.95999998    2.71000004
   19.07472229   -1.00000000    0.95999998    2.71000004
   19.07777786   -1.00000000    0.95999998    2.71000004
   19.08111191   -1.00000000    0.95999998    2.71000004
   19.08416748   -1.00000000    0.95999998    2.71000004
   19.08750153   -1.00000000    0.95999998    2.71000004
   19.09083366   -1.00000000    0.95999998    2.71000004
   19.09388924   -1.00000000    0.95999998    2.71000004
   19.09722328   -1.00000000    0.95999998    2.71000004
   19.10055542   -1.00000000    0.95999998    2.71000004
   19.10388947   -1.00000000    0.95999998    2.71000004
   19.10722351   -1.00000000    0.95999998    2.71000004
   19.11750031   -1.00000000    0.95999998    2.71000004
   19.12055588   -1.00000000    0.95999998    2.71000004
   19.12388992   -1.00000000    0.95999998    2.71000004
   19.12722206   -1.00000000    0.95999998    2.71000004
   19.13027763   -1.00000000    0.95999998    2.71000004
   19.13388824   -1.00000000    0.95999998    2.71000004
   19.13722229   -1.00000000    0.95999998    2.71000004
   19.14055634   -1.00000000    0.95999998    2.71000004
   19.14361191   -1.00000000    0.95999998    2.71000004
   19.14694405   -1.00000000    0.95999998    2.71000004
   19.15027809   -1.00000000    0.95999998    2.71000004
   19.16027832   -1.00000000    0.95999998    2.71000004
   19.16361046   -1.00000000    0.95999998    2.71000004
   19.16694450   -1.00000000    0.95999998    2.71000004
   19.17027664   -1.00000000    0.95999998    2.71000004
   19.17361069   -1.00000000    0.95999998    2.71000004
   19.17666626   -1.00000000    0.95999998    2.71000004
   19.18000031   -1.00000000    0.95999998    2.71000004
   19.18333244   -1.00000000    0.95999998    2.71000004
   19.18638802   -1.00000000    0.95999998    2.71000004
   19.18972206   -1.00000000    0.95999998    2.71000004
   19.19277763   -1.00000000    0.95999998    2.71000004
   19.20305634   -1.00000000    0.95999998    2.71000004
   19.20639038   -1.00000000    0.95999998    2.71000004
   19.20972252   -1.00000000    0.95999998    2.71000004
   19.21277809   -1.00000000    0.95999998    2.71000004
   19.21611214   -1.00000000    0.95999998    2.71000004
   19.21916771   -1.00000000    0.95999998    2.71000004
   19.22249985   -1.00000000    0.95999998    2.71000004
   19.22583389   -1.00000000    0.95999998    2.71000004
   19.22888947   -1.00000000    0.95999998    2.71000004
   19.23222351   -1.00000000    0.95999998    2.71000004
   19.23583412   -1.00000000    0.95999998    2.71000004
   19.24611092   -1.00000000    0.95999998    2.71000004
   19.24916649   -1.00000000    0.95999998    2.71000004
   19.25250053   -1.00000000    0.95999998    2.71000004
   19.25555611   -1.00000000    0.95999998    2.71000004
   19.25888824   -1.00000000    0.95999998    2.71000004
   19.26222229   -1.00000000    0.95999998    2.71000004
   19.26527786   -1.00000000    0.95999998    2.71000004
   19.26888847   -1.00000000    0.95999998    2.71000004
   19.27222252   -1.00000000    0.95999998    2.71000004
   19.27527809   -1.00000000    0.95999998    2.71000004
   19.27861023   -1.00000000    0.95999998    2.71000004
   19.28888893   -1.00000000    0.95999998    2.71000004
   19.29194450   -1.00000000    0.95999998    2.71000004
   19.29527664   -1.00000000    0.95999998    2.71000004
   19.29861069   -1.00000000    0.95999998    2.71000004
   19.30222130   -1.00000000    0.95999998    2.71000004
   19.30527687   -1.00000000    0.95999998    2.71000004
   19.30861092   -1.00000000    0.95999998    2.71000004
   19.31194305   -1.00000000    0.95999998    2.71000004
   19.31499863   -1.00000000    0.95999998    2.71000004
   19.31833458   -1.00000000    0.95999998    2.71000004
   19.32139015   -1.00000000    0.95999998    2.71000004
   19.33166695   -1.00000000    0.95999998    2.71000004
   19.33527756   -1.00000000    0.95999998    2.71000004
   19.33833313   -1.00000000    0.95999998    2.71000004
   19.34166718   -1.00000000    0.95999998    2.71000004
   19.34500122   -1.00000000    0.95999998    2.71000004
   19.34805679   -1.00000000    0.95999998    2.71000004
   19.35138893   -1.00000000    0.95999998    2.71000004
   19.35444450   -1.00000000    0.95999998    2.71000004
   19.35777855   -1.00000000    0.95999998    2.71000004
   19.36111069   -1.00000000    0.95999998    2.71000004
   19.36416626   -1.00000000    0.95999998    2.71000004
   19.37444496   -1.00000000    0.95999998    2.71000004
   19.37777710   -1.00000000    0.95999998    2.71000004
   19.38111115   -1.00000000    0.95999998    2.71000004
   19.38416672   -1.00000000    0.95999998    2.71000004
   19.38750076   -1.00000000    0.95999998    2.71000004
   19.39083290   -1.00000000    0.95999998    2.71000004
   19.39388847   -1.00000000    0.95999998    2.71000004
   19.39722252   -1.00000000    0.95999998    2.71000004
   19.40027809   -1.00000000    0.95999998    2.71000004
   19.40388870   -1.00000000    0.95999998    2.71000004
   19.40722275   -1.00000000    0.95999998    2.71000004
   19.41749954   -1.00000000    0.95999998    2.71000004
   19.42055511   -1.00000000    0.95999998    2.71000004
   19.42388916   -1.00000000    0.95999998    2.71000004
   19.42722130   -1.00000000    0.95999998    2.71000004
   19.43027687   -1.00000000    0.95999998    2.71000004
   19.43361092   -1.00000000    0.95999998    2.71000004
   19.43694305   -1.00000000    0.95999998    2.71000004
   19.44027710   -1.00000000    0.95999998    2.71000004
   19.44361115   -1.00000000    0.95999998    2.71000004
   19.44666672   -1.00000000    0.95999998    2.71000004
   19.45000076   -1.00000000    0.95999998    2.71000004
   19.46027946   -1.00000000    0.95999998    2.71000004
   19.46361160   -1.00000000    0.95999998    2.71000004
   19.46666718   -1.00000000    0.95999998    2.71000004
   19.47027779   -1.00000000    0.95999998    2.71000004
   19.47361183   -1.00000000    0.95999998    2.71000004
   19.47666740   -1.00000000    0.95999998    2.71000004
   19.48000145   -1.00000000    0.95999998    2.71000004
   19.48333359   -1.00000000    0.95999998    2.71000004
   19.48638916   -1.00000000    0.95999998    2.71000004
   19.48972321   -1.00000000    0.95999998    2.71000004
   19.49305534   -1.00000000    0.95999998    2.71000004
   19.50305557   -1.00000000    0.95999998    2.71000004
   19.50638962   -1.00000000    0.95999998    2.71000004
   19.50944519   -1.00000000    0.95999998    2.71000004
   19.51277733   -1.00000000    0.95999998    2.71000004
   19.51611137   -1.00000000    0.95999998    2.71000004
   19.51916695   -1.00000000    0.95999998    2.71000004
   19.52249908   -1.00000000    0.95999998    2.71000004
   19.52583313   -1.00000000    0.95999998    2.71000004
   19.52888870   -1.00000000    0.95999998    2.71000004
   19.53222275   -1.00000000    0.95999998    2.71000004
   19.53555489   -1.00000000    0.95999998    2.71000004
   19.54583359   -1.00000000    0.95999998    2.71000004
   19.54916573   -1.00000000    0.95999998    2.71000004
   19.55249977   -1.00000000    0.95999998    2.71000004
   19.55555534   -1.00000000    0.95999998    2.71000004
   19.55888748   -1.00000000    0.95999998    2.71000004
   19.56194305   -1.00000000    0.95999998    2.71000004
   19.56527710   -1.00000000    0.95999998    2.71000004
   19.56888962   -1.00000000    0.95999998    2.71000004
   19.57222366   -1.00000000    0.95999998    2.71000004
   19.57527924   -1.00000000    0.95999998    2.71000004
   19.57861137   -1.00000000    0.95999998    2.71000004
   19.58889008   -1.00000000    0.95999998    2.71000004
   19.59194565   -1.00000000    0.95999998    2.71000004
   19.59527779   -1.00000000    0.95999998    2.71000004
   19.59833336   -1.00000000    0.95999998    2.71000004
   19.60194397   -1.00000000    0.95999998    2.71000004
   19.60527802   -1.00000000    0.95999998    2.71000004
   19.60833359   -1.00000000    0.95999998    2.71000004
   19.61166763   -1.00000000    0.95999998    2.71000004
   19.61499977   -1.00000000    0.95999998    2.71000004
   19.61805534   -1.00000000    0.95999998    2.71000004
   19.62138939   -1.00000000    0.95999998    2.71000004
   19.63166618   -1.00000000    0.95999998    2.71000004
   19.63472176   -1.00000000    0.95999998    2.71000004
   19.63861084   -1.00000000    0.95999998    2.71000004
   19.64166641   -1.00000000    0.95999998    2.71000004
   19.64500046   -1.00000000    0.95999998    2.71000004
   19.64833260   -1.00000000    0.95999998    2.71000004
   19.65138817   -1.00000000    0.95999998    2.71000004
   19.65472221   -1.00000000    0.95999998    2.71000004
   19.65777779   -1.00000000    0.95999998    2.71000004
   19.66110992   -1.00000000    0.95999998    2.71000004
   19.66444397   -1.00000000    0.95999998    2.71000004
   19.67444420   -1.00000000    0.95999998    2.71000004
   19.67777634   -1.00000000    0.95999998    2.71000004
   19.68083191   -1.00000000    0.95999998    2.71000004
   19.68416595   -1.00000000    0.95999998    2.71000004
   19.68750000   -1.00000000    0.95999998    2.71000004
   19.69055557   -1.00000000    0.95999998    2.71000004
   19.69388771   -1.00000000    0.95999998    2.71000004
   19.69694328   -1.00000000    0.95999998    2.71000004
   19.70027924   -1.00000000    0.95999998    2.71000004
   19.70388985   -1.00000000    0.95999998    2.71000004
   19.70694542   -1.00000000    0.95999998    2.71000004
   19.71722221   -1.00000000    0.95999998    2.71000004
   19.72055626   -1.00000000    0.95999998    2.71000004
   19.72389030   -1.00000000    0.95999998    2.71000004
   19.72694588   -1.00000000    0.95999998    2.71000004
   19.73027802   -1.00000000    0.95999998    2.71000004
   19.73333359   -1.00000000    0.95999998    2.71000004
   19.73694420   -1.00000000    0.95999998    2.71000004
   19.73999977   -1.00000000    0.95999998    2.71000004
   19.74333382   -1.00000000    0.95999998    2.71000004
   19.74666786   -1.00000000    0.95999998    2.71000004
   19.74972153   -1.00000000    0.95999998    2.71000004
   19.76027870   -1.00000000    0.95999998    2.71000004
   19.76333427   -1.00000000    0.95999998    2.71000004
   19.76666641   -1.00000000    0.95999998    2.71000004
   19.77027702   -1.00000000    0.95999998    2.71000004
   19.77361107   -1.00000000    0.95999998    2.71000004
   19.77666664   -1.00000000    0.95999998    2.71000004
   19.78000069   -1.00000000    0.95999998    2.71000004
   19.78333282   -1.00000000    0.95999998    2.71000004
   19.78638840   -1.00000000    0.95999998    2.71000004
   19.78972244   -1.00000000    0.95999998    2.71000004
   19.79277802   -1.00000000    0.95999998    2.71000004
   19.80305481   -1.00000000    0.95999998    2.71000004
   19.80611038   -1.00000000    0.95999998    2.71000004
   19.80944443   -1.00000000    0.95999998    2.71000004
   19.81277657   -1.00000000    0.95999998    2.71000004
   19.81583214   -1.00000000    0.95999998    2.71000004
   19.81916809   -1.00000000    0.95999998    2.71000004
   19.82250023   -1.00000000    0.95999998    2.71000004
   19.82555580   -1.00000000    0.95999998    2.71000004
   19.82888985   -1.00000000    0.95999998    2.71000004
