    HOUR (UT)   FLARE FACTOR    SKY TESTER    SUN TESTER
   11.86305618   -1.00000000   -1.00000000   -1.00000000
   11.89555550  324.12899780    4.90999985    1.61000001
   11.90166664  315.55099487    4.90999985    1.61000001
   11.90499973  317.62799072    4.90999985    1.63000000
   11.90805531  336.10400391    4.90999985    1.63000000
   11.91138840  310.13198853    4.90999985    1.63000000
   11.91583252  293.87600708    4.90999985    1.64999998
   11.91888905  283.64599609    4.90999985    1.64999998
   11.92222214  284.11199951    4.90999985    1.64999998
   11.92555618  290.51400757    4.90999985    1.64999998
   11.92861176  298.98300171    4.90999985    1.64999998
   11.92916679  280.17999268    4.90999985    1.64999998
   11.93249989  259.43701172    4.90999985    1.66999996
   11.93583298  264.24099731    4.90999985    1.66999996
   11.93916702  268.04299927    4.90999985    1.66999996
   11.94222260  284.23098755    4.90999985    1.66999996
   11.94555569  263.11999512    4.90999985    1.66999996
   11.94888878  266.56100464    4.90999985    1.66999996
   11.95194435  259.50201416    4.90999985    1.66999996
   11.95527744  279.15600586    4.90999985    1.69000006
   11.95861053  273.36499023    4.90999985    1.69000006
   11.96166611  254.76499939    4.90999985    1.69000006
   11.96277714  258.69799805    4.90999985    1.69000006
   11.96527767  261.61199951    4.90999985    1.69000006
   11.96861076  246.06500244    4.90999985    1.71000004
   11.97194386  265.80899048    4.90999985    1.71000004
   11.97499943  258.14300537    4.90999985    1.71000004
   11.97833252  253.62199402    4.90999985    1.71000004
   11.98166656  266.88800049    4.90999985    1.71000004
   11.98472214  255.00300598    4.90999985    1.73000002
   11.98805618  241.78500366    4.90999985    1.73000002
   11.99111176  246.62300110    4.90999985    1.73000002
   11.99444485  248.72799683    4.90999985    1.73000002
   11.99611092  260.37200928    4.90999985    1.73000002
   11.99805546  242.64799500    4.90999985    1.75000000
   12.00138855  259.01098633    4.90999985    1.75000000
   12.00472260  239.65600586    4.90999985    1.75000000
   12.00777817  260.45001221    4.90999985    1.75000000
   12.01111126  250.80799866    4.90999985    1.75000000
   12.01444435  240.60600281    4.90999985    1.76999998
   12.01749992  252.89700317    4.90999985    1.75000000
   12.02111053  244.27600098    4.90999985    1.76999998
   12.02416611  255.91099548    4.90999985    1.76999998
   12.02750015  238.21899414    4.90999985    1.76999998
   12.02972221  249.59399414    4.90999985    1.78999996
   12.03111076  252.35099792    4.90999985    1.76999998
   12.03444481  239.76400757    4.90999985    1.78999996
   12.03777790  231.93600464    4.90999985    1.78999996
   12.04083347  239.83500671    4.90999985    1.78999996
   12.04416752  235.94999695    4.90999985    1.78999996
   12.04722309  233.30299377    4.90999985    1.78999996
   12.05055618  229.59899902    4.90999985    1.78999996
   12.05388927  237.33000183    4.90999985    1.78999996
   12.05694485  226.03999329    4.90999985    1.80999994
   12.06027794  243.45399475    4.90999985    1.80999994
   12.06305599  228.46499634    4.90999985    1.80999994
   12.06388950  228.08399963    4.90999985    1.80999994
   12.06722260  231.23699951    4.90999985    1.80999994
   12.07027817  223.34399414    4.90999985    1.80999994
   12.07361126  224.20500183    4.90999985    1.83000004
   12.07694435  237.27699280    4.90999985    1.83000004
   12.07999992  230.56100464    4.90999985    1.83000004
   12.08333302  238.91999817    4.90999985    1.83000004
   12.08666611  234.28999329    4.90999985    1.83000004
   12.08972168  221.02099609    4.90999985    1.83000004
   12.09305477  226.40100098    4.90999985    1.83000004
   12.09611034  227.85099792    4.90999985    1.83000004
   12.09666634  240.86199951    4.90999985    1.83000004
   12.10000038  214.39399719    4.90999985    1.85000002
   12.10305595  219.07099915    4.90999985    1.85000002
   12.10638905  222.01499939    4.90999985    1.85000002
   12.10972214  218.52400208    4.90999985    1.85000002
   12.11277771  206.94999695    4.90999985    1.85000002
   12.11611176  212.68400574    4.90999985    1.85000002
   12.11944485  214.30499268    4.90999985    1.85000002
   12.12250042  200.68800354    4.90999985    1.86000001
   12.12583351  203.00900269    4.90999985    1.86000001
   12.12888908  209.61199951    4.90999985    1.86000001
   12.13000011  224.48399353    4.90999985    1.86000001
   12.13249969  186.78900146    4.90999985    1.86000001
   12.13583279  209.15899658    4.90999985    1.86000001
   12.13888836  214.80700684    4.90999985    1.88000000
   12.14222240  192.36700439    4.90999985    1.88000000
   12.14555550  198.05799866    4.90999985    1.88000000
   12.14861107  195.97799683    4.90999985    1.88000000
   12.15194416  177.84399414    4.90999985    1.89999998
   12.15527725  191.99099731    4.90999985    1.89999998
   12.15833282  192.18499756    4.90999985    1.89999998
   12.16166592  210.05099487    4.90999985    1.89999998
   12.16333294  194.32200623    4.90999985    1.89999998
   12.16527748  208.19700623    4.90999985    1.89999998
   12.16861153  212.52900696    4.90999985    1.88000000
   12.17166710  207.96000671    4.90999985    1.89999998
   12.17500019  213.57800293    4.90999985    1.89999998
   12.17805576  194.96699524    4.90999985    1.89999998
   12.18138885  207.37300110    4.90999985    1.89999998
   12.18472195  187.91499329    4.90999985    1.89999998
   12.18777752  193.15699768    4.90999985    1.91999996
   12.19111156  192.87300110    4.90999985    1.91999996
   12.19444466  199.23800659    4.90999985    1.91999996
   12.19666672  192.32099915    4.90999985    1.91999996
   12.19805527  191.71899414    4.90999985    1.91999996
   12.20138836  180.56300354    4.90999985    1.91999996
   12.20444393  186.03500366    4.90999985    1.91999996
   12.20777798  176.99600220    4.90999985    1.94000006
   12.21083355  195.38299561    4.90999985    1.91999996
   12.21416664  180.81799316    4.90999985    1.91999996
   12.21749973  185.48300171    4.90999985    1.94000006
   12.22083282  177.88099670    4.90999985    1.94000006
   12.22388840  179.84399414    4.90999985    1.94000006
   12.22722149  174.86099243    4.90999985    1.94000006
   12.22999954  194.21299744    4.90999985    1.94000006
   12.23083305  185.61999512    4.90999985    1.94000006
   12.23388958  187.08099365    4.90999985    1.94000006
   12.23722267  186.77999878    4.90999985    1.94000006
   12.24055576  195.05999756    4.90999985    1.96000004
   12.24361134  181.95399475    4.90999985    1.96000004
   12.24694443  198.47500610    4.90999985    1.96000004
   12.25027752  173.41099548    4.90999985    1.96000004
   12.25333309  203.07099915    4.90999985    1.96000004
   12.25666714  192.90699768    4.90999985    1.96000004
   12.25972176  192.17100525    4.90999985    1.96000004
   12.26305580  186.51499939    4.90999985    1.96000004
   12.26361084  193.30000305    4.90999985    1.96000004
   12.26638889  203.18800354    4.90999985    1.96000004
   12.26972198  189.18400574    4.90999985    1.96000004
   12.27305508  189.93299866    4.90999985    1.96000004
   12.27611065  192.95100403    4.90999985    1.98000002
   12.27944374  184.98899841    4.90999985    1.98000002
   12.28277779  185.09199524    4.90999985    1.98000002
   12.28583336  196.19700623    4.90999985    1.98000002
   12.28916740  203.50999451    4.90999985    2.00000000
   12.29222298  208.17599487    4.90999985    1.98000002
   12.29555607  193.45399475    4.90999985    1.98000002
   12.29694462  217.68200684    4.90999985    2.00000000
   12.29916668  200.68200684    4.90999985    1.98000002
   12.30249977  189.11999512    4.90999985    2.00000000
   12.30583382  193.23699951    4.90999985    2.00000000
   12.30888939  216.12100220    4.90999985    2.00000000
   12.31222248  194.15199280    4.90999985    2.00000000
   12.31555557  190.07800293    4.90999985    2.00000000
   12.31861115  217.53199768    4.90999985    2.00000000
   12.32194424  192.94999695    4.90999985    2.01999998
   12.32499981  199.78399658    4.90999985    2.00000000
   12.32833290  191.11300659    4.90999985    2.01999998
   12.33027744  204.16299438    4.90999985    2.01999998
   12.33222198  182.01300049    4.90999985    2.01999998
   12.33527756  198.72200012    4.90999985    2.01999998
   12.33861065  212.57099915    4.90999985    2.00000000
   12.34166622  222.71200562    4.90999985    2.01999998
   12.34499931  195.96000671    4.90999985    2.01999998
   12.34833336  202.32299805    4.90999985    2.01999998
   12.35138893  202.50199890    4.90999985    2.01999998
   12.35472298  197.20100403    4.90999985    2.01999998
   12.35805607  197.39300537    4.90999985    2.01999998
   12.36111164  189.52200317    4.90999985    2.03999996
   12.36361122  193.59300232    4.90999985    2.03999996
   12.36500072  195.78599548    4.90999985    2.03999996
   12.36805534  190.10200500    4.90999985    2.03999996
   12.37138939  190.86399841    4.90999985    2.03999996
   12.37444496  196.81300354    4.90999985    2.03999996
   12.37777805  184.00900269    4.90999985    2.03999996
   12.38111115  193.33700562    4.90999985    2.03999996
   12.38416672  197.29499817    4.90999985    2.03999996
   12.38749981  197.77200317    4.90999985    2.05999994
   12.39083290  201.38200378    4.90999985    2.05999994
   12.39388847  191.62199402    4.90999985    2.05999994
   12.39694405  193.74800110    4.90999985    2.05999994
   12.39750004  182.65800476    4.90999985    2.05999994
   12.40083313  188.39199829    4.90999985    2.05999994
   12.40416622  176.85400391    4.90999985    2.05999994
   12.40722179  199.88299561    4.90999985    2.05999994
   12.41055489  164.97399902    4.90999985    2.07999992
   12.41388893  162.63499451    4.90999985    2.07999992
   12.41694450  175.25199890    4.90999985    2.07999992
   12.42027855  180.68299866    4.90999985    2.05999994
   12.42333412  165.65499878    4.90999985    2.07999992
   12.42666721  184.50799561    4.90999985    2.07999992
   12.43000031  178.18699646    4.90999985    2.07999992
   12.43027782  175.36700439    4.90999985    2.07999992
   12.43333340  183.42500305    4.90999985    2.07999992
   12.43666649  195.92599487    4.90999985    2.07999992
   12.43972206  188.27600098    4.90999985    2.07999992
   12.44305515  171.24000549    4.90999985    2.09999990
   12.44638920  178.03300476    4.90999985    2.07999992
   12.44944477  177.02799988    4.90999985    2.09999990
   12.45277786  179.39300537    4.90999985    2.09999990
   12.45583344  181.34800720    4.90999985    2.09999990
   12.45916653  177.65499878    4.90999985    2.09999990
   12.46249962  169.69599915    4.90999985    2.09999990
   12.46361065  173.08500671    4.90999985    2.09999990
   12.46611118  165.75399780    4.90999985    2.09999990
   12.46944427  174.26699829    4.90999985    2.09999990
   12.47249985  164.21299744    4.90999985    2.09999990
   12.47583294  171.16499329    4.90999985    2.11999989
   12.47916603  172.81900024    4.90999985    2.11999989
   12.48222160  179.90499878    4.90999985    2.09999990
   12.48555565  170.38800049    4.90999985    2.11999989
   12.48861122  165.48500061    4.90999985    2.11999989
   12.49194431  184.20500183    4.90999985    2.11999989
   12.49527836  177.20899963    4.90999985    2.11999989
   12.49694443  176.80700684    4.90999985    2.11999989
   12.49888897  170.02099609    4.90999985    2.11999989
   12.50222206  183.66499329    4.90999985    2.11999989
   12.50527763  173.30999756    4.90999985    2.11999989
   12.50861073  167.42399597    4.90999985    2.11999989
   12.51194477  180.28999329    4.90999985    2.11999989
   12.51500034  181.05099487    4.90999985    2.11999989
   12.51833344  177.89700317    4.90999985    2.11999989
   12.52138901  169.68600464    4.90999985    2.13000011
   12.52472210  170.14999390    4.90999985    2.11999989
   12.52805519  183.01800537    4.90999985    2.13000011
   12.53027725  168.89999390    4.90999985    2.13000011
   12.53166676  180.06199646    4.90999985    2.13000011
   12.53500080  170.81500244    4.90999985    2.13000011
   12.53805637  171.63800049    4.90999985    2.13000011
   12.54138947  172.65600586    4.90999985    2.13000011
   12.54472256  175.25500488    4.90999985    2.13000011
   12.54777813  173.99000549    4.90999985    2.13000011
   12.55111122  166.31599426    4.90999985    2.13000011
   12.55416679  162.85800171    4.90999985    2.15000010
   12.55749989  149.36199951    4.90999985    2.15000010
   12.56083393  151.00700378    4.90999985    2.15000010
   12.56361103  156.16999817    4.90999985    2.15000010
   12.56416702  155.78199768    4.90999985    2.15000010
   12.56750011  165.74099731    4.90999985    2.15000010
   12.57055569  176.90699768    4.90999985    2.15000010
   12.57388878  169.42399597    4.90999985    2.15000010
   12.57722187  166.47599792    4.90999985    2.15000010
   12.58027744  172.05999756    4.90999985    2.15000010
   12.58361053  159.99400330    4.90999985    2.17000008
   12.58666611  159.97500610    4.90999985    2.15000010
   12.59000015  167.90199280    4.90999985    2.15000010
   12.59333324  167.71600342    4.90999985    2.17000008
   12.59638882  168.75900269    4.90999985    2.15000010
   12.59694386  172.21800232    4.90999985    2.15000010
   12.60000038  154.44099426    4.90999985    2.17000008
   12.60333347  163.55700684    4.90999985    2.17000008
   12.60638905  161.92100525    4.90999985    2.17000008
   12.60972214  169.31900024    4.90999985    2.17000008
   12.61305618  169.94700623    4.90999985    2.17000008
   12.61611176  165.00799561    4.90999985    2.17000008
   12.61944485  164.27499390    4.90999985    2.17000008
   12.62277794  174.49699402    4.90999985    2.17000008
   12.62583351  166.82499695    4.90999985    2.17000008
   12.62916660  169.29899597    4.90999985    2.19000006
   12.63055611  168.14999390    4.90999985    2.19000006
   12.63277817  163.19099426    4.90999985    2.17000008
   12.63611126  172.06599426    4.90999985    2.19000006
   12.63916683  154.22399902    4.90999985    2.17000008
   12.64249992  154.92500305    4.90999985    2.19000006
   12.64583302  174.87800598    4.90999985    2.17000008
   12.64888859  167.73699951    4.90999985    2.19000006
   12.65222168  172.93600464    4.90999985    2.19000006
   12.65555477  167.50799561    4.90999985    2.19000006
   12.65861034  164.85699463    4.90999985    2.19000006
   12.66194439  170.95500183    4.90999985    2.19000006
   12.66388893  175.85499573    4.90999985    2.19000006
   12.66555500  178.13499451    4.90999985    2.19000006
   12.66888905  169.88699341    4.90999985    2.19000006
   12.67194462  163.99200439    4.90999985    2.21000004
   12.67527771  170.90199280    4.90999985    2.21000004
   12.67861176  172.33799744    4.90999985    2.21000004
   12.68166733  197.45799255    4.90999985    2.19000006
   12.68500042  191.83299255    4.90999985    2.21000004
   12.68833351  169.89599609    4.90999985    2.19000006
   12.69138908  176.41700745    4.90999985    2.21000004
   12.69472218  173.49699402    4.90999985    2.21000004
   12.69722271  171.62500000    4.90999985    2.21000004
   12.69833374  181.61900330    4.90999985    2.21000004
   12.70166683  164.80599976    4.90999985    2.21000004
   12.70472240  173.72099304    4.90999985    2.23000002
   12.70805550  161.84599304    4.90999985    2.21000004
   12.71138859  174.11300659    4.90999985    2.21000004
   12.71444416  171.31199646    4.90999985    2.23000002
   12.71777725  170.07400513    4.90999985    2.21000004
   12.72111034  198.92500305    4.90999985    2.23000002
   12.72416592  168.23100281    4.90999985    2.23000002
   12.72749996  161.41000366    4.90999985    2.23000002
   12.73055553  170.77900696    4.90999985    2.23000002
   12.73111057  172.16799927    4.90999985    2.23000002
   12.73444462  166.20100403    4.90999985    2.23000002
   12.73750019  159.18800354    4.90999985    2.23000002
   12.74083328  175.82400513    4.90999985    2.23000002
   12.74416733  171.56100464    4.90999985    2.25000000
   12.74722290  164.55999756    4.90999985    2.23000002
   12.75055599  165.36000061    4.90999985    2.25000000
   12.75388908  164.41900635    4.90999985    2.23000002
   12.75694466  170.38999939    4.90999985    2.25000000
   12.76027775  163.69700623    4.90999985    2.23000002
   12.76333332  167.36399841    4.90999985    2.25000000
   12.76388931  162.71000671    4.90999985    2.25000000
   12.76722240  144.94599915    4.90999985    2.25000000
   12.77027798  150.31799316    4.90999985    2.23000002
   12.77361107  153.18699646    4.90999985    2.25000000
   12.77694416  168.36599731    4.90999985    2.25000000
   12.77999973  165.02400208    4.90999985    2.25000000
   12.78333378  155.52099609    4.90999985    2.25000000
   12.78666687  158.46899414    4.90999985    2.25000000
   12.78972244  168.83700562    4.90999985    2.25000000
   12.79305553  170.24099731    4.90999985    2.25000000
   12.79611111  163.37600708    4.90999985    2.25000000
   12.79722309  169.10200500    4.90999985    2.25000000
   12.79972267  167.88699341    4.90999985    2.25000000
   12.80305576  153.73699951    4.90999985    2.26999998
   12.80611134  150.31399536    4.90999985    2.26999998
   12.80944443  157.37800598    4.90999985    2.25000000
   12.81250000  154.30099487    4.90999985    2.26999998
   12.81583309  162.14100647    4.90999985    2.25000000
   12.81916618  172.92100525    4.90999985    2.26999998
   12.82222176  162.03100586    4.90999985    2.25000000
   12.82555580  170.10400391    4.90999985    2.26999998
   12.82888889  172.24600220    4.90999985    2.26999998
   12.83055592  161.03599548    4.90999985    2.26999998
   12.83249950  163.36500549    4.90999985    2.26999998
   12.83555508  171.10099792    4.90999985    2.26999998
   12.83888817  175.56500244    4.90999985    2.26999998
   12.84222221  169.57299805    4.90999985    2.26999998
   12.84527779  168.33700562    4.90999985    2.26999998
   12.84861088  166.00399780    4.90999985    2.26999998
   12.85194492  166.69900513    4.90999985    2.26999998
   12.85500050  162.90299988    4.90999985    2.26999998
   12.85833359  172.16000366    4.90999985    2.26999998
   12.86138916  168.32099915    4.90999985    2.26999998
   12.86388969  158.72500610    4.90999985    2.28999996
   12.86527824  172.72599792    4.90999985    2.28999996
   12.86833382  174.79600525    4.90999985    2.28999996
   12.87166691  159.41600037    4.90999985    2.28999996
   12.87500000  164.16299438    4.90999985    2.28999996
   12.87805557  167.21400452    4.90999985    2.28999996
   12.88138866  177.54699707    4.90999985    2.28999996
   12.88472176  166.57299805    4.90999985    2.28999996
   12.88777733  159.77499390    4.90999985    2.28999996
   12.89111137  156.58599854    4.90999985    2.28999996
   12.89416695  158.81199646    4.90999985    2.28999996
   12.91249943  170.66799927    4.90999985    2.30999994
   12.91416645  166.02699280    4.90999985    2.30999994
   12.91722298  172.52000427    4.90999985    2.28999996
   12.92055607  175.60600281    4.90999985    2.28999996
   12.92388916  174.63900757    4.90999985    2.28999996
   12.92694473  174.22000122    4.90999985    2.30999994
   12.93027782  165.47500610    4.90999985    2.30999994
   12.93361092  163.07000732    4.90999985    2.28999996
   12.93666649  165.61999512    4.90999985    2.30999994
   12.94000053  171.46499634    4.90999985    2.30999994
   12.94305515  168.59100342    4.90999985    2.30999994
   12.94583321  166.01400757    4.90999985    2.30999994
   12.94666672  176.41799927    4.90999985    2.30999994
   12.94999981  171.50500488    4.90999985    2.30999994
   12.95333290  167.12800598    4.90999985    2.30999994
   12.95638847  158.75700378    4.90999985    2.30999994
   12.95972157  158.85000610    4.90999985    2.30999994
   12.96305561  169.43899536    4.90999985    2.30999994
   12.96611118  159.78599548    4.90999985    2.32999992
   12.96944427  157.98300171    4.90999985    2.30999994
   12.97249985  159.60800171    4.90999985    2.32999992
   12.97583294  159.64599609    4.90999985    2.32999992
   12.97916603  160.77900696    4.90999985    2.32999992
   12.97972202  160.31399536    4.90999985    2.32999992
   12.98277760  165.56799316    4.90999985    2.32999992
   12.98611164  164.33000183    4.90999985    2.32999992
   12.98944473  159.67999268    4.90999985    2.30999994
   12.99250031  158.69700623    4.90999985    2.32999992
   12.99583340  155.89199829    4.90999985    2.32999992
   12.99916649  155.65600586    4.90999985    2.32999992
   13.00222206  159.44299316    4.90999985    2.32999992
   13.00555515  156.65100098    4.90999985    2.32999992
   13.00861073  150.12199402    4.90999985    2.32999992
   13.01194477  154.70199585    4.90999985    2.34999990
   13.01249981  149.35699463    4.90999985    2.34999990
   13.01555538  156.47300720    4.90999985    2.32999992
   13.01861095  164.62800598    4.90999985    2.32999992
   13.02194405  160.06199646    4.90999985    2.32999992
   13.02527714  160.64199829    4.90999985    2.32999992
   13.02833271  156.41200256    4.90999985    2.32999992
   13.03166676  156.66400146    4.90999985    2.32999992
   13.03500080  156.95899963    4.90999985    2.32999992
   13.03805637  166.46899414    4.90999985    2.34999990
   13.04138947  157.27000427    4.90999985    2.32999992
   13.04444504  159.10800171    4.90999985    2.34999990
   13.04583359  155.67199707    4.90999985    2.32999992
   13.04833412  161.11000061    4.90999985    2.34999990
   13.05138874  161.07899475    4.90999985    2.34999990
   13.05472279  157.64199829    4.90999985    2.32999992
   13.05805588  164.84100342    4.90999985    2.32999992
   13.06111145  168.64399719    4.90999985    2.32999992
   13.06444454  163.94099426    4.90999985    2.32999992
   13.06777763  164.90499878    4.90999985    2.34999990
   13.07083321  171.33900452    4.90999985    2.34999990
   13.07416630  169.20399475    4.90999985    2.34999990
   13.07750034  166.16400146    4.90999985    2.34999990
   13.07916641  161.20300293    4.90999985    2.34999990
   13.08111095  163.73199463    4.90999985    2.34999990
   13.08416653  161.57200623    4.90999985    2.34999990
   13.08749962  162.15499878    4.90999985    2.34999990
   13.09083271  162.71899414    4.90999985    2.34999990
   13.09388828  155.49400330    4.90999985    2.34999990
   13.09722233  165.13299561    4.90999985    2.34999990
   13.10055637  165.61000061    4.90999985    2.34999990
   13.10361195  164.54699707    4.90999985    2.34999990
   13.10694504  164.53199768    4.90999985    2.34999990
   13.11000061  161.94200134    4.90999985    2.36999989
   13.11250019  169.00799561    4.90999985    2.36999989
   13.11388969  161.50000000    4.90999985    2.36999989
   13.11694431  163.25599670    4.90999985    2.36999989
   13.12027836  162.17799377    4.90999985    2.34999990
   13.12361145  166.21600342    4.90999985    2.36999989
   13.12666702  169.89100647    4.90999985    2.36999989
   13.13000011  155.58099365    4.90999985    2.36999989
   13.13333321  171.57699585    4.90999985    2.36999989
   13.13638878  164.01499939    4.90999985    2.36999989
   13.13972187  164.83500671    4.90999985    2.39000010
   13.14277744  160.67500305    4.90999985    2.39000010
   13.14583302  165.65199280    4.90999985    2.36999989
   13.14666653  166.02600098    4.90999985    2.39000010
   13.14972210  164.56500244    4.90999985    2.36999989
   13.15305519  163.26300049    4.90999985    2.36999989
   13.15638828  161.63099670    4.90999985    2.36999989
   13.15944386  164.34800720    4.90999985    2.36999989
   13.16277695  154.76100159    4.90999985    2.39000010
   13.16611099  160.68299866    4.90999985    2.36999989
   13.16916656  167.32600403    4.90999985    2.39000010
   13.17250061  158.92799377    4.90999985    2.36999989
   13.17555618  161.65600586    4.90999985    2.39000010
   13.17888927  155.80900574    4.88999987    2.39000010
   13.17944431  163.76300049    4.88999987    2.39000010
   13.18249989  155.77900696    4.88999987    2.39000010
   13.18583298  151.44999695    4.86999989    2.39000010
   13.18916702  157.15499878    4.86999989    2.36999989
   13.19222260  166.00000000    4.86999989    2.36999989
   13.19555569  153.37100220    4.84999990    2.39000010
   13.19888878  151.22300720    4.82999992    2.39000010
   13.20194435  148.88099670    4.80999994    2.39000010
   13.20527744  167.32899475    4.80000019    2.39000010
   13.20833302  163.95599365    4.80000019    2.39000010
   13.21166611  156.56300354    4.80999994    2.39000010
   13.21277714  154.56700134    4.80999994    2.39000010
   13.21500015  165.03999329    4.80000019    2.39000010
   13.21833324  159.51199341    4.80000019    2.39000010
   13.22166634  169.94700623    4.78000021    2.39000010
   13.22472191  173.50799561    4.76000023    2.39000010
   13.22805500  164.53900146    4.73999977    2.39000010
   13.23138809  175.65100098    4.73999977    2.39000010
   13.23472214  186.70399475    4.73999977    2.39000010
   13.23777771  177.80900574    4.73999977    2.39000010
   13.24111176  176.53799438    4.78000021    2.39000010
   13.24416733  197.80999756    4.78000021    2.39000010
   13.24611092  192.12199402    4.80000019    2.40000010
   13.24805546  190.58299255    4.80999994    2.39000010
   13.25111103  192.82499695    4.82999992    2.39000010
   13.25444412  202.63499451    4.84999990    2.39000010
   13.25749969  207.92799377    4.84999990    2.39000010
   13.26083374  215.54699707    4.84999990    2.39000010
   13.26416683  237.15299988    4.82999992    2.39000010
   13.26722240  229.71699524    4.80999994    2.40000010
   13.27055550  230.70700073    4.80000019    2.40000010
   13.27388859  270.01000977    4.80000019    2.40000010
   13.27694416  269.35998535    4.78000021    2.40000010
   13.27944374  284.06500244    4.76000023    2.40000010
   13.28083324  300.92300415    4.76000023    2.40000010
   13.28388977  345.20098877    4.76000023    2.40000010
   13.28722286  331.89898682    4.76000023    2.40000010
   13.29027843  357.57101440    4.73999977    2.40000010
   13.29361153  355.45498657    4.71999979    2.40000010
   13.29694462  353.92098999    4.71999979    2.40000010
   13.30000019  285.98901367    4.71999979    2.40000010
   13.30333328  204.65899658    4.71999979    2.42000008
   13.30666733  140.98100281    4.71999979    2.40000010
   13.30972195  128.11399841    4.71999979    2.40000010
   13.31277752  133.52099609    4.69999981    2.40000010
   13.31361103  133.87899780    4.69999981    2.40000010
   13.31666660  124.88700104    4.65999985    2.40000010
   13.31999969  120.66200256    4.65999985    2.40000010
   13.32305527  149.69400024    4.67999983    2.40000010
   13.32638836   99.98780060    4.65999985    2.42000008
   13.32972240  100.42299652    4.65999985    2.40000010
   13.33277798  102.58300018    4.63999987    2.40000010
   13.33611107   46.60919952    4.65999985    2.42000008
   13.33944416   23.57019997    4.65999985    2.42000008
   13.34249973   -1.00000000    4.67999983    2.42000008
   13.34583282   -1.00000000    4.69999981    2.42000008
   13.34944439   -1.00000000    4.69999981    2.42000008
   13.35277843   -1.00000000    4.69999981    2.42000008
   13.35583401   -1.00000000    4.67999983    2.40000010
   13.35916710   -1.00000000    4.67999983    2.40000010
   13.36222267   -1.00000000    4.65999985    2.40000010
   13.36555576   -1.00000000    4.65999985    2.40000010
   13.36888885   -1.00000000    4.63999987    2.42000008
   13.37194443   -1.00000000    4.63999987    2.42000008
   13.37527752   -1.00000000    4.63999987    2.42000008
   13.37861156   -1.00000000    4.61999989    2.42000008
   13.38194466   -1.00000000    4.61999989    2.42000008
   13.38527775   -1.00000000    4.59999990    2.42000008
   13.38833332   -1.00000000    4.59999990    2.42000008
   13.39194393   -1.00000000    4.55999994    2.42000008
   13.39527798   -1.00000000    4.55999994    2.42000008
   13.39833355   -1.00000000    4.55999994    2.42000008
   13.40166664  158.06100464    4.55999994    2.42000008
   13.40499973  158.00999451    4.55999994    2.42000008
   13.40805531   -1.00000000    4.55999994    2.42000008
   13.41138840   -1.00000000    4.55999994    2.42000008
   13.41499996   -1.00000000    4.55999994    2.42000008
   13.50472260   -1.00000000   -1.00000000   -1.00000000
   13.60805607   -1.00000000   -1.00000000   -1.00000000
   13.71111107   -1.00000000   -1.00000000   -1.00000000
   13.74694443   91.61180115    3.70000005    2.50000000
   13.75027752  153.87699890    3.70000005    2.50000000
   13.75361156  147.05599976    3.70000005    2.50000000
   13.75666714  147.80999756    3.72000003    2.50000000
   13.76000023  142.58500671    3.72000003    2.50000000
   13.76305580  147.15499878    3.72000003    2.50000000
   13.76722240  147.15499878    3.73000002    2.50000000
   13.77138901  142.89700317    3.73000002    2.50000000
   13.77472210  143.77000427    3.72000003    2.50000000
   13.77777767  147.24400330    3.70000005    2.50000000
   13.78027725  139.65800476    3.70000005    2.50000000
   13.78138828  143.38499451    3.70000005    2.50000000
   13.78472233  143.74699402    3.72000003    2.50000000
   13.78805637  144.92700195    3.72000003    2.50000000
   13.79111195  144.84199524    3.73000002    2.50000000
   13.79444504  144.66200256    3.73000002    2.50000000
   13.79777813  149.06500244    3.75000000    2.50000000
   13.80083370  144.55299377    3.72000003    2.50000000
   13.80416679  149.36399841    3.72000003    2.50000000
   13.81000042  149.36399841    3.70000005    2.50000000
   13.81416702  144.18400574    3.68000007    2.50000000
   13.81750011  144.29499817    3.68000007    2.50000000
   13.82055569  144.74899292    3.68000007    2.51999998
   13.82388878  143.96899414    3.68000007    2.50000000
   13.82722187  147.07299805    3.68000007    2.51999998
   13.83027744  150.58200073    3.68000007    2.51999998
   13.83361053  148.30900574    3.66000009    2.51999998
   13.83694458  153.03500366    3.64000010    2.50000000
   13.84000015  148.43299866    3.61999989    2.50000000
   13.84333324  144.22700500    3.61999989    2.50000000
   13.84638882  148.70799255    3.59999990    2.50000000
   13.84694386  152.11700439    3.59999990    2.50000000
   13.85305595  152.11700439    3.55999994    2.51999998
   13.85722256  156.64999390    3.55999994    2.50000000
   13.86027813  145.37300110    3.55999994    2.51999998
   13.86361122  148.59300232    3.55999994    2.51999998
   13.86666679  150.76100159    3.55999994    2.51999998
   13.86999989  146.00300598    3.55999994    2.51999998
   13.87333393  148.39300537    3.57999992    2.51999998
   13.87638855  155.58500671    3.59999990    2.51999998
   13.87972260  152.86500549    3.59999990    2.53999996
   13.88027763  145.57800293    3.57999992    2.50000000
   13.88333321  144.41099548    3.57999992    2.51999998
   13.88666630  149.75900269    3.57999992    2.51999998
   13.88972187  154.83700562    3.57999992    2.51999998
   13.89583302  154.83700562    3.57999992    2.51999998
   13.89999962  144.17300415    3.57999992    2.51999998
   13.90305519  147.27400208    3.59999990    2.53999996
   13.90638828  149.95199585    3.61999989    2.51999998
   13.90972137  149.94700623    3.61999989    2.51999998
   13.91277695  138.60800171    3.64000010    2.51999998
   13.91361046  138.71699524    3.64000010    2.51999998
   13.91638851  139.49400330    3.61999989    2.51999998
   13.91972256  141.81599426    3.61999989    2.51999998
   13.92277813  141.17700195    3.61999989    2.51999998
   13.92611122  142.46299744    3.61999989    2.51999998
   13.92944431  141.49600220    3.59999990    2.51999998
   13.93249989  140.14900208    3.55999994    2.51999998
   13.93861103  140.14900208    3.51999998    2.51999998
   13.94277763  141.90499878    3.53999996    2.51999998
   13.94611073  135.05999756    3.53999996    2.53999996
   13.94694424  136.54100037    3.53999996    2.51999998
   13.94972229  143.56100464    3.51999998    2.53999996
   13.95305538  146.41999817    3.53999996    2.51999998
   13.95611095  147.15699768    3.55999994    2.53999996
   13.95944405  146.98699951    3.57999992    2.53999996
   13.96277714  144.67599487    3.61999989    2.51999998
   13.96583271  137.84700012    3.61999989    2.51999998
   13.96916580  148.71800232    3.64000010    2.51999998
   13.97222137  142.84899902    3.64000010    2.53999996
   13.97555542  137.41900635    3.66000009    2.53999996
   13.98138809  137.41900635    3.66000009    2.51999998
   13.98555565  145.29400635    3.66000009    2.53999996
   13.98888874  141.14300537    3.66000009    2.51999998
   13.99222279  141.86900330    3.68000007    2.53999996
   13.99527836  150.83000183    3.68000007    2.53999996
   13.99861145  140.87500000    3.70000005    2.53999996
   14.00166702  141.33500671    3.72000003    2.53999996
   14.00500011  139.14900208    3.73000002    2.53999996
   14.00833321  149.84100342    3.75000000    2.53999996
   14.01138878  141.00700378    3.76999998    2.53999996
   14.01361084  143.52000427    3.78999996    2.51999998
   14.01500034  144.02099609    3.78999996    2.53999996
   14.01833344  143.13299561    3.78999996    2.51999998
   14.02444458  143.13299561    3.80999994    2.51999998
   14.02861118  142.77200317    3.82999992    2.53999996
   14.03166676  136.32099915    3.82999992    2.53999996
   14.03500080  137.71299744    3.82999992    2.53999996
   14.03833389  138.79499817    3.82999992    2.53999996
   14.04138947  139.21800232    3.84999990    2.53999996
   14.04472256  135.14900208    3.84999990    2.53999996
   14.04694462  140.27499390    3.84999990    2.51999998
   14.04833412  141.87899780    3.84999990    2.53999996
   14.05166721  144.00500488    3.84999990    2.53999996
   14.05472279  134.61199951    3.89000010    2.53999996
   14.05805588  131.41400146    3.91000009    2.53999996
   14.06138897  137.82299805    3.93000007    2.53999996
   14.06722260  137.82299805    3.97000003    2.53999996
   14.07138920  142.41099548    3.97000003    2.53999996
   14.07444477  142.21400452    3.99000001    2.53999996
   14.07777786  141.76300049    3.97000003    2.53999996
   14.08027744  138.82000732    3.99000001    2.53999996
   14.08138847  140.60000610    3.99000001    2.53999996
   14.08472157  139.47799683    3.99000001    2.53999996
   14.08777714  133.27799988    3.99000001    2.53999996
   14.09111118  136.80200195    3.99000001    2.53999996
   14.09444427  144.76199341    3.97000003    2.53999996
   14.09749985  141.07899475    3.97000003    2.53999996
   14.10083389  133.42599487    3.97000003    2.53999996
   14.10388947  130.93800354    3.95000005    2.53999996
   14.11000061  130.93800354    3.93000007    2.53999996
   14.11416721  147.66099548    3.89000010    2.53999996
   14.11750031  140.42399597    3.86999989    2.53999996
   14.12055588  137.40699768    3.86999989    2.53999996
   14.12388897  139.35099792    3.84999990    2.53999996
   14.12694454  147.66299438    3.82999992    2.53999996
   14.13027763  142.25399780    3.80999994    2.55999994
   14.13361073  144.85400391    3.78999996    2.53999996
   14.13666630  143.22500610    3.78999996    2.53999996
   14.14000034  144.35800171    3.82999992    2.53999996
   14.14333344  137.57899475    3.84999990    2.53999996
   14.14638901  135.69299316    3.86999989    2.53999996
   14.14694405  148.32000732    3.89000010    2.53999996
   14.15277767  148.32000732    3.95000005    2.55999994
   14.15694427  143.12899780    3.99000001    2.55999994
   14.16027737  143.17799377    4.00000000    2.55999994
   14.16333294  147.75599670    4.03999996    2.53999996
   14.16666698  141.12500000    4.05999994    2.53999996
   14.17000008  144.48699951    4.09999990    2.53999996
   14.17305565  142.39399719    4.13999987    2.53999996
   14.17638874  148.63600159    4.17999983    2.53999996
   14.17972279  144.58500671    4.21999979    2.53999996
   14.18027782  160.04699707    4.23999977    2.53999996
   14.18333340  139.25300598    4.26999998    2.53999996
   14.18666649  136.81599426    4.32999992    2.53999996
   14.18972206  155.46600342    4.36999989    2.53999996
   14.19583321  155.46600342    4.44999981    2.53999996
   14.19972229  156.06599426    4.46999979    2.53999996
   14.20305538  159.16999817    4.48999977    2.53999996
   14.20638847  153.57899475    4.46999979    2.53999996
   14.20944405  148.61199951    4.46999979    2.53999996
   14.21277714  149.83799744    4.42999983    2.53999996
   14.21361065  155.45300293    4.42999983    2.53999996
   14.21638870  157.84500122    4.38999987    2.53999996
   14.21972179  155.59700012    4.36999989    2.53999996
   14.22277737  153.95899963    4.32999992    2.55999994
   14.22611046  152.39399719    4.28999996    2.55999994
   14.22944355  151.19200134    4.26000023    2.53999996
   14.23249912  147.70300293    4.19999981    2.55999994
   14.23861122  147.70300293    4.11999989    2.53999996
   14.24277782  152.96200562    4.09999990    2.55999994
   14.24583340  155.67500305    4.09999990    2.55999994
   14.24694443  146.97000122    4.09999990    2.53999996
   14.24944496  144.27699280    4.07999992    2.53999996
   14.25277805  144.65299988    4.05999994    2.55999994
   14.25583363  143.45700073    4.01999998    2.55999994
   14.25916672  141.06500244    4.01999998    2.55999994
   14.26249981  149.06300354    4.00000000    2.55999994
   14.26555538  153.14799500    4.00000000    2.55999994
   14.26888847  150.61199951    4.00000000    2.55999994
   14.27194405  145.40699768    4.00000000    2.55999994
   14.27527714  156.87199402    4.01999998    2.55999994
   14.28138828  156.87199402    4.05999994    2.55999994
   14.28555584  156.49800110    4.05999994    2.55999994
   14.28888893  166.10800171    4.05999994    2.55999994
   14.29194450  160.08700562    4.05999994    2.55999994
   14.29527855  166.40899658    4.03999996    2.55999994
   14.29833412  169.34800720    4.01999998    2.55999994
   14.30166721  170.20399475    4.00000000    2.55999994
   14.30500031  163.82699585    3.97000003    2.55999994
   14.30805588  177.98500061    3.93000007    2.55999994
   14.31138897  178.43600464    3.91000009    2.57999992
   14.31361103  187.14399719    3.89000010    2.55999994
   14.31500053  202.92999268    3.86999989    2.55999994
   14.31833363  174.11799622    3.84999990    2.57999992
   14.32416630  174.11799622    3.86999989    2.55999994
   14.32833290  164.49299622    3.89000010    2.55999994
   14.33166695  169.09700012    3.93000007    2.55999994
   14.33472157  177.22599792    3.97000003    2.53999996
   14.33805561  170.95899963    4.00000000    2.57999992
   14.34138870  189.14300537    4.07999992    2.57999992
   14.34472179  170.07000732    4.11999989    2.57999992
   14.34694386  189.95500183    4.15999985    2.55999994
   14.34805489  196.12800598    4.15999985    2.57999992
   14.35138893  202.35400391    4.21999979    2.57999992
   14.35444450  211.18600464    4.30999994    2.55999994
   14.35777855  197.42799377    4.40999985    2.55999994
   14.36111164  181.96299744    4.51000023    2.55999994
   14.36722279  181.96299744    4.69999981    2.55999994
   14.37111092  167.67199707    4.82999992    2.55999994
   14.37444496  176.52999878    4.90999985    2.53999996
   14.37777805  164.69400024    4.90999985    2.53999996
   14.38027763  170.08399963    4.90999985    2.55999994
   14.38138866  168.36500549    4.90999985    2.53999996
   14.38472176  151.67599487    4.90999985    2.53999996
   14.38777733  184.31300354    4.90999985    2.53999996
   14.39111137  164.76400757    4.90999985    2.53999996
   14.39444447  195.86999512    4.90999985    2.53999996
   14.39750004  163.80700684    4.90999985    2.53999996
   14.40083313  161.84300232    4.90999985    2.53999996
   14.40388870  170.69599915    4.90999985    2.53999996
   14.40999985  170.69599915    4.90999985    2.53999996
   14.41416645  178.54600525    4.90999985    2.53999996
   14.41722298  165.93699646    4.90999985    2.53999996
   14.42055607  172.75199890    4.90999985    2.55999994
   14.42388916  171.30700684    4.90999985    2.53999996
   14.42694473  175.04699707    4.90999985    2.53999996
   14.43027782  178.76499939    4.90999985    2.53999996
   14.43333340  175.77000427    4.90999985    2.55999994
   14.43666649  183.18400574    4.90999985    2.53999996
   14.44000053  186.08299255    4.90999985    2.55999994
   14.44305515  165.63900757    4.90999985    2.53999996
   14.44638920  174.11700439    4.90999985    2.53999996
   14.44694424  148.27200317    4.90999985    2.53999996
   14.45277786  148.27200317    4.90999985    2.51999998
   14.45694447  188.18899536    4.90999985    2.55999994
   14.46027756  171.48699951    4.90999985    2.55999994
   14.46333313  153.62500000    4.90999985    2.57999992
   14.46666622  152.39399719    4.90999985    2.55999994
   14.46972179  168.10299683    4.90999985    2.55999994
   14.47305489  151.61399841    4.90999985    2.55999994
   14.47638798  152.77299500    4.90999985    2.57999992
   14.47944355  153.15299988    4.90999985    2.55999994
   14.48027706  150.78500366    4.90999985    2.55999994
   14.48305511  167.86300659    4.90999985    2.55999994
   14.48638916  147.17999268    4.90999985    2.53999996
   14.48944473  167.87300110    4.90999985    2.55999994
   14.49555588  167.87300110    4.90999985    2.55999994
   14.49972248  164.52600098    4.90999985    2.55999994
   14.50305557  163.91499329    4.90999985    2.55999994
   14.50638866  164.99200439    4.90999985    2.55999994
   14.50944424  178.45100403    4.90999985    2.53999996
   14.51277733  156.91999817    4.90999985    2.57999992
   14.51388931  155.16999817    4.90999985    2.57999992
   14.51638889  172.02600098    4.90999985    2.55999994
   14.51972198  162.82699585    4.90999985    2.53999996
   14.52277756  149.16999817    4.90999985    2.55999994
   14.52611065  161.43800354    4.90999985    2.55999994
   14.52944374  160.61199951    4.90999985    2.55999994
   14.53249931  165.55299377    4.90999985    2.55999994
   14.53861141  165.55299377    4.90999985    2.57999992
   14.54250050  176.65899658    4.86999989    2.57999992
   14.54583359  170.68600464    4.78000021    2.57999992
   14.54722309  153.15499878    4.76000023    2.57999992
   14.54944515  165.46899414    4.69999981    2.57999992
   14.55277824  165.05599976    4.61999989    2.57999992
   14.55611134  153.76300049    4.55999994    2.55999994
   14.55916691  168.39300537    4.53000021    2.55999994
   14.56250000  159.16200256    4.51000023    2.57999992
   14.56555557  154.08000183    4.48999977    2.57999992
   14.56888866  165.27799988    4.48999977    2.59999990
   14.57222176  154.17700195    4.48999977    2.57999992
   14.57527733  149.61300659    4.46999979    2.57999992
   14.58138847  149.61300659    4.44999981    2.57999992
   14.58555508  161.37899780    4.38999987    2.57999992
   14.58861065  161.74699402    4.34999990    2.57999992
   14.59194374  155.05599976    4.30999994    2.57999992
   14.59527779  149.84899902    4.26999998    2.57999992
   14.59833336  150.35800171    4.23999977    2.57999992
   14.60166740  146.31500244    4.17999983    2.59999990
   14.60472298  148.41200256    4.13999987    2.57999992
   14.60805607  163.69999695    4.09999990    2.59999990
   14.61138916  162.42199707    4.01999998    2.57999992
   14.61388969  167.39199829    3.97000003    2.59999990
   14.61472225  155.67999268    3.97000003    2.59999990
   14.61805534  149.91700745    3.89000010    2.59999990
   14.62416649  149.91700745    3.84999990    2.59999990
   14.62833309  154.54100037    3.84999990    2.59999990
   14.63166714  145.23199463    3.82999992    2.59999990
   14.63472176  141.27799988    3.78999996    2.57999992
   14.63805580  146.94900513    3.75000000    2.59999990
   14.64111137  150.90899658    3.73000002    2.59999990
   14.64444447  146.04699707    3.75000000    2.59999990
   14.64722252  145.84399414    3.76999998    2.59999990
   14.64805508  141.80400085    3.76999998    2.57999992
   14.65138817  150.50399780    3.76999998    2.57999992
   14.65444374  141.14999390    3.76999998    2.61999989
   14.65777779  147.57499695    3.76999998    2.59999990
   14.66111088  146.52299500    3.80999994    2.59999990
   14.66694450  146.52299500    3.84999990    2.61999989
   14.67111111  149.99899292    3.86999989    2.57999992
   14.67444515  148.71200562    3.93000007    2.59999990
   14.67777824  144.87399292    3.95000005    2.59999990
   14.68055630  144.44200134    3.95000005    2.59999990
   14.68138885  148.79699707    3.95000005    2.59999990
   14.68472195  152.13000488    3.97000003    2.59999990
   14.68805599  146.06100464    3.95000005    2.59999990
   14.69111156  142.97300720    3.95000005    2.57999992
   14.69444466  137.42599487    3.93000007    2.57999992
   14.69750023  141.46200562    3.93000007    2.59999990
   14.70083332  135.76899719    3.89000010    2.59999990
   14.70416641  147.27600098    3.86999989    2.57999992
   14.71000004  147.27600098    3.82999992    2.57999992
   14.71388912  152.88800049    3.78999996    2.59999990
   14.71722221  158.55999756    3.76999998    2.59999990
   14.72055531  159.56399536    3.76999998    2.59999990
   14.72361088  146.41499329    3.75000000    2.59999990
   14.72694397  148.11099243    3.72000003    2.57999992
   14.73027706  131.43499756    3.70000005    2.59999990
   14.73333359  136.67700195    3.66000009    2.59999990
   14.73666668  134.62699890    3.61999989    2.59999990
   14.73972225  147.56199646    3.57999992    2.61999989
   14.74305534  142.18299866    3.53999996    2.59999990
   14.74638939  143.13600159    3.51999998    2.59999990
   14.74722290  148.06500244    3.51999998    2.59999990
   14.76777744  148.06500244    3.36999989    2.59999990
   14.77194405  139.20899963    3.41000009    2.59999990
   14.77527714  139.20300293    3.41000009    2.59999990
   14.77833271  139.32699585    3.39000010    2.61999989
   14.78055573  141.79400635    3.39000010    2.61999989
   14.78194427  139.39199829    3.36999989    2.61999989
   14.78527832  139.07499695    3.39000010    2.61999989
   14.78861141  143.81700134    3.43000007    2.61999989
   14.79166698  138.93400574    3.45000005    2.61999989
   14.79500008  144.31300354    3.48000002    2.59999990
   14.79805565  148.81799316    3.50000000    2.59999990
   14.80138874  137.63400269    3.51999998    2.61999989
   14.80472279  143.02900696    3.55999994    2.61999989
   14.81055546  143.02900696    3.61999989    2.59999990
   14.81472206  142.50999451    3.61999989    2.61999989
   14.81805515  149.99600220    3.61999989    2.61999989
   14.82111073  140.35499573    3.59999990    2.61999989
   14.82444477  151.22999573    3.59999990    2.61999989
   14.82777786  140.11900330    3.57999992    2.59999990
   14.83083344  140.11000061    3.55999994    2.59999990
   14.83416653  137.63800049    3.51999998    2.61999989
   14.83722210  147.39199829    3.48000002    2.61999989
   14.84055519  139.94700623    3.46000004    2.59999990
   14.84388828  132.02699280    3.46000004    2.61999989
   14.84694386  134.35600281    3.43000007    2.61999989
   14.84749985  138.71299744    3.43000007    2.61999989
   14.85333347  138.71299744    3.41000009    2.61999989
   14.85750008  137.00100708    3.41000009    2.61999989
   14.86083412  144.60000610    3.41000009    2.64000010
   14.86416721  150.68699646    3.39000010    2.61999989
   14.86722279  145.90400696    3.39000010    2.61999989
   14.87055588  133.26600647    3.36999989    2.59999990
   14.87361145  140.40299988    3.36999989    2.61999989
   14.87694454  145.42399597    3.39000010    2.64000010
   14.88027763  140.56799316    3.41000009    2.61999989
   14.88083363  137.44599915    3.41000009    2.64000010
   14.88388920  141.79699707    3.43000007    2.61999989
   14.88694477  136.94799805    3.43000007    2.59999990
   14.89027786  141.86000061    3.43000007    2.61999989
   14.89638901  141.86000061    3.48000002    2.61999989
   14.90055561  141.22500610    3.53999996    2.61999989
   14.90361118  139.23399353    3.57999992    2.61999989
   14.90694427  141.23199463    3.64000010    2.61999989
   14.90999985  132.95500183    3.72000003    2.61999989
   14.91333294  142.93600464    3.75000000    2.59999990
   14.91416645  139.73800659    3.76999998    2.61999989
   14.91694450  137.56700134    3.75000000    2.61999989
   14.92000008  134.61999512    3.76999998    2.61999989
   14.92333412  134.40800476    3.75000000    2.61999989
   14.92666721  142.04800415    3.73000002    2.59999990
   14.92972279  142.22000122    3.70000005    2.61999989
   14.93305588  136.65299988    3.66000009    2.59999990
   14.93916702  136.65299988    3.61999989    2.59999990
   14.94333363  138.40499878    3.55999994    2.61999989
   14.94638920  137.88400269    3.51999998    2.61999989
   14.94750023  140.45500183    3.51999998    2.61999989
   14.95027733  138.64700317    3.48000002    2.61999989
   14.95333290  133.10400391    3.46000004    2.61999989
   14.95666695  138.16099548    3.43000007    2.61999989
   14.96000004  131.20799255    3.39000010    2.61999989
   14.96305561  134.25700378    3.36999989    2.61999989
   14.96638870  144.52200317    3.34999990    2.61999989
   14.96972179  134.95300293    3.32999992    2.64000010
   14.97277737  139.04400635    3.34999990    2.61999989
   14.97611046  139.63600159    3.34999990    2.61999989
   14.98194408  139.63600159    3.34999990    2.61999989
   14.98611164  126.12799835    3.32999992    2.64000010
   14.98944473  134.86599731    3.32999992    2.61999989
   14.99250031  135.77799988    3.30999994    2.61999989
   14.99583340  140.39900208    3.28999996    2.61999989
   14.99916649  142.67300415    3.25000000    2.61999989
   15.00222206  141.94999695    3.23000002    2.61999989
   15.00555515  133.80900574    3.25000000    2.61999989
   15.00861073  146.24899292    3.26999998    2.61999989
   15.01194477  131.51199341    3.30999994    2.61999989
   15.01416683  131.98899841    3.30999994    2.64000010
   15.01555538  142.58599854    3.30999994    2.61999989
   15.01861095  137.57000732    3.26999998    2.61999989
   15.02472210  137.57000732    3.23000002    2.64000010
   15.02888870  138.80299377    3.23000002    2.61999989
   15.03222179  136.76600647    3.25000000    2.64000010
   15.03555584  144.00999451    3.23000002    2.64000010
   15.03861141  143.41299438    3.20000005    2.64000010
   15.04194450  134.90299988    3.18000007    2.61999989
   15.04500008  133.59100342    3.18000007    2.64000010
   15.04750061  140.71200562    3.20000005    2.64000010
   15.04888916  135.54600525    3.21000004    2.64000010
   15.05194473  136.82000732    3.23000002    2.61999989
   15.05527782  139.08999634    3.21000004    2.64000010
   15.05861092  135.22500610    3.18000007    2.64000010
   15.06166649  132.20500183    3.14000010    2.61999989
   15.06777763  132.20500183    3.11999989    2.64000010
   15.07194424  140.38999939    3.07999992    2.64000010
   15.07499981  135.72200012    3.07999992    2.64000010
   15.07833290  133.03199768    3.14000010    2.64000010
   15.08083344  135.66700745    3.18000007    2.64000010
   15.08194447  135.16999817    3.18000007    2.64000010
   15.08500004  143.52600098    3.23000002    2.64000010
   15.08833313  134.70700073    3.23000002    2.64000010
   15.09166622  135.41400146    3.21000004    2.64000010
   15.09472179  140.54800415    3.23000002    2.64000010
   15.09805489  141.79899597    3.21000004    2.64000010
   15.10138893  138.15899658    3.18000007    2.64000010
   15.10444450  139.14399719    3.16000009    2.64000010
   15.11055565  139.14399719    3.07999992    2.61999989
   15.11472225  137.75300598    3.07999992    2.64000010
   15.11777782  138.75599670    3.14000010    2.64000010
   15.12111092  140.08200073    3.16000009    2.64000010
   15.12444496  138.38900757    3.18000007    2.64000010
   15.12750053  138.16799927    3.21000004    2.64000010
   15.13083363  142.22200012    3.25000000    2.64000010
   15.13416672  133.66999817    3.32999992    2.64000010
   15.13722229  130.54600525    3.34999990    2.64000010
   15.14055538  140.73899841    3.36999989    2.64000010
   15.14361095  136.61000061    3.41000009    2.64000010
   15.14694405  138.67700195    3.39000010    2.64000010
   15.14750004  139.75700378    3.39000010    2.64000010
   15.15333271  139.75700378    3.43000007    2.61999989
   15.15749931  136.80099487    3.45000005    2.64000010
   15.16083336  137.30200195    3.41000009    2.61999989
   15.16388893  138.47999573    3.30999994    2.64000010
   15.16722298  139.79800415    3.18000007    2.64000010
   15.17055607  149.19599915    3.09999990    2.64000010
   15.17361164  140.90299988    3.01999998    2.64000010
   15.17694473  131.65699768    2.98000002    2.64000010
   15.18000031  139.62500000    2.94000006    2.64000010
   15.18083382  139.53399658    2.93000007    2.64000010
   15.18361092  138.08900452    2.86999989    2.64000010
   15.18694496  138.15800476    2.84999990    2.64000010
   15.19000053  137.52999878    2.80999994    2.64000010
   15.19611073  137.52999878    2.80999994    2.64000010
   15.20027733  141.38699341    2.76999998    2.64000010
   15.20361137  144.01100159    2.73000002    2.64000010
   15.20694447  140.48500061    2.69000006    2.64000010
   15.21000004  142.11900330    2.64000010    2.64000010
   15.21333313  141.34899902    2.59999990    2.66000009
   15.21416664  139.95899963    2.59999990    2.64000010
   15.21694374  133.53300476    2.57999992    2.66000009
   15.22027779  135.26600647    2.55999994    2.64000010
   15.22333336  139.00700378    2.55999994    2.64000010
   15.22666645  132.77000427    2.53999996    2.64000010
   15.22972202  136.53900146    2.53999996    2.64000010
   15.23305511  132.47799683    2.55999994    2.66000009
   15.23916721  132.47799683    2.64000010    2.64000010
   15.24333382  136.93200684    2.67000008    2.64000010
   15.24638939  134.73199463    2.69000006    2.64000010
   15.24750042  135.21699524    2.71000004    2.64000010
   15.25000000  137.16400146    2.71000004    2.64000010
   15.25333309  136.71099854    2.73000002    2.66000009
   15.25638866  138.31799316    2.75000000    2.64000010
   15.25972176  140.67300415    2.76999998    2.64000010
   15.26277733  139.33200073    2.76999998    2.66000009
   15.26611137  136.70399475    2.76999998    2.64000010
   15.26944447  140.85000610    2.73000002    2.64000010
   15.27250004  134.55299377    2.71000004    2.64000010
   15.27583313  140.18400574    2.69000006    2.66000009
   15.28194427  140.18400574    2.64000010    2.64000010
   15.28611183  140.67700195    2.59999990    2.64000010
   15.28916740  137.98699951    2.57999992    2.66000009
   15.29250050  131.44599915    2.55999994    2.64000010
   15.29583359  134.01899719    2.53999996    2.64000010
   15.29888916  129.22700500    2.53999996    2.64000010
   15.30222225  136.46200562    2.55999994    2.64000010
   15.30555534  135.40400696    2.51999998    2.64000010
   15.30861092  135.84399414    2.51999998    2.64000010
   15.31194496  130.25700378    2.51999998    2.64000010
   15.31416702  129.30400085    2.50000000    2.64000010
   15.31555557  126.16300201    2.50000000    2.66000009
   15.31888866  136.04400635    2.50000000    2.64000010
   15.32472229  136.04400635    2.50000000    2.64000010
   15.32888889  131.96499634    2.55999994    2.64000010
   15.33222198  137.78999329    2.64000010    2.64000010
   15.33527756  132.92199707    2.66000009    2.64000010
   15.33861065  134.88400269    2.67000008    2.66000009
   15.34194374  135.94299316    2.73000002    2.64000010
   15.34499931  135.98699951    2.76999998    2.64000010
   15.34749985  137.32000732    2.78999996    2.64000010
   15.34861088  137.68299866    2.80999994    2.64000010
   15.35194492  131.77600098    2.84999990    2.64000010
   15.35500050  135.22099304    2.84999990    2.66000009
   15.35833359  138.73800659    2.84999990    2.64000010
   15.36138916  138.24699402    2.86999989    2.66000009
   15.36750031  138.24699402    2.93000007    2.64000010
   15.37166691  130.29299927    2.94000006    2.64000010
   15.37500000  134.57299805    2.94000006    2.64000010
   15.37833309  135.89999390    2.91000009    2.64000010
   15.38083363  137.97500610    2.86999989    2.66000009
   15.38194466  134.14199829    2.84999990    2.64000010
   15.38527775  136.78500366    2.80999994    2.64000010
   15.38833332  135.32800293    2.76999998    2.64000010
   15.39166641  131.44000244    2.73000002    2.64000010
   15.39472198  131.99099731    2.73000002    2.64000010
   15.39805508  135.83099365    2.71000004    2.66000009
   15.40138817  139.43600464    2.69000006    2.64000010
   15.40444374  129.51300049    2.67000008    2.64000010
   15.41055489  129.51300049    2.64000010    2.64000010
   15.41472149  137.67300415    2.57999992    2.66000009
   15.41777802  139.86399841    2.59999990    2.64000010
   15.42111111  141.10099792    2.61999989    2.64000010
   15.42416668  135.34899902    2.64000010    2.66000009
   15.42750072  139.91400146    2.66000009    2.66000009
   15.43083382  140.63999939    2.67000008    2.64000010
   15.43388939  140.87399292    2.66000009    2.64000010
   15.43722248  138.82299805    2.66000009    2.64000010
   15.44055557  135.32400513    2.66000009    2.64000010
   15.44361115  138.87800598    2.66000009    2.64000010
   15.44694424  141.62500000    2.66000009    2.66000009
   15.44750023  138.14199829    2.66000009    2.64000010
   15.45333290  138.14199829    2.66000009    2.64000010
   15.45749950  142.81300354    2.61999989    2.64000010
   15.46055508  141.66799927    2.61999989    2.66000009
   15.46388912  142.57299805    2.57999992    2.66000009
   15.46722221  137.91799927    2.55999994    2.66000009
   15.47027779  141.02299500    2.51999998    2.66000009
   15.47361088  138.05700684    2.48000002    2.64000010
   15.47694397  142.22799683    2.48000002    2.64000010
   15.47999954  138.93099976    2.46000004    2.66000009
   15.48083305  131.60400391    2.46000004    2.66000009
   15.48361111  134.96299744    2.42000008    2.66000009
   15.48694515  135.15400696    2.40000010    2.66000009
   15.49000072  138.92199707    2.39000010    2.66000009
   15.49611092  138.92199707    2.36999989    2.66000009
   15.50027752  133.72200012    2.34999990    2.64000010
   15.50361156  133.99699402    2.32999992    2.66000009
   15.50666714  134.63099670    2.30999994    2.64000010
   15.51000023  137.18600464    2.26999998    2.66000009
   15.51333332  138.82600403    2.25000000    2.66000009
   15.51416683  136.24400330    2.25000000    2.67000008
   15.51666641  136.62699890    2.25000000    2.66000009
   15.51999950  133.55299377    2.21000004    2.66000009
   15.52305508  134.76499939    2.17000008    2.66000009
   15.52638817  135.53199768    2.09999990    2.66000009
   15.52972221  138.69500732    2.00000000    2.66000009
   15.53277779  139.86799622    1.86000001    2.66000009
   15.53888893  139.86799622    1.98000002    2.66000009
   15.54305553  133.08299255    2.07999992    2.64000010
   15.54638958  133.21800232    2.17000008    2.66000009
   15.54750061  134.27400208    2.23000002    2.66000009
   15.55000019  132.36099243    2.28999996    2.64000010
   15.55333328  134.72999573    2.39000010    2.64000010
   15.55638885  135.82499695    2.46000004    2.64000010
   15.55972195  132.98899841    2.50000000    2.66000009
   15.56305599  132.58599854    2.53999996    2.66000009
   15.56611156  135.47700500    2.53999996    2.64000010
   15.56944466  132.60699463    2.53999996    2.64000010
   15.57250023  131.35699463    2.53999996    2.64000010
   15.57583332  136.22999573    2.55999994    2.66000009
   15.58194447  136.22999573    2.67000008    2.61999989
   15.58611107  134.11099243    2.71000004    2.64000010
   15.58916664  131.95199585    2.75000000    2.64000010
   15.59249973  130.99699402    2.75000000    2.64000010
   15.59555531  134.11799622    2.75000000    2.64000010
   15.59888840  129.29100037    2.75000000    2.64000010
   15.60222244  139.26300049    2.73000002    2.64000010
   15.60555553  134.48500061    2.71000004    2.64000010
   15.60861111  142.36199951    2.71000004    2.66000009
   15.61194515  141.74400330    2.69000006    2.66000009
   15.61416721  138.43600464    2.67000008    2.64000010
   15.61555576  129.57200623    2.66000009    2.64000010
   15.61888885  133.89999390    2.64000010    2.66000009
   15.62472248  133.89999390    2.61999989    2.66000009
   15.62888908  138.11799622    2.64000010    2.66000009
   15.63194466  138.68299866    2.64000010    2.64000010
   15.63527775  135.43499756    2.64000010    2.66000009
   15.63861084  141.63099670    2.67000008    2.66000009
   15.64166641  138.14199829    2.69000006    2.66000009
   15.64499950  131.30200195    2.73000002    2.64000010
   15.64750004  138.64100647    2.73000002    2.66000009
   15.64861107  137.68699646    2.75000000    2.66000009
   15.65194416  136.59199524    2.76999998    2.66000009
   15.65499973  138.62899780    2.78999996    2.66000009
   15.65833282  138.41999817    2.80999994    2.66000009
   15.66166592  144.90400696    2.80999994    2.66000009
   15.66750050  144.90400696    2.80999994    2.66000009
   15.67166710  138.34599304    2.78999996    2.64000010
   15.67500019  144.13999939    2.76999998    2.64000010
   15.67805576  137.50100708    2.76999998    2.64000010
   15.68083382  142.29299927    2.71000004    2.66000009
   15.68166733  141.28999329    2.69000006    2.66000009
   15.68500042  138.96800232    2.67000008    2.66000009
   15.68805599  138.30900574    2.64000010    2.64000010
   15.69138908  143.96299744    2.66000009    2.64000010
   15.69472218  140.62899780    2.71000004    2.66000009
   15.69777775  142.88099670    2.78999996    2.64000010
   15.70111084  136.81700134    2.86999989    2.66000009
   15.70416641  145.14700317    2.93000007    2.66000009
   15.71027756  145.14700317    3.01999998    2.64000010
   15.71444416  133.00700378    3.03999996    2.64000010
   15.71777725  134.74200439    3.07999992    2.64000010
   15.72111034  139.52900696    3.16000009    2.64000010
   15.72416592  140.40899658    3.20000005    2.66000009
   15.72749996  140.66999817    3.20000005    2.64000010
   15.73055553  142.45599365    3.21000004    2.64000010
   15.73388958  136.64599609    3.23000002    2.64000010
   15.73722267  140.90699768    3.21000004    2.64000010
   15.74027824  142.64100647    3.20000005    2.64000010
   15.74361134  140.95599365    3.20000005    2.64000010
   15.74694443  141.63499451    3.16000009    2.64000010
   15.74750042  141.81799316    3.14000010    2.64000010
   15.75333309  141.81799316    3.01999998    2.66000009
   15.75749969  141.69700623    3.01999998    2.64000010
   15.76055527  141.39100647    3.01999998    2.64000010
   15.76388931  142.77099609    3.01999998    2.64000010
   15.78138828  133.63000488    3.05999994    2.66000009
   15.78388977  131.72300720    3.07999992    2.66000009
   15.78694534  138.15400696    3.14000010    2.64000010
   15.79027843  133.85800171    3.18000007    2.66000009
   15.79611111  133.85800171    3.21000004    2.64000010
   15.80027771  143.35200500    3.23000002    2.64000010
   15.80361176  135.42500305    3.25000000    2.64000010
   15.80694485  135.02099609    3.26999998    2.66000009
   15.81000042  147.81900024    3.26999998    2.66000009
   15.81333351  149.39999390    3.28999996    2.64000010
   15.81472206  148.07400513    3.28999996    2.64000010
   15.81666660  144.11599731    3.26999998    2.64000010
   15.81999969  141.68699646    3.25000000    2.64000010
   15.82333374  140.29800415    3.25000000    2.64000010
   15.82638836  142.16000366    3.26999998    2.64000010
   15.82972240  138.13200378    3.26999998    2.66000009
   15.83305550  135.47200012    3.26999998    2.64000010
   15.83916664  135.47200012    3.30999994    2.64000010
   15.84333324  138.78300476    3.28999996    2.64000010
   15.84638882  136.02200317    3.30999994    2.64000010
   15.84805489  136.98100281    3.32999992    2.66000009
   15.85000038  137.94400024    3.36999989    2.64000010
   15.85333347  137.00100708    3.39000010    2.66000009
   15.85666752  141.62500000    3.36999989    2.64000010
   15.85972214  140.07099915    3.34999990    2.64000010
   15.86305618  140.60600281    3.28999996    2.64000010
   15.86638927  140.67999268    3.25000000    2.64000010
   15.86972237  139.69799805    3.23000002    2.64000010
   15.87277794  139.32600403    3.18000007    2.66000009
   15.87611103  141.34599304    3.14000010    2.66000009
   15.88194466  141.34599304    2.98000002    2.64000010
   15.88611126  146.52099609    2.86999989    2.64000010
   15.88916683  143.79299927    2.82999992    2.66000009
   15.89249992  141.32400513    2.78999996    2.66000009
   15.89583302  143.31500244    2.75000000    2.66000009
   15.89888859  140.29499817    2.73000002    2.66000009
   15.90222168  147.18400574    2.71000004    2.64000010
   15.90555477  138.61700439    2.73000002    2.66000009
   15.90861034  142.42199707    2.75000000    2.66000009
   15.91194439  142.26400757    2.78999996    2.66000009
   15.91472149  145.89700317    2.78999996    2.66000009
   15.91527748  142.88800049    2.80999994    2.66000009
   15.91861153  145.53100586    2.80999994    2.66000009
   15.92472267  145.53100586    2.82999992    2.66000009
   15.92888927  141.89900208    2.82999992    2.66000009
   15.93222237  142.27600098    2.84999990    2.66000009
   15.93527794  139.07400513    2.80999994    2.66000009
   15.93861103  137.29299927    2.78999996    2.66000009
   15.94194412  149.30700684    2.76999998    2.66000009
   15.94499969  142.13000488    2.75000000    2.64000010
   15.94805527  148.41499329    2.73000002    2.66000009
   15.94861126  146.32899475    2.73000002    2.66000009
   15.95194435  146.19500732    2.73000002    2.66000009
   15.95527744  142.96699524    2.73000002    2.66000009
   15.95833302  137.31500244    2.71000004    2.66000009
   15.96166611  136.78500366    2.69000006    2.66000009
   15.96749973  136.78500366    2.64000010    2.66000009
   15.97166634  139.28999329    2.64000010    2.66000009
   15.97499943  143.82400513    2.59999990    2.66000009
   15.97833252  137.05499268    2.53999996    2.66000009
   15.98138809  146.92799377    2.48000002    2.64000010
   15.98166656  143.12199402    2.48000002    2.66000009
   15.98500061  147.66000366    2.44000006    2.66000009
   15.98833370  142.26100159    2.39000010    2.66000009
   15.99138927  147.31900024    2.32999992    2.66000009
   15.99472237  140.88999939    2.26999998    2.67000008
   15.99805546  144.21499634    2.21000004    2.66000009
   16.00111198  141.28999329    2.17000008    2.67000008
   16.00444412  146.91099548    2.15000010    2.67000008
   16.01055527  146.91099548    2.15000010    2.67000008
   16.01472282  138.30999756    2.19000006    2.67000008
   16.01499939  135.79299927    2.19000006    2.67000008
   16.01833344  134.42900085    2.25000000    2.66000009
   16.02166557  137.11099243    2.30999994    2.66000009
   16.02472115  128.05000305    2.39000010    2.66000009
   16.02805519  130.67500305    2.40000010    2.66000009
   16.03111076  138.44700623    2.42000008    2.67000008
   16.03444481  136.25199890    2.40000010    2.66000009
   16.03777695  140.25599670    2.40000010    2.67000008
   16.04083252  139.96600342    2.44000006    2.67000008
   16.04416656  136.92300415    2.48000002    2.66000009
   16.04749870  141.21699524    2.55999994    2.66000009
   16.04833221  140.03900146    2.59999990    2.67000008
   16.05333328  140.03900146    2.82999992    2.64000010
   16.05749893  136.05599976    3.05999994    2.64000010
   16.06055450  142.00399780    3.16000009    2.66000009
   16.06388855  140.30400085    3.28999996    2.64000010
   16.06722260  143.27900696    3.36999989    2.64000010
   16.07027817  141.34700012    3.46000004    2.66000009
   16.07361221  137.46499634    3.51999998    2.64000010
   16.07694626  136.31300354    3.55999994    2.64000010
   16.08000183  138.14100647    3.66000009    2.66000009
   16.08166695  135.47799683    3.72000003    2.64000010
   16.08361244  140.52600098    3.73000002    2.64000010
   16.08694458  131.24800110    3.72000003    2.64000010
   16.09000015  139.67799377    3.70000005    2.66000009
   16.09611130  139.67799377    3.70000005    2.64000010
   16.10027885  135.31199646    3.76999998    2.66000009
   16.10361099  133.78599548    3.82999992    2.64000010
   16.10666656  139.77900696    3.84999990    2.64000010
   16.11000061  139.61199951    3.78999996    2.66000009
   16.11333466  138.85200500    3.75000000    2.66000009
   16.11499977  142.51100159    3.73000002    2.64000010
   16.11694527  138.55700684    3.72000003    2.64000010
   16.12027740  141.58399963    3.72000003    2.66000009
   16.12333298  139.83599854    3.73000002    2.64000010
   16.12666702  139.30299377    3.72000003    2.66000009
   16.12972260  141.75100708    3.70000005    2.64000010
   16.13305473  136.63499451    3.64000010    2.66000009
   16.13888931  136.63499451    3.53999996    2.64000010
   16.14305496  134.89199829    3.51999998    2.64000010
   16.14638901  136.96400452    3.51999998    2.66000009
   16.14833260  127.59999847    3.51999998    2.66000009
   16.14999962  130.55900574    3.51999998    2.64000010
   16.15333366  129.83099365    3.53999996    2.64000010
   16.15638924  135.86099243    3.50000000    2.64000010
   16.15972137  140.27799988    3.45000005    2.66000009
   16.16305542  138.05799866    3.41000009    2.66000009
   16.16611099  143.89100647    3.41000009    2.66000009
   16.16944313  144.21899414    3.39000010    2.66000009
   16.17249870  143.42399597    3.32999992    2.66000009
   16.17583275  145.87100220    3.34999990    2.66000009
   16.18194389  145.87100220    3.39000010    2.64000010
   16.18610954  140.77299500    3.45000005    2.64000010
   16.18916512  139.22399902    3.48000002    2.64000010
   16.19249916  138.54499817    3.51999998    2.64000010
   16.19555473  141.95500183    3.53999996    2.64000010
   16.19888878  137.11000061    3.53999996    2.64000010
   16.20222282  143.52900696    3.46000004    2.64000010
   16.20527840  138.39599609    3.36999989    2.64000010
   16.20861244  136.92700195    3.34999990    2.64000010
   16.21194458  129.83900452    3.36999989    2.69000006
   16.21500015  134.17900085    3.36999989    2.66000009
   16.21555710  140.09700012    3.36999989    2.66000009
   16.21888924  134.91000366    3.32999992    2.66000009
   16.22472191  134.91000366    3.25000000    2.66000009
   16.22888947  135.83700562    3.16000009    2.64000010
   16.23194504  134.50700378    3.16000009    2.66000009
   16.23527718  138.36199951    3.14000010    2.66000009
   16.23861122  135.03399658    3.09999990    2.66000009
   16.24166679  140.69999695    3.03999996    2.66000009
   16.24500084  133.88600159    3.01999998    2.64000010
   16.24805641  135.02900696    3.00000000    2.66000009
   16.24861145  136.11199951    2.98000002    2.66000009
   16.25194359  137.71299744    2.96000004    2.66000009
   16.25499916  135.50599670    2.94000006    2.66000009
   16.25833321  143.36500549    2.93000007    2.67000008
   16.26166725  133.23300171    2.93000007    2.66000009
   16.26749992  133.23300171    2.91000009    2.66000009
   16.27166557  134.84100342    2.76999998    2.67000008
   16.27499962  138.76300049    2.71000004    2.66000009
   16.27805519  135.16200256    2.73000002    2.66000009
   16.28138924  139.51600647    2.76999998    2.67000008
   16.28194427  139.16099548    2.76999998    2.66000009
   16.28499985  137.37399292    2.75000000    2.67000008
   16.28833199  137.44400024    2.71000004    2.67000008
   16.29138756  134.02900696    2.69000006    2.66000009
   16.29472160  139.34700012    2.67000008    2.66000009
   16.29805565  135.30400085    2.64000010    2.66000009
   16.30111122  134.05400085    2.50000000    2.66000009
   16.30444336  133.40299988    2.44000006    2.66000009
   16.31027794  133.40299988    2.40000010    2.66000009
   16.31444359  131.99800110    2.36999989    2.67000008
   16.31527710  131.95199585    2.36999989    2.67000008
   16.31805611  138.99600220    2.42000008    2.66000009
   16.32139015  139.29100037    2.46000004    2.66000009
   16.32444572  142.96400452    2.50000000    2.67000008
   16.32777786  140.82800293    2.50000000    2.67000008
   16.33083344  140.51300049    2.55999994    2.67000008
   16.33416748  137.82099915    2.66000009    2.67000008
   16.33750153  143.68499756    2.69000006    2.67000008
   16.34055710  136.58099365    2.76999998    2.67000008
   16.34388924  139.76899719    2.82999992    2.66000009
   16.34722328  140.59399414    2.93000007    2.66000009
   16.34861183  138.69999695    2.93000007    2.66000009
   16.35333443  138.69999695    2.94000006    2.66000009
   16.35722351  133.36700439    2.93000007    2.66000009
   16.36055565  139.43899536    2.91000009    2.66000009
   16.36388969  143.54800415    3.00000000    2.66000009
   16.36694527  138.59300232    3.05999994    2.66000009
   16.37027740  138.91000366    3.05999994    2.66000009
   16.37361145  142.14700317    3.00000000    2.64000010
   16.37666702  137.80700684    3.01999998    2.64000010
   16.38000107  142.10200500    3.05999994    2.64000010
   16.38194466  141.90699768    3.09999990    2.61999989
   16.38361168  139.00500488    3.11999989    2.64000010
   16.38694382  134.43699646    3.11999989    2.64000010
   16.38999939  134.38000488    3.16000009    2.66000009
   16.39611053  134.38000488    3.20000005    2.66000009
   16.40027809  132.76400757    3.20000005    2.64000010
   16.40333366  132.93400574    3.18000007    2.61999989
   16.40666580  131.14900208    3.14000010    2.64000010
   16.40999985  137.03700256    3.16000009    2.64000010
   16.41305542  127.92299652    3.21000004    2.66000009
   16.41527748  136.69900513    3.26999998    2.64000010
   16.41666603  132.38600159    3.30999994    2.64000010
   16.42000008  136.88600159    3.46000004    2.66000009
   16.42305565  137.13800049    3.61999989    2.66000009
   16.42638779  136.95100403    3.75000000    2.64000010
   16.42944336  129.22799683    3.82999992    2.66000009
   16.43277740  132.67300415    3.91000009    2.64000010
   16.43888855  132.67300415    3.97000003    2.64000010
   16.44305420  136.22300720    4.00000000    2.61999989
   16.44638824  139.68200684    3.95000005    2.61999989
   16.44861031  141.38099670    3.91000009    2.64000010
   16.45000076  136.80599976    3.86999989    2.61999989
   16.45333481  137.97999573    3.76999998    2.64000010
   16.45639038  139.87399292    3.70000005    2.61999989
   16.45972252  144.75700378    3.55999994    2.61999989
   16.46277809  138.06399536    3.53999996    2.64000010
   16.46611214  139.40199280    3.57999992    2.64000010
   16.46944427  132.19799805    3.68000007    2.64000010
   16.47249985  136.88400269    3.78999996    2.64000010
   16.47583389  138.65199280    3.91000009    2.64000010
   16.48166656  138.65199280    4.26000023    2.64000010
   16.48583412  133.44099426    4.42999983    2.64000010
   16.48916626  132.07600403    4.63999987    2.64000010
   16.49222183  130.65100098    4.76000023    2.64000010
   16.49555588  131.84800720    4.82999992    2.64000010
   16.49888992  129.92399597    4.90999985    2.61999989
   16.50194359  137.20199585    4.90999985    2.64000010
   16.50527763  137.29200745    4.90999985    2.61999989
   16.50861168  140.14199829    4.90999985    2.64000010
   16.51166725  135.06500244    4.90999985    2.61999989
   16.51499939  131.14999390    4.90999985    2.61999989
   16.51666641  129.23699951    4.90999985    2.61999989
   16.51861000  131.30400085    4.90999985    2.61999989
   16.52472115  131.30400085    4.90999985    2.59999990
   16.52861023  141.65199280    4.90999985    2.59999990
   16.53194427  138.91600037    4.90999985    2.57999992
   16.53527641  142.80299377    4.90999985    2.55999994
   16.53861046  142.92500305    4.90999985    2.55999994
   16.54166603  144.24499512    4.90999985    2.55999994
   16.54500008  148.73500061    4.90999985    2.57999992
   16.54805565  141.93800354    4.90999985    2.53999996
   16.54999924  149.10000610    4.90999985    2.53999996
   16.55166626  139.37800598    4.90999985    2.53999996
   16.55499840  141.57800293    4.90999985    2.55999994
   16.55805397  137.40199280    4.90999985    2.57999992
   16.56138802  136.69099426    4.90999985    2.59999990
   16.56750107  136.69099426    4.90999985    2.57999992
   16.57166672  133.10299683    4.90999985    2.55999994
   16.57472229  138.82499695    4.90999985    2.53999996
   16.57805634  140.03799438    4.90999985    2.51999998
   16.58139038  135.75500488    4.90999985    2.53999996
   16.58361244  141.26100159    4.90999985    2.50000000
   16.58500099  140.75300598    4.90999985    2.51999998
   16.58805656  145.58599854    4.90999985    2.50000000
   16.59138870  154.85499573    4.90999985    2.50000000
   16.59472275  154.68299866    4.90999985    2.48000002
   16.59777832  146.78399658    4.90999985    2.48000002
   16.60111237  149.15299988    4.90999985    2.46000004
   16.60416794  156.95799255    4.90999985    2.44000006
   16.61027908  156.95799255    4.90999985    2.42000008
   16.61444473  159.07299805    4.90999985    2.44000006
   16.61694527  166.17900085    4.90999985    2.46000004
   16.61805534  165.78399658    4.90999985    2.44000006
   16.62111092  161.36000061    4.90999985    2.44000006
   16.62444496  164.89900208    4.90999985    2.44000006
   16.62777710  165.83299255    4.90999985    2.44000006
   16.63083267  171.07699585    4.90999985    2.40000010
   16.63416672  170.00500488    4.90999985    2.39000010
   16.63722229  169.07099915    4.90999985    2.36999989
   16.64055634  169.71099854    4.90999985    2.36999989
   16.64388847  171.08599854    4.90999985    2.39000010
   16.64694405  158.35200500    4.90999985    2.36999989
   16.65305519  158.35200500    4.90999985    2.40000010
   16.65722275  148.90400696    4.90999985    2.40000010
   16.66055489  157.74200439    4.90999985    2.39000010
   16.66361046  169.13900757    4.90999985    2.36999989
   16.66694450  155.52999878    4.90999985    2.39000010
   16.67027664  156.09700012    4.90999985    2.42000008
   16.67333221  161.42900085    4.90999985    2.40000010
   16.67666626  178.76899719    4.90999985    2.39000010
   16.68000031  169.83700562    4.90999985    2.34999990
   16.68305397  173.32400513    4.90999985    2.36999989
   16.68416595  178.82800293    4.90999985    2.34999990
   16.68666649  166.84899902    4.90999985    2.34999990
   16.68999863  180.36700439    4.90999985    2.34999990
   16.69610977  180.36700439    4.90999985    2.30999994
   16.70000076  197.08399963    4.90999985    2.28999996
   16.70333481  194.13099670    4.90999985    2.26999998
   16.70666695  181.75399780    4.90999985    2.26999998
   16.71000099  175.93400574    4.90999985    2.30999994
   16.71305656  180.65899658    4.90999985    2.32999992
   16.71638870  186.84800720    4.90999985    2.30999994
   16.71750069  175.11199951    4.90999985    2.28999996
   16.72000122  176.38800049    4.90999985    2.30999994
   16.72333336  169.35000610    4.90999985    2.36999989
   16.72666740  158.35400391    4.90999985    2.42000008
   16.72972298  176.64900208    4.90999985    2.44000006
   16.73305511  171.08999634    4.90999985    2.39000010
   16.73888969  171.08999634    4.90999985    2.40000010
   16.74305534  161.39900208    4.90999985    2.42000008
   16.74611092  167.44599915    4.90999985    2.42000008
   16.74944496  177.00100708    4.90999985    2.40000010
   16.75083351  164.64900208    4.90999985    2.42000008
   16.75305557  167.94700623    4.90999985    2.40000010
   16.75638962  158.77499390    4.90999985    2.40000010
   16.75944519  161.44700623    4.90999985    2.40000010
   16.76277733  171.03900146    4.90999985    2.40000010
   16.76583290  169.60600281    4.90999985    2.39000010
   16.76916695  170.55499268    4.90999985    2.39000010
   16.77249908  165.67599487    4.90999985    2.39000010
   16.77555466  178.64999390    4.90999985    2.39000010
   16.78166580  178.64999390    4.90999985    2.39000010
   16.79999924  168.25399780    4.90999985    2.40000010
   16.80333328  168.75599670    4.90999985    2.40000010
   16.80666542  158.02499390    4.90999985    2.44000006
   16.80972099  154.76499939    4.90999985    2.42000008
   16.81305504  169.51699829    4.90999985    2.44000006
   16.81611061  161.07899475    4.90999985    2.42000008
   16.81944466  164.88000488    4.90999985    2.42000008
   16.82472229  164.88000488    4.90999985    2.44000006
   16.82888985  159.02999878    4.90999985    2.44000006
   16.83222389  162.46000671    4.90999985    2.46000004
   16.83305550  161.72599792    4.90999985    2.46000004
   16.83583450  166.55700684    4.90999985    2.42000008
   16.83889008  161.94200134    4.90999985    2.42000008
   16.84222221  162.58399963    4.90999985    2.40000010
   16.84555626  158.63099670    4.90999985    2.44000006
   16.84861183  159.71699524    4.90999985    2.46000004
   16.85194397  154.77600098    4.90999985    2.46000004
   16.85527802  156.88000488    4.90999985    2.48000002
   16.85833359  149.08599854    4.90999985    2.50000000
   16.86166763  154.87100220    4.90999985    2.50000000
   16.86750031  154.87100220    4.90999985    2.48000002
   16.87166595  157.24800110    4.90999985    2.46000004
   16.87500000  158.08099365    4.90999985    2.44000006
   16.87805557  156.48699951    4.90999985    2.44000006
   16.88138962  159.23899841    4.90999985    2.40000010
   16.88472176  163.58599854    4.90999985    2.40000010
   16.88777733  160.18600464    4.90999985    2.40000010
   16.89111137  159.21000671    4.90999985    2.40000010
   16.89444351  156.07400513    4.90999985    2.42000008
   16.89749908  168.40400696    4.90999985    2.42000008
   16.89972115  167.81599426    4.90999985    2.42000008
   16.90111160  160.39500427    4.90999985    2.42000008
   16.90416718  157.33500671    4.90999985    2.42000008
   16.91055489  157.33500671    4.90999985    2.46000004
   16.91444397  156.50999451    4.90999985    2.48000002
   16.91777802  155.40100098    4.90999985    2.46000004
   16.92111015  173.67300415    4.90999985    2.44000006
   16.92416573  168.11700439    4.90999985    2.48000002
   16.92749977  165.55900574    4.90999985    2.50000000
   16.93083191  167.80499268    4.90999985    2.44000006
   16.93305397  169.53900146    4.90999985    2.42000008
   16.93444443  185.87899780    4.90999985    2.40000010
   16.93750000  179.73500061    4.90999985    2.39000010
   16.94083214  195.66900635    4.90999985    2.39000010
   16.94416618  184.73699951    4.90999985    2.39000010
   16.94722176  193.74499512    4.90999985    2.40000010
   16.95333481  193.74499512    4.90999985    2.39000010
   16.95750046  197.44099426    4.90999985    2.34999990
   16.96055603  199.94400024    4.90999985    2.34999990
   16.96389008  223.07200623    4.90999985    2.36999989
   16.96638870  220.68800354    4.90999985    2.34999990
   16.96750069  200.86799622    4.90999985    2.32999992
   16.97083473  214.79299927    4.90999985    2.32999992
   16.97389030  218.17799377    4.90999985    2.32999992
   16.97722244  226.47500610    4.90999985    2.30999994
   16.98055649  218.91000366    4.90999985    2.30999994
   16.98361206  217.43200684    4.90999985    2.32999992
   16.98694420  204.90699768    4.90999985    2.34999990
   16.98999977  212.31700134    4.90999985    2.32999992
   16.99611092  212.31700134    4.90999985    2.32999992
   17.00027847  236.52999878    4.90999985    2.32999992
   17.00361061  220.80299377    4.90999985    2.26999998
   17.00666618  242.06799316    4.90999985    2.17000008
   17.01000023  244.13000488    4.90999985    2.15000010
   17.01305580  310.20901489    4.90999985    2.09999990
   17.01638794  274.40600586    4.90999985    2.11999989
   17.01972198  223.08999634    4.90999985    2.15000010
   17.02277756  291.55999756    4.90999985    2.15000010
   17.02611160  258.76199341    4.90999985    2.19000006
   17.02944374  212.50100708    4.90999985    2.19000006
   17.03249931  253.54699707    4.90999985    2.19000006
   17.03305435  245.27499390    4.90999985    2.17000008
   17.03888893  245.27499390    4.90999985    2.21000004
   17.04305458  182.13699341    4.90999985    2.26999998
   17.04638863  195.97099304    4.90999985    2.30999994
   17.04944420  182.89399719    4.90999985    2.34999990
   17.05277634  191.18899536    4.90999985    2.36999989
   17.05611038  209.63400269    4.90999985    2.36999989
   17.05916595  197.58500671    4.90999985    2.34999990
   17.06250000  205.92199707    4.90999985    2.34999990
   17.06583214  187.88900757    4.90999985    2.36999989
   17.06638718  186.05000305    4.90999985    2.36999989
   17.06944466  241.16499329    4.90999985    2.39000010
   17.07277870  160.07600403    4.90999985    2.42000008
   17.07583427  182.76199341    4.90999985    2.42000008
   17.08166695  182.76199341    4.90999985    2.42000008
   17.08583450  184.25000000    4.90999985    2.40000010
   17.08916664  182.39100647    4.90999985    2.42000008
   17.09250069  191.42999268    4.90999985    2.40000010
   17.09555626  182.84300232    4.90999985    2.44000006
   17.09889030  176.55200195    4.90999985    2.44000006
   17.09972191  189.46200562    4.90999985    2.44000006
   17.10250092  181.08500671    4.90999985    2.44000006
   17.10583305  157.30799866    4.90999985    2.48000002
   17.10888863  174.23699951    4.90999985    2.48000002
   17.11222267  160.76300049    4.90999985    2.50000000
   17.11527824  160.00700378    4.90999985    2.51999998
   17.11861038  169.31399536    4.90999985    2.46000004
   17.12472153  169.31399536    4.90999985    2.44000006
   17.12888908  187.36399841    4.90999985    2.39000010
   17.13194466  177.02200317    4.90999985    2.32999992
   17.13305473  201.73100281    4.90999985    2.34999990
   17.13555527  190.90899658    4.90999985    2.34999990
   17.13888931  198.87899780    4.90999985    2.30999994
   17.14194489  209.96400452    4.90999985    2.30999994
   17.14527702  209.69200134    4.90999985    2.26999998
   17.14833260  205.47200012    4.90999985    2.32999992
   17.15166664  192.58599854    4.90999985    2.28999996
   17.15499878  202.67799377    4.90999985    2.26999998
   17.15805435  193.61999512    4.90999985    2.30999994
   17.16138840  185.35899353    4.90999985    2.42000008
   17.16749954  185.35899353    4.90999985    2.44000006
   17.17166519  156.95100403    4.90999985    2.48000002
   17.17499924  158.16900635    4.90999985    2.50000000
   17.17805481  165.03999329    4.90999985    2.48000002
   17.18138885  167.92300415    4.90999985    2.50000000
   17.18444443  151.12399292    4.90999985    2.46000004
   17.18777657  188.72900391    4.90999985    2.39000010
   17.19111061  175.77200317    4.90999985    2.34999990
   17.19416618  173.61900330    4.90999985    2.39000010
   17.19749832  169.59599304    4.90999985    2.44000006
   17.19972038  161.28199768    4.90999985    2.46000004
   17.20111275  154.20899963    4.90999985    2.50000000
   17.20444489  154.91099548    4.90999985    2.51999998
   17.21027946  154.91099548    4.90999985    2.53999996
   17.21444511  158.82400513    4.90999985    2.50000000
   17.21777916  150.02499390    4.90999985    2.44000006
   17.22083473  154.53399658    4.90999985    2.46000004
   17.22416687  157.94799805    4.90999985    2.46000004
   17.22750092  162.97799683    4.90999985    2.44000006
   17.23055649  158.67300415    4.90999985    2.46000004
   17.23305511  152.52499390    4.90999985    2.48000002
   17.23416710  163.30200195    4.90999985    2.48000002
   17.23750114  158.72099304    4.90999985    2.50000000
   17.24055672  150.29800415    4.90999985    2.53999996
   17.24388885  146.86999512    4.90999985    2.53999996
   17.24694443  156.62600708    4.90999985    2.53999996
   17.25305557  156.62600708    4.90999985    2.53999996
   17.25722313  154.23599243    4.90999985    2.55999994
   17.26055527  162.76100159    4.90999985    2.57999992
   17.26388931  156.27499390    4.90999985    2.55999994
   17.26638794  162.94799805    4.90999985    2.53999996
   17.26749992  166.72700500    4.90999985    2.53999996
   17.27055550  155.35600281    4.90999985    2.53999996
   17.27388954  166.71299744    4.90999985    2.50000000
   17.27722168  160.01699829    4.90999985    2.53999996
   17.28027725  170.96099854    4.90999985    2.53999996
   17.28361130  172.58099365    4.90999985    2.53999996
   17.28694344  168.66099548    4.90999985    2.51999998
   17.28999901  166.35699463    4.90999985    2.48000002
   17.29611015  166.35699463    4.90999985    2.51999998
   17.29999924  156.72900391    4.90999985    2.55999994
   17.30333328  148.17199707    4.90999985    2.57999992
   17.30666542  148.46800232    4.90999985    2.55999994
   17.30972099  154.97700500    4.90999985    2.51999998
   17.31305504  164.52400208    4.90999985    2.50000000
   17.31638718  187.98199463    4.90999985    2.44000006
   17.31944466  143.36700439    4.90999985    2.44000006
   17.32277870  159.04200745    4.90999985    2.42000008
   17.32583427  164.05900574    4.90999985    2.39000010
   17.32916832  166.19700623    4.90999985    2.39000010
   17.33250046  173.48899841    4.90999985    2.42000008
   17.33305550  158.72599792    4.90999985    2.42000008
   17.33889008  158.72599792    4.90999985    2.40000010
   17.34305573  155.50500488    4.90999985    2.46000004
   17.34611130  155.31199646    4.90999985    2.46000004
   17.34944534  151.94799805    4.90999985    2.46000004
   17.35277748  148.68800354    4.90999985    2.48000002
   17.35583305  150.80299377    4.90999985    2.50000000
   17.35916710  135.16499329    4.90999985    2.53999996
   17.36222267  147.63400269    4.90999985    2.53999996
   17.36555672  165.32899475    4.90999985    2.50000000
   17.36638832  156.50300598    4.90999985    2.50000000
   17.36916733  163.29600525    4.90999985    2.50000000
   17.37249947  149.13900757    4.90999985    2.44000006
   17.37555504  195.57200623    4.90999985    2.28999996
   17.38166618  195.57200623    4.90999985    2.46000004
   17.38583374  169.33500671    4.90999985    2.51999998
   17.38916588  155.24499512    4.90999985    2.48000002
   17.39222145  170.33799744    4.90999985    2.40000010
   17.39555550  191.67599487    4.90999985    2.30999994
   17.39888954  195.93200684    4.90999985    2.30999994
   17.39972115  214.77299500    4.90999985    2.30999994
   17.40250015  191.33000183    4.90999985    2.25000000
   17.40583229  235.74400330    4.90999985    2.13000011
   17.40888786  233.72500610    4.90999985    2.15000010
   17.41222191  196.92500305    4.90999985    2.23000002
   17.41527748  233.70300293    4.90999985    2.25000000
   17.41860962  195.70500183    4.90999985    2.21000004
   17.42444420  195.70500183    4.90999985    2.28999996
   17.42860985  171.48800659    4.90999985    2.32999992
   17.43194389  192.38299561    4.90999985    2.30999994
   17.43305397  166.47799683    4.90999985    2.32999992
   17.43555450  165.10400391    4.90999985    2.34999990
   17.43888855  177.42900085    4.90999985    2.36999989
   17.44194412  178.30999756    4.90999985    2.34999990
   17.44527626  178.10699463    4.90999985    2.34999990
   17.44833183  198.75100708    4.90999985    2.30999994
   17.45166779  177.63099670    4.90999985    2.28999996
   17.45499992  212.34899902    4.90999985    2.21000004
   17.45805550  160.36199951    4.90999985    2.23000002
   17.46138954  171.85800171    4.90999985    2.30999994
   17.46750069  171.85800171    4.90999985    2.39000010
   17.47166634  166.89199829    4.90999985    2.40000010
   17.47472191  150.77799988    4.90999985    2.40000010
   17.47805595  165.38400269    4.90999985    2.39000010
   17.48111153  160.62800598    4.90999985    2.34999990
   17.48444557  164.85299683    4.90999985    2.40000010
   17.48777771  163.94700623    4.90999985    2.42000008
   17.49083328  154.74800110    4.90999985    2.44000006
   17.49416733  165.20399475    4.90999985    2.40000010
   17.49749947  169.75999451    4.90999985    2.39000010
   17.49972153  168.58000183    4.90999985    2.40000010
   17.50111198  161.13699341    4.90999985    2.42000008
   17.50444412  153.28100586    4.90999985    2.48000002
   17.51027870  153.28100586    4.90999985    2.53999996
   17.51444435  159.12899780    4.90999985    2.53999996
   17.51749992  149.90299988    4.90999985    2.50000000
   17.52083397  160.95399475    4.90999985    2.48000002
   17.52416611  148.21499634    4.90999985    2.50000000
   17.52722168  151.79200745    4.90999985    2.46000004
   17.53055573  155.72999573    4.90999985    2.40000010
   17.53305435  166.72000122    4.90999985    2.39000010
   17.53416634  160.68899536    4.90999985    2.39000010
   17.53750038  140.47999573    4.90999985    2.42000008
   17.54055595  152.02999878    4.90999985    2.42000008
   17.54388809  144.77400208    4.90999985    2.48000002
   17.54694366  148.25999451    4.90999985    2.48000002
   17.55305481  148.25999451    4.90999985    2.34999990
   17.55722237  158.21000671    4.90999985    2.39000010
   17.56055450  161.73399353    4.90999985    2.34999990
   17.56361008  156.38200378    4.90999985    2.34999990
   17.56638718  155.97000122    4.90999985    2.40000010
   17.56722260  161.56399536    4.90999985    2.40000010
   17.57055664  153.27499390    4.90999985    2.44000006
   17.57361221  153.78100586    4.90999985    2.46000004
   17.57694626  152.77000427    4.90999985    2.46000004
   17.58000183  153.96400452    4.90999985    2.50000000
   17.58333397  140.07000732    4.90999985    2.50000000
   17.58666801  144.12600708    4.90999985    2.50000000
   17.58972359  144.66999817    4.90999985    2.50000000
   17.59583473  144.66999817    4.90999985    2.51999998
   17.60000038  142.15499878    4.90999985    2.53999996
   17.60333443  139.87600708    4.90999985    2.53999996
   17.60666656  144.51899719    4.90999985    2.51999998
   17.60972214  132.63699341    4.90999985    2.53999996
   17.61305618  143.64199829    4.90999985    2.53999996
   17.61611176  147.15800476    4.90999985    2.53999996
   17.61944389  137.19599915    4.90999985    2.53999996
   17.62277794  139.77400208    4.90999985    2.51999998
   17.62583351  142.13900757    4.90999985    2.55999994
   17.62916756  138.13600159    4.90999985    2.51999998
   17.63249969  139.30400085    4.90999985    2.50000000
   17.63305473  148.97900391    4.90999985    2.50000000
   17.63888931  148.97900391    4.90999985    2.48000002
   17.64305496  212.79400635    4.90999985    2.53999996
   17.64611053  130.93899536    4.90999985    2.57999992
   17.64944458  144.35499573    4.90999985    2.57999992
   17.65250015  137.42799377    4.90999985    2.57999992
   17.65583229  132.98599243    4.90999985    2.57999992
   17.65916634  137.36999512    4.90999985    2.59999990
   17.66250038  144.65100098    4.90999985    2.59999990
   17.66555595  140.43099976    4.90999985    2.61999989
   17.66638756  136.45700073    4.90999985    2.61999989
   17.66916656  135.60099792    4.90999985    2.61999989
   17.67249870  142.98100281    4.90999985    2.61999989
   17.67555428  138.51899719    4.90999985    2.61999989
   17.68166542  138.51899719    4.90999985    2.61999989
   17.68583298  127.38700104    4.90999985    2.64000010
   17.68888855  128.73399353    4.90999985    2.61999989
   17.69222069  132.02400208    4.90999985    2.64000010
   17.69555473  134.44999695    4.90999985    2.64000010
   17.69861031  132.29200745    4.90999985    2.64000010
   17.69972038  134.68699646    4.90999985    2.64000010
   17.70222282  125.77400208    4.90999985    2.64000010
   17.70555687  139.27900696    4.90999985    2.64000010
   17.70861244  130.32099915    4.90999985    2.64000010
   17.71194458  134.27900696    4.90999985    2.61999989
   17.71527863  130.12100220    4.90999985    2.61999989
   17.71833420  130.34800720    4.90999985    2.66000009
   17.72444534  130.34800720    4.90999985    2.64000010
   17.72861099  128.88099670    4.90999985    2.66000009
   17.73194504  131.36300659    4.90999985    2.64000010
   17.73305511  137.21600342    4.90999985    2.64000010
   17.73555565  135.25599670    4.90999985    2.64000010
   17.73888969  134.64599609    4.90999985    2.64000010
   17.74194527  139.78100586    4.90999985    2.66000009
   17.74527740  128.84599304    4.90999985    2.67000008
   17.74861145  125.41899872    4.90999985    2.67000008
   17.75166702  143.72799683    4.90999985    2.61999989
   17.75499916  145.63200378    4.90999985    2.55999994
   17.75805473  155.46600342    4.90999985    2.51999998
   17.76138878  150.84199524    4.90999985    2.46000004
   17.76722145  150.84199524    4.90999985    2.44000006
   17.77138901  145.85000610    4.90999985    2.39000010
   17.77472115  146.95700073    4.90999985    2.40000010
   17.77805519  146.00000000    4.90999985    2.46000004
   17.78111076  155.62699890    4.90999985    2.46000004
   17.78444481  152.27799988    4.90999985    2.44000006
   17.78750038  147.71000671    4.90999985    2.51999998
   17.79083252  143.76800537    4.90999985    2.50000000
   17.79416656  142.76499939    4.90999985    2.48000002
   17.79722214  141.80400085    4.90999985    2.51999998
   17.79972076  144.12699890    4.90999985    2.55999994
   17.82055664  144.12699890    4.90999985    2.53999996
   17.82444572  136.42300415    4.90999985    2.53999996
   17.82777786  146.06199646    4.90999985    2.53999996
   17.83111191  139.90100098    4.90999985    2.55999994
   17.83305550  142.03999329    4.90999985    2.55999994
   17.83472252  137.41799927    4.90999985    2.55999994
   17.83805656  141.86500549    4.90999985    2.57999992
   17.84138870  146.25999451    4.90999985    2.57999992
   17.84444427  155.82000732    4.90999985    2.55999994
   17.84777832  138.36000061    4.90999985    2.55999994
   17.85111237  139.79200745    4.90999985    2.57999992
   17.85416794  146.66200256    4.90999985    2.57999992
   17.85750008  150.08099365    4.90999985    2.53999996
   17.86305618  150.08099365    4.90999985    2.53999996
   17.86722183  137.50500488    4.90999985    2.55999994
   17.87055588  140.86799622    4.90999985    2.55999994
   17.87388992  137.33099365    4.90999985    2.53999996
   17.87694550  138.42900085    4.90999985    2.55999994
   17.88027763  138.24400330    4.90999985    2.53999996
   17.88333321  129.50799561    4.90999985    2.55999994
   17.88666725  139.01300049    4.90999985    2.57999992
   17.88999939  126.30999756    4.90999985    2.57999992
   17.89305496  126.47399902    4.90999985    2.61999989
   17.89638901  130.28100586    4.90999985    2.59999990
   17.89972115  131.74600220    4.90999985    2.57999992
   17.89999962  137.49800110    4.90999985    2.57999992
   17.90611076  137.49800110    4.90999985    2.53999996
   17.91027832  138.82200623    4.90999985    2.53999996
   17.91333389  122.46399689    4.90999985    2.55999994
   17.91666603  149.29699707    4.90999985    2.53999996
   17.91972160  136.79200745    4.90999985    2.55999994
   17.92305565  135.83799744    4.90999985    2.55999994
   17.92638779  139.83200073    4.90999985    2.57999992
   17.92944336  138.59100342    4.90999985    2.57999992
   17.93277740  145.67399597    4.90999985    2.57999992
   17.93333244  136.94500732    4.90999985    2.57999992
   17.93638802  138.80200195    4.90999985    2.57999992
   17.93972206  147.08000183    4.90999985    2.57999992
   17.94277763  141.45100403    4.90999985    2.57999992
   17.94888878  141.45100403    4.90999985    2.59999990
   17.95305634  134.17199707    4.90999985    2.61999989
   17.95611191  136.83399963    4.90999985    2.61999989
   17.95944595  137.78199768    4.90999985    2.61999989
   17.96277809  137.42399597    4.90999985    2.61999989
   17.96583366  129.98100281    4.90999985    2.61999989
   17.96666718  129.35499573    4.90999985    2.61999989
   17.96944427  135.34800720    4.90999985    2.64000010
   17.97277832  130.59500122    4.90999985    2.61999989
   17.97583389  135.62100220    4.90999985    2.61999989
   17.97916794  131.90699768    4.90999985    2.59999990
   17.98222351  130.55000305    4.90999985    2.59999990
   17.98555565  133.80599976    4.90999985    2.61999989
   17.99166679  133.80599976    4.90999985    2.59999990
   17.99583435  131.96099854    4.90999985    2.61999989
   17.99916649  139.71299744    4.90999985    2.57999992
   18.00000000  132.41000366    4.90999985    2.57999992
   18.00277710  128.18800354    4.90999985    2.57999992
   18.00611115  137.34700012    4.90999985    2.57999992
   18.00916672  136.89500427    4.90999985    2.53999996
   18.01250076  128.52900696    4.90999985    2.55999994
   18.01583290  129.52000427    4.90999985    2.55999994
   18.01888847  135.95300293    4.90999985    2.53999996
   18.02222252  126.30200195    4.90999985    2.59999990
   18.02527809  130.55000305    4.90999985    2.59999990
   18.02861023  130.26400757    4.90999985    2.61999989
   18.03444481  130.26400757    4.90999985    2.61999989
   18.03861046  134.58200073    4.90999985    2.64000010
   18.04194450  129.60000610    4.90999985    2.61999989
   18.04527664  137.48199463    4.90999985    2.61999989
   18.04833221  136.46200562    4.90999985    2.59999990
   18.05166626  137.95899963    4.90999985    2.55999994
   18.05472183  130.49400330    4.90999985    2.53999996
   18.05805397  140.71299744    4.90999985    2.55999994
   18.06138802  129.19900513    4.90999985    2.57999992
   18.06444359  143.60699463    4.90999985    2.57999992
   18.06666756  132.68400574    4.90999985    2.55999994
   18.06805611  132.75300598    4.90999985    2.57999992
   18.07139015  138.06399536    4.90999985    2.55999994
   18.07750130  138.06399536    4.90999985    2.57999992
   18.08166695  136.92999268    4.90999985    2.50000000
   18.08472252  143.64599609    4.90999985    2.46000004
   18.08805656  152.37600708    4.90999985    2.48000002
   18.09111214  143.04600525    4.90999985    2.50000000
   18.09444427  148.44799805    4.90999985    2.50000000
   18.09777832  143.54600525    4.90999985    2.50000000
   18.10000038  143.81900024    4.90999985    2.50000000
   18.10138893  153.38999939    4.90999985    2.50000000
   18.10472298  145.78500366    4.90999985    2.48000002
   18.10777855  145.41999817    4.90999985    2.46000004
   18.11111069  147.73599243    4.90999985    2.46000004
   18.11444473  148.57000732    4.90999985    2.46000004
   18.12027740  148.57000732    4.90999985    2.46000004
   18.12444496  146.65499878    4.90999985    2.42000008
   18.12750053  142.48399353    4.90999985    2.42000008
   18.13083267  159.80099487    4.90999985    2.39000010
   18.13333321  171.90699768    4.90999985    2.26999998
   18.13444519  174.21899414    4.90999985    2.26999998
   18.13777733  154.94700623    4.90999985    2.28999996
   18.14083290  199.19000244    4.90999985    2.26999998
   18.14416695  185.50399780    4.90999985    2.19000006
   18.14749908  201.51100159    4.90999985    2.19000006
   18.15055466  185.57600403    4.90999985    2.21000004
   18.15388870  192.28300476    4.90999985    2.26999998
   18.15694427  216.07699585    4.90999985    2.26999998
   18.16305542  216.07699585    4.90999985    2.23000002
   18.16722107  189.82299805    4.90999985    2.25000000
   18.17055511  190.54899597    4.90999985    2.28999996
   18.17361069  165.69200134    4.90999985    2.32999992
   18.17694473  151.10699463    4.90999985    2.32999992
   18.18027687  172.74000549    4.90999985    2.30999994
   18.18333244  151.82200623    4.90999985    2.39000010
   18.18666649  158.50399780    4.90999985    2.44000006
   18.18972206  142.23800659    4.90999985    2.44000006
   18.19305420  146.55099487    4.90999985    2.46000004
   18.19638824  150.65499878    4.90999985    2.46000004
   18.19944382  150.42900085    4.90999985    2.48000002
   18.20027924  152.80599976    4.90999985    2.48000002
   18.20583344  152.80599976    4.90999985    2.46000004
   18.21000099  144.41999817    4.90999985    2.48000002
   18.21333504  154.67700195    4.90999985    2.46000004
   18.21666718  153.80999756    4.90999985    2.36999989
   18.21972275  142.54800415    4.90999985    2.40000010
   18.22305679  150.70399475    4.90999985    2.39000010
   18.22611237  161.85200500    4.90999985    2.32999992
   18.22944450  163.51199341    4.90999985    2.26999998
   18.23277855  160.72200012    4.90999985    2.32999992
   18.23333359  161.11399841    4.90999985    2.32999992
   18.23611069  140.78100586    4.90999985    2.42000008
   18.23944473  147.99699402    4.90999985    2.44000006
   18.24250031  144.07600403    4.90999985    2.44000006
   18.24888992  144.07600403    4.90999985    2.46000004
   18.25305557  148.30799866    4.90999985    2.42000008
   18.25611115  148.14500427    4.90999985    2.44000006
   18.25944519  143.52999878    4.90999985    2.42000008
   18.26250076  143.31900024    4.90999985    2.40000010
   18.26583290  152.71400452    4.90999985    2.39000010
   18.26694489  148.30700684    4.90999985    2.36999989
   18.26944351  154.70500183    4.90999985    2.34999990
   18.27277756  152.25300598    4.90999985    2.39000010
   18.27583313  138.41700745    4.90999985    2.42000008
   18.27916718  139.81900024    4.90999985    2.50000000
   18.28249931  137.75900269    4.90999985    2.51999998
   18.28555489  134.66000366    4.90999985    2.53999996
   18.29166603  134.66000366    4.90999985    2.57999992
   18.29583359  131.19799805    4.90999985    2.57999992
   18.29888916  133.40800476    4.90999985    2.57999992
   18.30027771  126.96399689    4.90999985    2.57999992
   18.30249977  128.89799500    4.90999985    2.57999992
   18.30583191  139.95399475    4.90999985    2.57999992
   18.30888748  133.91700745    4.90999985    2.57999992
   18.31222153  129.52200317    4.90999985    2.57999992
   18.31555557  132.85000610    4.90999985    2.57999992
   18.31861115  126.82299805    4.90999985    2.57999992
   18.32194519  122.25000000    4.90999985    2.55999994
   18.32527924  133.01499939    4.90999985    2.53999996
   18.32833481  130.15400696    4.90999985    2.51999998
   18.33444595  130.15400696    4.90999985    2.53999996
   18.33861160  124.91799927    4.90999985    2.53999996
   18.34194565  120.65799713    4.90999985    2.53999996
   18.34500122  138.09399414    4.90999985    2.51999998
   18.34833336  138.11399841    4.90999985    2.51999998
   18.35166740  137.05400085    4.90999985    2.53999996
   18.35472298  132.45700073    4.90999985    2.55999994
   18.35805511  135.75999451    4.90999985    2.55999994
   18.36111069  134.56500244    4.90999985    2.53999996
   18.36444473  139.30999756    4.90999985    2.48000002
   18.36694527  131.69700623    4.90999985    2.48000002
   18.36805534  140.24499512    4.90999985    2.46000004
   18.37138939  148.95500183    4.90999985    2.46000004
   18.37722206  148.95500183    4.90999985    2.44000006
   18.38138962  136.00399780    4.90999985    2.44000006
   18.38472176  141.20799255    4.90999985    2.40000010
   18.38805580  146.29499817    4.90999985    2.40000010
   18.39111137  142.73599243    4.90999985    2.39000010
   18.39444351  128.37699890    4.90999985    2.42000008
   18.39749908  141.37800598    4.90999985    2.42000008
   18.40027809  146.42599487    4.90999985    2.44000006
   18.40111160  127.73200226    4.90999985    2.44000006
   18.40444374  143.00100708    4.90999985    2.44000006
   18.40749931  143.36799622    4.90999985    2.46000004
   18.41083336  149.88999939    4.90999985    2.46000004
   18.41416550  136.01699829    4.90999985    2.46000004
   18.42027664  136.01699829    4.90999985    2.48000002
   18.42444420  135.13800049    4.90999985    2.51999998
   18.42749977  134.07000732    4.90999985    2.53999996
   18.43083191  136.36199951    4.90999985    2.50000000
   18.43361092  132.88699341    4.90999985    2.50000000
   18.43444443  142.92999268    4.90999985    2.50000000
   18.43777657  140.24400330    4.90999985    2.50000000
   18.44083214  132.87600708    4.90999985    2.51999998
   18.44416618  144.39500427    4.90999985    2.50000000
   18.44749832  136.05599976    4.90999985    2.46000004
   18.45055580  135.91600037    4.90999985    2.46000004
   18.45388985  140.94500732    4.90999985    2.46000004
   18.45722389  141.13099670    4.90999985    2.48000002
   18.46305656  141.13099670    4.90999985    2.46000004
   18.46722221  137.50000000    4.90999985    2.48000002
   18.47027779  131.95700073    4.90999985    2.48000002
   18.47361183  130.41700745    4.90999985    2.50000000
   18.47694588  141.80299377    4.90999985    2.50000000
   18.48000145  131.78999329    4.90999985    2.50000000
   18.48333359  130.25300598    4.90999985    2.51999998
   18.48666763  130.67700195    4.90999985    2.50000000
   18.48972321  131.76800537    4.90999985    2.51999998
   18.49305534  129.35499573    4.90999985    2.51999998
   18.49611092  127.48799896    4.90999985    2.53999996
   18.49944496  133.30400085    4.90999985    2.51999998
   18.50027847  133.45100403    4.90999985    2.53999996
   18.50583267  133.45100403    4.90999985    2.53999996
   18.51000023  126.73500061    4.90999985    2.53999996
   18.51333427  134.91700745    4.90999985    2.51999998
   18.51638794  139.85200500    4.90999985    2.51999998
   18.51972198  133.84100342    4.90999985    2.53999996
   18.52305603  125.24700165    4.90999985    2.55999994
   18.52611160  132.23899841    4.90999985    2.55999994
   18.52944374  132.85800171    4.90999985    2.57999992
   18.53277779  133.57600403    4.90999985    2.57999992
   18.53361130  134.29400635    4.90999985    2.57999992
   18.53610992  136.00900269    4.90999985    2.55999994
   18.53944397  132.52099609    4.90999985    2.55999994
   18.54277802  130.92599487    4.90999985    2.55999994
   18.54861069  130.92599487    4.90999985    2.57999992
   18.55277634  126.88500214    4.90999985    2.55999994
   18.55611038  129.46400452    4.90999985    2.55999994
   18.55944443  125.13700104    4.90999985    2.55999994
   18.56250000  123.68800354    4.90999985    2.55999994
   18.56583214  134.70100403    4.90999985    2.53999996
   18.56694603  125.57399750    4.90999985    2.53999996
   18.56916809  125.01200104    4.90999985    2.55999994
   18.57250023  125.85399628    4.90999985    2.55999994
   18.57583427  132.69400024    4.90999985    2.55999994
   18.57888985  125.76100159    4.90999985    2.55999994
   18.58222389  128.28300476    4.90999985    2.55999994
   18.58527756  130.61099243    4.90999985    2.53999996
   18.59166718  130.61099243    4.90999985    2.55999994
   18.59583473  131.97999573    4.90999985    2.55999994
   18.59889030  131.38999939    4.90999985    2.53999996
   18.60027885  134.96800232    4.90999985    2.55999994
   18.60250092  125.45999908    4.90999985    2.53999996
   18.60583305  134.88499451    4.90999985    2.55999994
   18.60916710  125.13999939    4.90999985    2.53999996
   18.61222267  129.71400452    4.90999985    2.53999996
   18.61555672  128.86599731    4.90999985    2.53999996
   18.61888885  128.04200745    4.90999985    2.51999998
   18.62194443  133.98399353    4.90999985    2.53999996
   18.62527847  136.55000305    4.90999985    2.53999996
   18.62861061  132.77699280    4.90999985    2.53999996
   18.63444519  132.77699280    4.90999985    2.50000000
   18.63861084  134.14900208    4.90999985    2.51999998
   18.64166641  130.15400696    4.90999985    2.51999998
   18.64500046  127.97599792    4.90999985    2.53999996
   18.64833260  130.39399719    4.90999985    2.51999998
   18.65138817  128.36099243    4.90999985    2.51999998
   18.65472221  142.50900269    4.90999985    2.51999998
   18.65805435  132.37800598    4.90999985    2.51999998
   18.66110992  126.53500366    4.90999985    2.51999998
   18.66444397  133.76300049    4.90999985    2.51999998
   18.66694450  132.16999817    4.90999985    2.50000000
   18.66777802  131.66999817    4.90999985    2.51999998
   18.67111015  132.28900146    4.90999985    2.51999998
   18.67722130  132.28900146    4.90999985    2.53999996
   18.68138885  124.46299744    4.90999985    2.53999996
   18.68472099  125.77600098    4.90999985    2.53999996
   18.68805504  138.03599548    4.90999985    2.50000000
   18.69111061  131.19999695    4.90999985    2.50000000
   18.69444275  132.53500366    4.90999985    2.50000000
   18.69749832  131.80599976    4.90999985    2.50000000
   18.70027924  127.52600098    4.90999985    2.51999998
   18.70111275  137.96800232    4.90999985    2.51999998
   18.70444489  125.17900085    4.90999985    2.53999996
   18.70777893  133.29100037    4.90999985    2.53999996
   18.71083450  133.41900635    4.90999985    2.53999996
   18.71416664  126.02700043    4.90999985    2.55999994
   18.72000122  126.02700043    4.90999985    2.53999996
   18.72416687  126.63800049    4.90999985    2.53999996
   18.72750092  133.36500549    4.90999985    2.55999994
   18.73083305  132.15299988    4.90999985    2.55999994
   18.73361206  129.77000427    4.90999985    2.55999994
   18.73416710  128.50799561    4.90999985    2.55999994
   18.73750114  125.93000031    4.90999985    2.55999994
   18.74083328  124.71399689    4.90999985    2.55999994
   18.74388885  125.40299988    4.90999985    2.55999994
   18.74722290  124.31400299    4.90999985    2.55999994
   18.75027847  128.06900024    4.90999985    2.55999994
   18.75361061  122.66699982    4.90999985    2.57999992
   18.75694466  118.32099915    4.90999985    2.57999992
   18.76305580  118.32099915    4.90999985    2.57999992
   18.76722145  128.32299805    4.90999985    2.57999992
   18.77027702  133.06500244    4.90999985    2.55999994
   18.77361107  130.04400635    4.90999985    2.55999994
   18.77666664  130.89599609    4.90999985    2.55999994
   18.78000069  141.55299377    4.90999985    2.55999994
   18.78333282  120.82399750    4.90999985    2.55999994
   18.78638840  137.55999756    4.90999985    2.53999996
   18.78972244  123.84799957    4.90999985    2.55999994
   18.79305458  118.07900238    4.90999985    2.55999994
   18.79611015  130.93899536    4.90999985    2.55999994
   18.79944420  119.33100128    4.90999985    2.55999994
   18.80027771  125.20099640    4.90999985    2.55999994
   18.80583191  125.20099640    4.90999985    2.53999996
   18.80999947  136.94400024    4.90999985    2.51999998
   18.81305504  130.15800476    4.90999985    2.53999996
   18.81638718  124.54599762    4.90999985    2.53999996
   18.83388901  134.96299744    4.90999985    2.51999998
   18.83638954  134.86099243    4.90999985    2.53999996
   18.83944511  131.47599792    4.90999985    2.53999996
   18.84277916  138.21800232    4.90999985    2.53999996
   18.84889030  138.21800232    4.90999985    2.55999994
   18.85305595  132.30799866    4.90999985    2.53999996
   18.85611153  124.64099884    4.90999985    2.55999994
   18.85944557  124.89700317    4.90999985    2.53999996
   18.86250114  131.95500183    4.90999985    2.53999996
   18.86583328  118.95600128    4.90999985    2.51999998
   18.86722183  124.40100098    4.90999985    2.51999998
   18.86972237  133.74099731    4.90999985    2.53999996
   18.87277794  131.30099487    4.90999985    2.53999996
   18.87611198  126.07599640    4.90999985    2.53999996
   18.87944412  135.91200256    4.90999985    2.55999994
   18.88249969  129.39900208    4.90999985    2.55999994
   18.88583374  139.80400085    4.90999985    2.55999994
   18.89166641  139.80400085    4.90999985    2.50000000
   18.89583397  137.18299866    4.90999985    2.51999998
   18.89888954  142.59500122    4.90999985    2.53999996
   18.90055466  136.74800110    4.90999985    2.51999998
   18.90277672  144.53900146    4.90999985    2.53999996
   18.90583229  137.35699463    4.90999985    2.51999998
   18.90916634  140.39799500    4.90999985    2.51999998
   18.91250038  139.24000549    4.90999985    2.53999996
   18.91555595  134.57800293    4.90999985    2.53999996
   18.91888809  138.66799927    4.90999985    2.53999996
   18.92194366  132.64399719    4.90999985    2.51999998
   18.92527771  139.71400452    4.90999985    2.53999996
   18.92860985  125.91600037    4.90999985    2.53999996
   18.93444443  125.91600037    4.90999985    2.53999996
   18.93861008  126.86299896    4.90999985    2.53999996
   18.94194412  133.34500122    4.90999985    2.51999998
   18.94499969  130.64599609    4.90999985    2.50000000
   18.94833183  136.38600159    4.90999985    2.51999998
   18.95166779  129.90899658    4.90999985    2.53999996
   18.95472336  128.91499329    4.90999985    2.53999996
   18.95805550  118.65000153    4.90999985    2.53999996
   18.96111107  121.12999725    4.90999985    2.53999996
   18.96444511  130.96000671    4.90999985    2.51999998
   18.96722221  127.63300323    4.90999985    2.50000000
   18.96805573  127.31500244    4.90999985    2.50000000
   18.97111130  124.96600342    4.90999985    2.51999998
   18.97722244  124.96600342    4.90999985    2.55999994
   18.98139000  123.00000000    4.90999985    2.57999992
   18.98472214  128.26699829    4.90999985    2.57999992
   18.98805618  136.31799316    4.90999985    2.57999992
   18.99111176  122.30400085    4.90999985    2.57999992
   18.99444389  123.65799713    4.90999985    2.57999992
   18.99749947  124.65299988    4.90999985    2.59999990
   19.00055504  125.16999817    4.90999985    2.57999992
   19.00138855  126.96499634    4.90999985    2.57999992
   19.00444412  121.48699951    4.90999985    2.57999992
   19.00777817  125.22799683    4.90999985    2.55999994
   19.01111031  117.83999634    4.90999985    2.51999998
   19.01416588  135.67399597    4.90999985    2.51999998
   19.02027702  135.67399597    4.90999985    2.53999996
   19.02444458  129.59899902    4.90999985    2.53999996
   19.02750015  135.53399658    4.90999985    2.51999998
   19.03083229  128.97000122    4.90999985    2.53999996
   19.03388786  125.25599670    4.90999985    2.53999996
   19.03444481  138.56599426    4.90999985    2.53999996
   19.03777695  123.27300262    4.90999985    2.55999994
   19.04083252  128.44500732    4.90999985    2.55999994
   19.04416656  126.95899963    4.90999985    2.55999994
   19.04749870  127.63999939    4.90999985    2.55999994
   19.05055428  128.69999695    4.90999985    2.55999994
   19.05388832  129.68699646    4.90999985    2.55999994
   19.05694389  126.98899841    4.90999985    2.55999994
   19.06305504  126.98899841    4.90999985    2.50000000
   19.06722260  131.07099915    4.90999985    2.51999998
   19.06750107  133.40499878    4.90999985    2.51999998
   19.07083511  129.83099365    4.90999985    2.53999996
   19.07416725  142.08099365    4.90999985    2.53999996
   19.07722282  126.64199829    4.90999985    2.51999998
   19.08055687  130.80799866    4.90999985    2.53999996
   19.08388901  131.58299255    4.90999985    2.55999994
   19.08694458  138.73300171    4.90999985    2.55999994
   19.09027863  122.11499786    4.90999985    2.55999994
   19.09333420  137.68600464    4.90999985    2.55999994
   19.09666824  123.28199768    4.90999985    2.55999994
   19.10000038  127.41000366    4.90999985    2.53999996
   19.10083389  119.54699707    4.90999985    2.55999994
   19.10583305  119.54699707    4.90999985    2.53999996
   19.11000061  118.82599640    4.90999985    2.55999994
   19.11333466  131.11199951    4.90999985    2.55999994
   19.11638832  124.09899902    4.90999985    2.55999994
   19.11972237  123.80300140    4.90999985    2.55999994
   19.12305641  131.37899780    4.90999985    2.53999996
   19.12611198  130.87300110    4.90999985    2.55999994
   19.12944412  134.17900085    4.90999985    2.53999996
   19.13277817  124.98999786    4.90999985    2.51999998
   19.13416672  123.35500336    4.90999985    2.53999996
   19.13611031  133.41099548    4.90999985    2.53999996
   19.13944435  141.44900513    4.90999985    2.51999998
   19.14249992  143.82600403    4.90999985    2.51999998
   19.14861107  143.82600403    4.90999985    2.51999998
   19.15277672  132.30200195    4.90999985    2.53999996
   19.15611076  131.04299927    4.90999985    2.53999996
   19.15944481  121.19200134    4.90999985    2.53999996
   19.16250038  130.61000061    4.90999985    2.51999998
   19.16583252  135.10499573    4.90999985    2.50000000
   19.16777802  133.56100464    4.90999985    2.51999998
   19.16944313  126.15100098    4.90999985    2.51999998
   19.17277718  132.83900452    4.90999985    2.51999998
   19.17583275  126.33399963    4.90999985    2.51999998
   19.17916679  126.25399780    4.90999985    2.51999998
   19.18249893  129.03100586    4.90999985    2.50000000
   19.18555450  123.12500000    4.90999985    2.51999998
   19.19166565  123.12500000    4.90999985    2.51999998
   19.19583321  129.63499451    4.90999985    2.50000000
   19.19888878  138.47900391    4.90999985    2.48000002
   19.20111275  137.52400208    4.90999985    2.50000000
   19.20250130  133.07299805    4.90999985    2.48000002
   19.20583344  122.76399994    4.90999985    2.51999998
   19.20916748  139.86199951    4.90999985    2.51999998
   19.21222305  132.55900574    4.90999985    2.51999998
   19.21555710  119.30899811    4.90999985    2.50000000
   19.21888924  131.74499512    4.90999985    2.51999998
   19.22194481  132.37500000    4.90999985    2.51999998
   19.22527885  127.50900269    4.90999985    2.51999998
   19.22833443  126.44799805    4.90999985    2.51999998
   19.23444557  126.44799805    4.90999985    2.51999998
   19.23861122  126.30699921    4.90999985    2.51999998
   19.24166679  119.87799835    4.90999985    2.51999998
   19.24500084  128.78999329    4.90999985    2.51999998
   19.24833298  139.39900208    4.90999985    2.51999998
   19.25138855  153.03199768    4.90999985    2.50000000
   19.25472260  133.51100159    4.90999985    2.50000000
   19.25805473  131.86500549    4.90999985    2.48000002
   19.26111031  128.30599976    4.90999985    2.48000002
   19.26444435  133.04200745    4.90999985    2.50000000
   19.26777840  131.17599487    4.90999985    2.48000002
   19.26805496  130.13400269    4.90999985    2.48000002
   19.27138901  135.37399292    4.90999985    2.50000000
   19.27722168  135.37399292    4.90999985    2.48000002
   19.28138924  142.28399658    4.90999985    2.48000002
   19.28472137  130.36900330    4.90999985    2.50000000
   19.28777695  135.33799744    4.90999985    2.50000000
   19.29111099  127.78800201    4.90999985    2.50000000
   19.29444313  122.17099762    4.90999985    2.50000000
   19.29749870  127.75499725    4.90999985    2.50000000
   19.30083275  124.61100006    4.90999985    2.51999998
   19.30138779  126.93099976    4.90999985    2.51999998
   19.30444336  124.45999908    4.90999985    2.51999998
   19.30777740  124.44100189    4.90999985    2.50000000
   19.31083298  128.40199280    4.90999985    2.50000000
   19.31416512  125.16500092    4.90999985    2.50000000
   19.32000160  125.16500092    4.90999985    2.48000002
   19.32416725  127.86399841    4.90999985    2.50000000
   19.32750130  127.78800201    4.90999985    2.50000000
   19.33083344  122.28700256    4.90999985    2.50000000
   19.33388901  130.25100708    4.90999985    2.50000000
   19.33472252  130.17999268    4.90999985    2.48000002
   19.33750153  123.38800049    4.90999985    2.48000002
   19.34083366  122.51399994    4.90999985    2.50000000
   19.34388924  129.66000366    4.90999985    2.50000000
   19.34722328  131.80299377    4.90999985    2.48000002
   19.35055542  129.96800232    4.90999985    2.48000002
   19.35361099  131.54499817    4.90999985    2.48000002
   19.35694504  131.66799927    4.90999985    2.48000002
   19.36305618  131.66799927    4.90999985    2.50000000
   19.36722183  128.55700684    4.90999985    2.50000000
   19.36805534  126.33599854    4.90999985    2.50000000
   19.37083435  122.00399780    4.90999985    2.50000000
   19.37388992  124.36699677    4.90999985    2.50000000
   19.37722206  125.05799866    4.90999985    2.48000002
   19.38027763  129.08599854    4.90999985    2.50000000
   19.38361168  125.37599945    4.90999985    2.50000000
   19.38694382  125.75399780    4.90999985    2.51999998
   19.38999939  128.34700012    4.90999985    2.50000000
   19.39333344  131.26699829    4.90999985    2.50000000
   19.39666748  130.05900574    4.90999985    2.50000000
   19.39972115  129.63600159    4.90999985    2.50000000
   19.40138817  131.45799255    4.90999985    2.48000002
   19.40583229  131.45799255    4.90999985    2.48000002
   19.40999985  126.81600189    4.90999985    2.50000000
   19.41305542  123.88700104    4.90999985    2.46000004
   19.41638756  127.92500305    4.90999985    2.46000004
   19.41972160  122.19499969    4.90999985    2.46000004
   19.42277718  126.36699677    4.90999985    2.48000002
   19.42611122  125.47899628    4.90999985    2.48000002
   19.42944336  133.67599487    4.90999985    2.48000002
   19.43249893  125.30400085    4.90999985    2.48000002
   19.43472099  124.31199646    4.90999985    2.48000002
   19.43610954  132.72700500    4.90999985    2.46000004
   19.43944359  132.79100037    4.90999985    2.46000004
   19.44277763  130.02299500    4.90999985    2.46000004
   19.44861031  130.02299500    4.90999985    2.46000004
   19.45277786  136.46699524    4.90999985    2.46000004
   19.45611191  117.48400116    4.90999985    2.46000004
   19.45916748  122.52400208    4.90999985    2.46000004
   19.46250153  121.69599915    4.90999985    2.46000004
   19.46583366  137.51800537    4.90999985    2.46000004
   19.46805573  123.40699768    4.90999985    2.46000004
   19.46916771  138.64700317    4.90999985    2.46000004
   19.47249985  131.55799866    4.90999985    2.46000004
   19.47583389  134.47999573    4.90999985    2.44000006
   19.47888947  140.30299377    4.90999985    2.42000008
   19.48222351  125.45400238    4.90999985    2.42000008
   19.48527718  130.68200684    4.90999985    2.42000008
   19.49138832  130.68200684    4.90999985    2.46000004
   19.49555588  129.48800659    4.90999985    2.42000008
   19.49888992  129.14799500    4.90999985    2.42000008
   19.50138855  136.34899902    4.90999985    2.40000010
   19.50250053  127.38400269    4.90999985    2.42000008
   19.50583267  129.73800659    4.90999985    2.42000008
   19.50916672  130.77699280    4.90999985    2.40000010
   19.51222229  130.61700439    4.90999985    2.40000010
   19.51555634  126.81999969    4.90999985    2.42000008
   19.51861000  133.46000671    4.90999985    2.40000010
   19.52194405  137.51699829    4.90999985    2.42000008
   19.52527809  132.45599365    4.90999985    2.44000006
   19.52833366  130.57299805    4.90999985    2.44000006
   19.53444481  130.57299805    4.90999985    2.46000004
   19.53861046  130.91999817    4.90999985    2.44000006
   19.54166603  139.25399780    4.90999985    2.44000006
   19.54500008  125.17800140    4.90999985    2.46000004
   19.54805565  129.78999329    4.90999985    2.46000004
   19.55138779  122.33599854    4.90999985    2.44000006
   19.55472183  129.92199707    4.90999985    2.44000006
   19.55777740  130.31300354    4.90999985    2.44000006
   19.56110954  131.45700073    4.90999985    2.44000006
   19.56444359  120.45899963    4.90999985    2.46000004
   19.56750107  128.41999817    4.90999985    2.46000004
   19.56944466  131.06100464    4.90999985    2.46000004
   19.57111168  134.33000183    4.90999985    2.46000004
   19.57722282  134.33000183    4.90999985    2.44000006
   19.58139038  137.29299927    4.90999985    2.42000008
   19.58444595  136.92799377    4.90999985    2.44000006
   19.58777809  131.98800659    4.90999985    2.44000006
   19.59111214  131.45599365    4.90999985    2.42000008
   19.59416771  123.92299652    4.90999985    2.42000008
   19.59749985  139.29800415    4.90999985    2.42000008
   19.60083389  126.30400085    4.90999985    2.42000008
   19.60277748  128.48199463    4.90999985    2.42000008
   19.60416794  133.46899414    4.90999985    2.42000008
   19.60750008  127.10700226    4.90999985    2.42000008
   19.61083412  140.18200684    4.90999985    2.42000008
   19.61388969  135.19000244    4.90999985    2.42000008
   19.62000084  135.19000244    4.90999985    2.44000006
   19.62416649  129.59500122    4.90999985    2.44000006
   19.62750053  138.08700562    4.90999985    2.42000008
   19.63055611  131.00999451    4.90999985    2.42000008
   19.63388824  143.03500366    4.90999985    2.42000008
   19.63638878  134.75799561    4.90999985    2.42000008
   19.63750076  134.51199341    4.90999985    2.44000006
   19.64083290  132.06199646    4.90999985    2.44000006
   19.64388847  139.88400269    4.90999985    2.44000006
   19.64722252  137.67999268    4.90999985    2.42000008
   19.65055466  135.30599976    4.90999985    2.42000008
   19.65361023  131.42700195    4.90999985    2.42000008
   19.65694427  132.78999329    4.90999985    2.42000008
   19.66277695  132.78999329    4.90999985    2.40000010
   19.66694450  134.57800293    4.90999985    2.40000010
   19.66972160  144.16799927    4.90999985    2.40000010
   19.67055511  136.87100220    4.90999985    2.40000010
   19.67388916  132.79200745    4.90999985    2.40000010
   19.67694473  138.12300110    4.90999985    2.40000010
   19.68027687  137.67799377    4.90999985    2.40000010
   19.68361092  136.90699768    4.90999985    2.42000008
   19.68666649  133.55599976    4.90999985    2.40000010
   19.68999863  131.44400024    4.90999985    2.40000010
   19.69333267  131.27200317    4.90999985    2.40000010
   19.69638824  135.70500183    4.90999985    2.39000010
   19.69972038  135.24000549    4.90999985    2.40000010
   19.70583344  135.24000549    4.90999985    2.40000010
   19.71000099  140.03500366    4.90999985    2.40000010
   19.71305656  152.47000122    4.90999985    2.40000010
   19.71638870  169.29800415    4.90999985    2.40000010
   19.71944427  178.61900330    4.90999985    2.40000010
   19.72277832  218.46800232    4.90999985    2.39000010
   19.72611237  250.40499878    4.90999985    2.39000010
   19.72916794  290.32000732    4.90999985    2.36999989
   19.73250008  160.57099915    4.90999985    2.36999989
   19.73583412   99.82109833    4.90999985    2.34999990
   19.73666763  102.41799927    4.90999985    2.36999989
   19.73944473   -1.00000000   -1.00000000   -1.00000000
   19.74250031   -1.00000000    4.90999985    2.39000010
   19.75277710   -1.00000000    4.90999985    2.36999989
   19.75583267   -1.00000000    4.90999985    2.34999990
   19.75944519   -1.00000000    4.90999985    2.32999992
   19.76277733   -1.00000000    4.90999985    2.30999994
   19.76583290   -1.00000000    4.90999985    2.30999994
   19.76916695   -1.00000000    4.90999985    2.30999994
   19.77249908   -1.00000000    4.90999985    2.36999989
   19.77583313   -1.00000000    4.90999985    2.39000010
   19.77916718   -1.00000000    4.90999985    2.39000010
   19.78222275   -1.00000000    4.90999985    2.39000010
   19.78555489   -1.00000000    4.90999985    2.34999990
   19.79555511   -1.00000000    4.90999985    2.40000010
   19.79888916   -1.00000000    4.90999985    2.40000010
   19.80194283   -1.00000000    4.90999985    2.40000010
   19.80555534   -1.00000000    4.90999985    2.40000010
   19.80888748   -1.00000000    4.90999985    2.40000010
   19.81194305   -1.00000000    4.90999985    2.40000010
   19.81527710   -1.00000000    4.90999985    2.40000010
   19.81861115   -1.00000000    4.90999985    2.39000010
   19.82166672   -1.00000000    4.90999985    2.39000010
   19.82500076   -1.00000000    4.90999985    2.40000010
   19.82833481   -1.00000000    4.90999985    2.39000010
   19.85250092   -1.00000000    4.90999985    2.39000010
   19.85583305   -1.00000000    4.90999985    2.39000010
   19.85916710   -1.00000000    4.90999985    2.39000010
   19.86222267   -1.00000000    4.90999985    2.36999989
   19.86555672   -1.00000000    4.90999985    2.32999992
   19.86888885   -1.00000000    4.90999985    2.32999992
   19.87194443   -1.00000000    4.90999985    2.34999990
   19.88138962   -1.00000000    4.90999985    2.36999989
   19.88472176   -1.00000000    4.90999985    2.36999989
   19.88833237   -1.00000000    4.90999985    2.39000010
   19.89138794   -1.00000000    4.90999985    2.40000010
   19.89472198   -1.00000000    4.90999985    2.40000010
   19.89805603   -1.00000000    4.90999985    2.39000010
   19.90111160   -1.00000000    4.90999985    2.40000010
   19.90444374   -1.00000000    4.90999985    2.40000010
   19.90777779   -1.00000000    4.90999985    2.36999989
   19.91083336   -1.00000000    4.90999985    2.34999990
   19.91416550   -1.00000000    4.90999985    2.32999992
   19.92416573   -1.00000000    4.90999985    2.32999992
   19.92749977   -1.00000000    4.90999985    2.34999990
   19.93055534   -1.00000000    4.90999985    2.34999990
   19.93388748   -1.00000000    4.90999985    2.32999992
   19.93722153   -1.00000000    4.90999985    2.30999994
   19.94027710   -1.00000000    4.90999985    2.30999994
   19.94361115   -1.00000000    4.90999985    2.30999994
   19.94694328   -1.00000000    4.90999985    2.28999996
   19.95000076   -1.00000000    4.90999985    2.26999998
   19.95361137   -1.00000000    4.90999985    2.28999996
   19.95666695   -1.00000000    4.90999985    2.23000002
   19.96694565   -1.00000000    4.90999985    2.15000010
   19.97027779   -1.00000000    4.90999985    2.21000004
   19.97361183   -1.00000000    4.90999985    2.21000004
   19.97666740   -1.00000000    4.90999985    2.25000000
   19.98000145   -1.00000000    4.90999985    2.25000000
   19.98333359   -1.00000000    4.90999985    2.26999998
   19.98694420   -1.00000000    4.90999985    2.28999996
   19.98999977   -1.00000000    4.90999985    2.30999994
   19.99333382   -1.00000000    4.90999985    2.30999994
   19.99666786   -1.00000000    4.90999985    2.34999990
   19.99972153   -1.00000000    4.90999985    2.32999992
   20.01000023   -1.00000000    4.90999985    2.26999998
   20.01305580   -1.00000000    4.90999985    2.26999998
   20.01638794   -1.00000000    4.90999985    2.23000002
   20.02000046   -1.00000000    4.90999985    2.19000006
   20.02305603   -1.00000000    4.90999985    2.25000000
   20.02638817   -1.00000000    4.90999985    2.30999994
   20.02972221   -1.00000000    4.90999985    2.28999996
   20.03277779   -1.00000000    4.90999985    2.26999998
   20.03610992   -1.00000000    4.90999985    2.25000000
   20.03944397   -1.00000000    4.90999985    2.25000000
   20.04249954   -1.00000000    4.90999985    2.26999998
   20.05277634   -1.00000000    4.90999985    2.25000000
   20.05611038   -1.00000000    4.90999985    2.28999996
   20.05916595   -1.00000000    4.90999985    2.32999992
   20.06250000   -1.00000000    4.90999985    2.32999992
   20.06555557   -1.00000000    4.90999985    2.30999994
   20.06888962   -1.00000000    4.90999985    2.23000002
   20.07222366   -1.00000000    4.90999985    2.23000002
   20.07527924   -1.00000000    4.90999985    2.23000002
   20.07861137   -1.00000000    4.90999985    2.25000000
   20.08194542   -1.00000000    4.90999985    2.25000000
   20.08500099   -1.00000000    4.90999985    2.25000000
   20.09555626   -1.00000000    4.90999985    2.21000004
   20.09889030   -1.00000000    4.90999985    2.21000004
   20.10194397   -1.00000000    4.90999985    2.17000008
   20.10527802   -1.00000000    4.90999985    2.15000010
   20.10861206   -1.00000000    4.90999985    2.19000006
   20.11166763   -1.00000000    4.90999985    2.25000000
   20.11499977   -1.00000000    4.90999985    2.25000000
   20.11833382   -1.00000000    4.90999985    2.25000000
   20.12166595   -1.00000000    4.90999985    2.25000000
   20.12472153   -1.00000000    4.90999985    2.26999998
   20.12805557   -1.00000000    4.90999985    2.28999996
   20.13833237   -1.00000000    4.90999985    2.19000006
   20.14166641   -1.00000000    4.90999985    2.19000006
   20.14500046   -1.00000000    4.90999985    2.21000004
   20.14805603   -1.00000000    4.90999985    2.21000004
   20.15138817   -1.00000000    4.90999985    2.23000002
   20.15499878   -1.00000000    4.90999985    2.26999998
   20.15833282   -1.00000000    4.90999985    2.28999996
   20.16138840   -1.00000000    4.90999985    2.28999996
   20.16472244   -1.00000000    4.90999985    2.30999994
   20.16777802   -1.00000000    4.90999985    2.30999994
   20.17111015   -1.00000000    4.90999985    2.30999994
   20.18138885   -1.00000000    4.90999985    2.26999998
   20.18444443   -1.00000000    4.90999985    2.26999998
   20.18805504   -1.00000000    4.90999985    2.30999994
   20.19138718   -1.00000000    4.90999985    2.32999992
   20.19444275   -1.00000000    4.90999985    2.32999992
   20.19777679   -1.00000000    4.90999985    2.26999998
   20.20083427   -1.00000000    4.90999985    2.25000000
   20.20416832   -1.00000000    4.90999985    2.23000002
   20.20750046   -1.00000000    4.90999985    2.25000000
   20.21055603   -1.00000000    4.90999985    2.25000000
   20.21389008   -1.00000000    4.90999985    2.26999998
   20.22416687   -1.00000000    4.90999985    2.26999998
   20.22722244   -1.00000000    4.90999985    2.26999998
   20.23055649   -1.00000000    4.90999985    2.30999994
   20.23388863   -1.00000000    4.90999985    2.30999994
   20.23694420   -1.00000000    4.90999985    2.28999996
   20.24027824   -1.00000000    4.90999985    2.30999994
   20.24361229   -1.00000000    4.90999985    2.32999992
   20.24666786   -1.00000000    4.90999985    2.32999992
   20.25000000   -1.00000000    4.90999985    2.32999992
   20.25361061   -1.00000000    4.90999985    2.34999990
   20.25694466   -1.00000000    4.90999985    2.32999992
   20.26694489   -1.00000000    4.90999985    2.32999992
   20.27027702   -1.00000000    4.90999985    2.32999992
   20.27333260   -1.00000000    4.90999985    2.32999992
   20.27666664   -1.00000000    4.90999985    2.32999992
   20.28000069   -1.00000000    4.90999985    2.32999992
   20.28305435   -1.00000000    4.90999985    2.32999992
   20.28666687   -1.00000000    4.90999985    2.32999992
   20.28999901   -1.00000000    4.90999985    2.30999994
   20.29305458   -1.00000000    4.90999985    2.28999996
   20.29638863   -1.00000000    4.90999985    2.28999996
   20.29944420   -1.00000000    4.90999985    2.28999996
   20.30972099   -1.00000000    4.90999985    2.32999992
   20.31305504   -1.00000000    4.90999985    2.30999994
   20.31638718   -1.00000000    4.90999985    2.30999994
   20.31972313   -1.00000000    4.90999985    2.30999994
   20.32305717   -1.00000000    4.90999985    2.30999994
   20.32611275   -1.00000000    4.90999985    2.30999994
   20.32944489   -1.00000000    4.90999985    2.30999994
   20.33250046   -1.00000000    4.90999985    2.30999994
   20.33583450   -1.00000000    4.90999985    2.30999994
   20.33916664   -1.00000000    4.90999985    2.30999994
   20.34222221   -1.00000000    4.90999985    2.32999992
   20.35277748   -1.00000000    4.61999989    2.30999994
   20.35583305   -1.00000000    4.48999977    2.30999994
   20.35916710   -1.00000000    4.38999987    2.30999994
   20.36222267   -1.00000000    4.30999994    2.32999992
   20.36555672   -1.00000000    4.23999977    2.32999992
   20.36888885   -1.00000000    4.15999985    2.30999994
   20.37194443   -1.00000000    4.07999992    2.30999994
   20.37527847   -1.00000000    4.00000000    2.32999992
   20.37861061   -1.00000000    3.95000005    2.30999994
   20.38166618   -1.00000000    3.91000009    2.30999994
   20.38500023   -1.00000000    3.89000010    2.30999994
   20.39555550   -1.00000000    3.86999989    2.30999994
   20.39861107   -1.00000000    3.89000010    2.30999994
   20.40194321   -1.00000000    3.91000009    2.30999994
   20.40527725   -1.00000000    3.93000007    2.30999994
   20.40833282   -1.00000000    3.95000005    2.30999994
   20.41166687   -1.00000000    3.97000003    2.28999996
   20.41499901   -1.00000000    3.99000001    2.28999996
   20.41805458   -1.00000000    3.97000003    2.28999996
   20.42166519   -1.00000000    3.95000005    2.28999996
   20.42499924   -1.00000000    3.93000007    2.28999996
   20.42805481   -1.00000000    3.91000009    2.28999996
   20.43833160   -1.00000000    3.82999992    2.28999996
   20.44166565   -1.00000000    3.78999996    2.28999996
   20.44472122   -1.00000000    3.76999998    2.26999998
   20.44805527   -1.00000000    3.73000002    2.26999998
   20.45138931   -1.00000000    3.70000005    2.28999996
   20.45472336   -1.00000000    3.64000010    2.28999996
   20.45805550   -1.00000000    3.61999989    2.28999996
   20.46111107   -1.00000000    3.57999992    2.28999996
   20.46444511   -1.00000000    3.55999994    2.26999998
   20.46777916   -1.00000000    3.53999996    2.28999996
   20.47083473   -1.00000000    3.53999996    2.26999998
   20.48111153   -1.00000000    3.53999996    2.26999998
   20.48444557   -1.00000000    3.53999996    2.26999998
   20.48805618   -1.00000000    3.55999994    2.26999998
   20.49138832   -1.00000000    3.57999992    2.26999998
   20.49444389   -1.00000000    3.61999989    2.26999998
   20.49777794   -1.00000000    3.64000010    2.26999998
   20.50111198   -1.00000000    3.68000007    2.26999998
   20.50416756   -1.00000000    3.72000003    2.26999998
   20.50749969   -1.00000000    3.73000002    2.25000000
   20.51055527   -1.00000000    3.76999998    2.25000000
   20.51388931   -1.00000000    3.80999994    2.25000000
   20.52416611   -1.00000000    3.86999989    2.25000000
   20.52722168   -1.00000000    3.86999989    2.25000000
   20.53055573   -1.00000000    3.86999989    2.25000000
   20.53361130   -1.00000000    3.86999989    2.25000000
   20.53694344   -1.00000000    3.86999989    2.25000000
   20.54027748   -1.00000000    3.86999989    2.25000000
   20.54333305   -1.00000000    3.86999989    2.25000000
   20.54666710   -1.00000000    3.84999990    2.25000000
   20.54999924   -1.00000000    3.84999990    2.25000000
   20.55333328   -1.00000000    3.82999992    2.25000000
   20.55666542   -1.00000000    3.80999994    2.25000000
   20.56694603   -1.00000000    3.76999998    2.25000000
   20.57000160   -1.00000000    3.76999998    2.23000002
   20.57333374   -1.00000000    3.78999996    2.23000002
   20.57666779   -1.00000000    3.80999994    2.23000002
   20.57972336   -1.00000000    3.84999990    2.23000002
   20.58305550   -1.00000000    3.89000010    2.23000002
   20.58666801   -1.00000000    3.97000003    2.23000002
   20.59000015   -1.00000000    4.01999998    2.23000002
   20.59305573   -1.00000000    4.09999990    2.23000002
   20.59638977   -1.00000000    4.17999983    2.23000002
   20.59972191   -1.00000000    4.23999977    2.23000002
   20.60972214   -1.00000000    4.48999977    2.23000002
   20.61305618   -1.00000000    4.61999989    2.23000002
   20.61611176   -1.00000000    4.67999983    2.23000002
   20.61972237   -1.00000000    4.78000021    2.23000002
   20.62305641   -1.00000000    4.82999992    2.21000004
   20.62611198   -1.00000000    4.90999985    2.21000004
   20.62944412   -1.00000000    4.90999985    2.21000004
   20.63249969   -1.00000000    4.90999985    2.21000004
   20.63583374   -1.00000000    4.90999985    2.21000004
   20.63916588   -1.00000000    4.90999985    2.21000004
   20.64222145   -1.00000000    4.90999985    2.21000004
   20.65250015   -1.00000000    4.90999985    2.21000004
   20.65583229   -1.00000000    4.90999985    2.21000004
   20.65888786   -1.00000000    4.90999985    2.19000006
   20.66222191   -1.00000000    4.90999985    2.21000004
   20.66555595   -1.00000000    4.90999985    2.19000006
   20.66860962   -1.00000000    4.90999985    2.19000006
   20.67194366   -1.00000000    4.90999985    2.19000006
   20.67527771   -1.00000000    4.90999985    2.19000006
   20.67833328   -1.00000000    4.90999985    2.19000006
   20.68166542   -1.00000000    4.90999985    2.19000006
   20.68472099   -1.00000000    4.90999985    2.17000008
   20.69555473   -1.00000000    4.90999985    2.17000008
   20.69861031   -1.00000000    4.90999985    2.17000008
   20.70194435   -1.00000000    4.90999985    2.17000008
   20.70499992   -1.00000000    4.90999985    2.17000008
   20.70833397   -1.00000000    4.90999985    2.15000010
   20.71166801   -1.00000000    4.90999985    2.17000008
   20.71472359   -1.00000000    4.90999985    2.15000010
   20.71805573   -1.00000000    4.90999985    2.15000010
   20.72166634   -1.00000000    4.90999985    2.15000010
   20.72500038   -1.00000000    4.90999985    2.15000010
   20.72805595   -1.00000000    4.90999985    2.15000010
   20.73833275   -1.00000000    4.90999985    2.13000011
   20.74138832   -1.00000000    4.90999985    2.13000011
   20.74472237   -1.00000000    4.90999985    2.15000010
   20.74805641   -1.00000000    4.90999985    2.13000011
   20.75111198   -1.00000000    4.90999985    2.13000011
   20.75472260   -1.00000000    4.90999985    2.13000011
   20.75805473   -1.00000000    4.90999985    2.13000011
   20.76111031   -1.00000000    4.90999985    2.13000011
   20.76444435   -1.00000000    4.90999985    2.13000011
   20.76777840   -1.00000000    4.90999985    2.13000011
   20.77083397   -1.00000000    4.90999985    2.13000011
   20.78111076   -1.00000000    4.90999985    2.13000011
   20.78444481   -1.00000000    4.90999985    2.13000011
   20.78777695   -1.00000000    4.90999985    2.13000011
   20.79111099   -1.00000000    4.90999985    2.13000011
   20.79416656   -1.00000000    4.90999985    2.13000011
   20.79749870   -1.00000000    4.90999985    2.13000011
   20.80083275   -1.00000000    4.90999985    2.11999989
   20.80388832   -1.00000000    4.90999985    2.11999989
   20.80722237   -1.00000000    4.90999985    2.11999989
   20.81027794   -1.00000000    4.90999985    2.11999989
   20.81361008   -1.00000000    4.90999985    2.11999989
   20.82389069   -1.00000000    4.90999985    2.09999990
   20.82722282   -1.00000000    4.90999985    2.07999992
   20.83055687   -1.00000000    4.90999985    2.07999992
   20.83361244   -1.00000000    4.90999985    2.05999994
   20.83694458   -1.00000000    4.90999985    2.05999994
   20.84000015   -1.00000000    4.90999985    2.07999992
   20.84333420   -1.00000000    4.90999985    2.05999994
   20.84666824   -1.00000000    4.90999985    2.07999992
   20.84972191   -1.00000000    4.90999985    2.05999994
   20.87694550   -1.00000000    4.90999985    2.03999996
   20.88027763   -1.00000000    4.90999985    2.05999994
   20.88361168   -1.00000000    4.90999985    2.05999994
   20.88694382   -1.00000000    4.90999985    2.05999994
   20.89027786   -1.00000000    4.90999985    2.05999994
   20.89333344   -1.00000000    4.90999985    2.05999994
   20.89666748   -1.00000000    4.90999985    2.05999994
   20.89999962   -1.00000000    4.90999985    2.05999994
   20.90305519   -1.00000000    4.90999985    2.05999994
   20.90638924   -1.00000000    4.90999985    2.05999994
   20.90944481   -1.00000000    4.90999985    2.03999996
   20.91972160   -1.00000000    4.90999985    2.03999996
   20.92305565   -1.00000000    4.90999985    2.03999996
   20.92611122   -1.00000000    4.90999985    2.03999996
   20.92944336   -1.00000000    4.90999985    2.01999998
   20.93277740   -1.00000000    4.90999985    2.03999996
   20.93583298   -1.00000000    4.90999985    2.03999996
   20.93916512   -1.00000000    4.90999985    2.01999998
   20.94249916   -1.00000000    4.90999985    2.01999998
   20.94555473   -1.00000000    4.90999985    2.01999998
   20.94888878   -1.00000000    4.90999985    2.01999998
   20.95222282   -1.00000000    4.90999985    2.01999998
   20.96277809   -1.00000000    4.90999985    2.01999998
   20.96583366   -1.00000000    4.90999985    2.00000000
   20.96916771   -1.00000000    4.90999985    2.00000000
   20.97222328   -1.00000000    4.90999985    2.00000000
   20.97555542   -1.00000000    4.86999989    2.00000000
   20.97888947   -1.00000000    4.84999990    2.00000000
   20.98194504   -1.00000000    4.82999992    1.98000002
   20.98527718   -1.00000000    4.80999994    2.00000000
   20.98888969   -1.00000000    4.80999994    1.98000002
   20.99194527   -1.00000000    4.82999992    1.98000002
   20.99527740   -1.00000000    4.82999992    2.00000000
   21.00555611   -1.00000000    4.86999989    1.98000002
   21.00861168   -1.00000000    4.88999987    1.96000004
   21.01194382   -1.00000000    4.88999987    1.98000002
   21.01527786   -1.00000000    4.90999985    1.96000004
   21.01833344   -1.00000000    4.90999985    1.98000002
   21.02194405   -1.00000000    4.90999985    1.96000004
   21.02499962   -1.00000000    4.90999985    1.96000004
   21.02833366   -1.00000000    4.90999985    1.96000004
   21.03166580   -1.00000000    4.90999985    1.96000004
   21.03472137   -1.00000000    4.90999985    1.94000006
   21.03805542   -1.00000000    4.90999985    1.96000004
   21.04833221   -1.00000000    4.90999985    1.94000006
   21.05166626   -1.00000000    4.90999985    1.94000006
   21.05527687   -1.00000000    4.90999985    1.94000006
   21.05833244   -1.00000000    4.90999985    1.94000006
   21.06166649   -1.00000000    4.90999985    1.94000006
   21.06499863   -1.00000000    4.90999985    1.91999996
   21.06805611   -1.00000000    4.90999985    1.91999996
   21.07139015   -1.00000000    4.90999985    1.91999996
   21.07472229   -1.00000000    4.90999985    1.89999998
   21.07777786   -1.00000000    4.90999985    1.91999996
   21.08111191   -1.00000000    4.90999985    1.89999998
   21.09111214   -1.00000000    4.90999985    1.89999998
   21.09444427   -1.00000000    4.90999985    1.89999998
   21.09777832   -1.00000000    4.90999985    1.89999998
   21.10083389   -1.00000000    4.90999985    1.89999998
   21.10416794   -1.00000000    4.90999985    1.89999998
   21.10722351   -1.00000000    4.90999985    1.89999998
   21.11055565   -1.00000000    4.90999985    1.88000000
   21.11388969   -1.00000000    4.90999985    1.88000000
   21.11694527   -1.00000000    4.90999985    1.88000000
   21.12055588   -1.00000000    4.90999985    1.88000000
   21.12361145   -1.00000000    4.90999985    1.88000000
   21.13388824   -1.00000000    4.90999985    1.86000001
   21.13722229   -1.00000000    4.90999985    1.86000001
   21.14055634   -1.00000000    4.90999985    1.86000001
   21.14361191   -1.00000000    4.90999985    1.85000002
   21.14694405   -1.00000000    4.90999985    1.85000002
   21.15027809   -1.00000000    4.90999985    1.85000002
   21.15388870   -1.00000000    4.90999985    1.85000002
   21.15694427   -1.00000000    4.90999985    1.85000002
   21.16027832   -1.00000000    4.90999985    1.83000004
   21.16361046   -1.00000000    4.90999985    1.83000004
   21.16666603   -1.00000000    4.90999985    1.83000004
   21.17694473   -1.00000000    4.90999985    1.83000004
   21.18000031   -1.00000000    2.80999994    1.88000000
   21.18333244   -1.00000000    0.19000000    0.17000000
   21.18694305   -1.00000000    0.15000001    0.03000000
   21.18999863   -1.00000000    0.15000001    0.03000000
   21.19333267   -1.00000000    0.15000001    0.03000000
   21.19666672   -1.00000000    0.15000001    0.03000000
   21.19972038   -1.00000000    0.15000001    0.03000000
   21.20305634   -1.00000000    0.15000001    0.03000000
   21.20611191   -1.00000000    0.15000001    0.03000000
   21.20944595   -1.00000000    0.15000001    0.03000000
   21.21972275   -1.00000000    0.15000001    0.03000000
   21.22305679   -1.00000000    0.15000001    0.03000000
   21.22611237   -1.00000000    0.15000001    0.03000000
   21.22944450   -1.00000000    0.15000001    0.03000000
   21.23250008   -1.00000000    0.15000001    0.03000000
   21.23583412   -1.00000000    0.15000001    0.03000000
   21.23916626   -1.00000000    0.15000001    0.03000000
   21.24222183   -1.00000000    0.15000001    0.03000000
   21.24555588   -1.00000000    0.15000001    0.03000000
   21.24888992   -1.00000000    0.15000001    0.03000000
   21.25194359   -1.00000000    0.15000001    0.03000000
   21.26250076   -1.00000000    0.15000001    0.03000000
   21.26583290   -1.00000000    0.15000001    0.03000000
   21.26888847   -1.00000000    0.15000001    0.03000000
   21.27222252   -1.00000000    0.15000001    0.03000000
   21.27555466   -1.00000000    0.15000001    0.03000000
   21.27861023   -1.00000000    0.15000001    0.03000000
   21.28194427   -1.00000000    0.15000001    0.03000000
   21.28527641   -1.00000000    0.15000001    0.03000000
   21.28861046   -1.00000000    0.15000001    0.03000000
