    HOUR (UT)   FLARE FACTOR    SKY TESTER    SUN TESTER
   11.71027756   -1.00000000   -1.00000000   -1.00000000
   11.74750042  132.41400146    1.00000000    0.70999998
   11.75277805  122.13899994    1.00000000    0.69000000
   11.75694466  123.29799652    0.95999998    0.69000000
   11.76000023  122.75399780    0.95999998    0.69000000
   11.76333332  127.86799622    0.95999998    0.69000000
   11.76666641  127.12899780    0.95999998    0.69000000
   11.76972198  112.15899658    0.94000000    0.69000000
   11.77305508  115.28600311    0.94000000    0.69000000
   11.77611065  130.46400452    0.92000002    0.69000000
   11.77944374  120.47799683    0.89999998    0.69000000
   11.78055573  123.54000092    0.88000000    0.69000000
   11.78305531  115.36799622    0.88000000    0.69000000
   11.78611183  115.72299957    0.88000000    0.69000000
   11.78944492  125.05599976    0.86000001    0.69000000
   11.79277802  113.60099792    0.83999997    0.67000002
   11.79583359  126.62599945    0.81999999    0.67000002
   11.79916668  121.49199677    0.81999999    0.67000002
   11.80249977  118.77899933    0.81999999    0.67000002
   11.80583382  124.89499664    0.81999999    0.67000002
   11.80916691  112.95600128    0.80000001    0.67000002
   11.81250000  113.02300262    0.80000001    0.67000002
   11.81388950  121.13999939    0.79000002    0.67000002
   11.81611156  118.68399811    0.79000002    0.67000002
   11.81916618  112.13200378    0.79000002    0.67000002
   11.82250023  117.05799866    0.79000002    0.64999998
   11.82583332  114.25299835    0.79000002    0.64999998
   11.82888889  118.98899841    0.76999998    0.64999998
   11.83222198  117.56999969    0.76999998    0.63000000
   11.83555508  119.78099823    0.76999998    0.63000000
   11.83861065  112.68800354    0.75000000    0.63000000
   11.84194374  120.48100281    0.75000000    0.61000001
   11.84499931  116.14299774    0.75000000    0.61000001
   11.84722233  118.68000031    0.75000000    0.61000001
   11.84888840  118.86000061    0.73000002    0.61000001
   11.85194492  111.88899994    0.73000002    0.58999997
   11.85527802  119.15299988    0.73000002    0.58999997
   11.85861111  123.62400055    0.70999998    0.56999999
   11.86166668  119.42800140    0.70999998    0.56999999
   11.86500072  121.97899628    0.69000000    0.56999999
   11.86833382  117.84300232    0.69000000    0.55000001
   11.87138939  122.04100037    0.69000000    0.55000001
   11.87472248  111.85500336    0.69000000    0.52999997
   11.87777805  121.99800110    0.69000000    0.55000001
   11.88055611  115.72699738    0.69000000    0.52999997
   11.88166714  123.40899658    0.69000000    0.52999997
   11.88472176  122.07399750    0.69000000    0.52999997
   11.88805580  117.58300018    0.67000002    0.51999998
   11.89138889  122.50800323    0.69000000    0.51999998
   11.89444447  122.04299927    0.67000002    0.50000000
   11.89777756  118.61799622    0.67000002    0.50000000
   11.90111065  124.71199799    0.67000002    0.50000000
   11.90416622  124.60900116    0.64999998    0.50000000
   11.90749931  115.13899994    0.64999998    0.47999999
   11.91055489  130.90600586    0.64999998    0.47999999
   11.91388893  114.47799683    0.64999998    0.47999999
   11.91444397  119.00499725    0.64999998    0.47999999
   11.91750050  124.52400208    0.64999998    0.47999999
   11.92083359  121.59600067    0.63000000    0.47999999
   11.92416668  114.08399963    0.63000000    0.47999999
   11.92722225  115.42900085    0.63000000    0.47999999
   11.93055630  122.46700287    0.63000000    0.46000001
   11.93388939  118.46800232    0.63000000    0.46000001
   11.93694496  107.91200256    0.61000001    0.46000001
   11.94027805  122.04499817    0.61000001    0.46000001
   11.94333363  113.94400024    0.61000001    0.46000001
   11.94666672  107.30200195    0.61000001    0.46000001
   11.94722271  119.20800018    0.61000001    0.46000001
   11.95027733  116.52300262    0.58999997    0.46000001
   11.95333290  100.39700317    0.61000001    0.46000001
   11.95666695  114.34100342    0.61000001    0.46000001
   11.96000004  111.69100189    0.58999997    0.46000001
   11.96305561  109.55300140    0.58999997    0.46000001
   11.96638870  110.22699738    0.58999997    0.46000001
   11.96972179  112.04499817    0.56999999    0.44000000
   11.97277737  114.14900208    0.58999997    0.46000001
   11.97611046  113.47000122    0.56999999    0.44000000
   11.97916603  110.44799805    0.56999999    0.44000000
   11.98055553  117.14099884    0.56999999    0.44000000
   11.98277760  109.94200134    0.56999999    0.44000000
   11.98611164  123.28700256    0.56999999    0.44000000
   11.98916721  111.30699921    0.56999999    0.44000000
   11.99250031  128.09500122    0.56999999    0.44000000
   11.99555588  114.59799957    0.55000001    0.41999999
   11.99888897  111.80200195    0.55000001    0.41999999
   12.00222206  110.73400116    0.55000001    0.41999999
   12.00527763  105.85299683    0.55000001    0.41999999
   12.00861073  119.65299988    0.55000001    0.41999999
   12.01194477  110.92700195    0.52999997    0.41999999
   12.01388931  105.83200073    0.52999997    0.41999999
   12.01555538  124.37000275    0.52999997    0.40000001
   12.01861095  123.38200378    0.52999997    0.40000001
   12.02194405  122.73999786    0.51999998    0.40000001
   12.02527714  117.42800140    0.52999997    0.40000001
   12.02833271  113.83799744    0.51999998    0.40000001
   12.03166676  122.14700317    0.52999997    0.40000001
   12.03500080  111.41000366    0.51999998    0.40000001
   12.03805637  107.69100189    0.51999998    0.38000000
   12.04138947  115.68499756    0.51999998    0.38000000
   12.04444504  108.24600220    0.50000000    0.38000000
   12.04722309  108.16799927    0.50000000    0.38000000
   12.04805565  110.23699951    0.50000000    0.38000000
   12.05138874  105.08300018    0.50000000    0.38000000
   12.05444431  109.03700256    0.47999999    0.38000000
   12.05777836  111.14299774    0.47999999    0.38000000
   12.06083393  111.40899658    0.47999999    0.36000001
   12.06416702  106.96499634    0.47999999    0.36000001
   12.06750011  111.52899933    0.47999999    0.36000001
   12.07083321  110.53600311    0.46000001    0.36000001
   12.07388878  126.51899719    0.46000001    0.36000001
   12.07722187  122.04299927    0.46000001    0.36000001
   12.08027744  117.07099915    0.46000001    0.34000000
   12.08083344  126.74800110    0.46000001    0.34000000
   12.08416653  109.15699768    0.46000001    0.34000000
   12.08722210  111.91200256    0.46000001    0.34000000
   12.09055519  124.96900177    0.46000001    0.34000000
   12.09388828  123.49600220    0.46000001    0.34000000
   12.09694386  121.18000031    0.46000001    0.31999999
   12.10027790  128.00000000    0.46000001    0.34000000
   12.10361195  126.01499939    0.46000001    0.34000000
   12.10666752  128.42399597    0.46000001    0.31999999
   12.11000061  116.20899963    0.46000001    0.31999999
   12.11305618  112.32299805    0.46000001    0.31999999
   12.11416721  138.97000122    0.46000001    0.31999999
   12.11666679  118.13300323    0.46000001    0.31999999
   12.11972237  132.24099731    0.46000001    0.31999999
   12.12305546  115.51100159    0.44000000    0.31999999
   12.12638855  109.84300232    0.44000000    0.30000001
   12.12944412  109.86799622    0.44000000    0.30000001
   12.13277817  117.76200104    0.44000000    0.30000001
   12.13611126  114.12599945    0.44000000    0.30000001
   12.13916683  113.72100067    0.44000000    0.28000000
   12.14249992  110.25399780    0.44000000    0.28000000
   12.14583302  109.40299988    0.44000000    0.28000000
   12.14750004  115.73100281    0.41999999    0.52999997
   12.14944458  114.99299622    3.93000007    2.42000008
   12.15249920  135.28399658    3.09999990    2.42000008
   12.15583324  116.46099854    2.55999994    2.42000008
   12.15916634  123.93800354    2.39000010    2.44000006
   12.16222191  109.73799896    2.30999994    2.44000006
   12.16555500  108.80200195    2.28999996    2.44000006
   12.16888905  116.17800140    2.26999998    2.44000006
   12.17194462  130.58000183    2.25000000    2.42000008
   12.17527771  127.22200012    2.26999998    2.44000006
   12.17833328  115.39800262    2.25000000    2.42000008
   12.18083382  132.24499512    2.25000000    2.42000008
   12.18222237  138.68899536    2.25000000    2.42000008
   12.18527794  130.85499573    2.26999998    2.42000008
   12.18861103  129.83900452    2.26999998    2.42000008
   12.19194412  114.76000214    2.26999998    2.42000008
   12.19499969  118.73500061    2.26999998    2.44000006
   12.19833374  113.29000092    2.26999998    2.44000006
   12.20166683  122.13300323    2.25000000    2.42000008
   12.20472240  111.05500031    2.25000000    2.42000008
   12.20805550  109.78099823    2.23000002    2.44000006
   12.21111107  113.80599976    2.23000002    2.42000008
   12.21416664  111.65399933    2.23000002    2.44000006
   12.21472168  119.73300171    2.23000002    2.44000006
   12.21777725  113.94100189    2.23000002    2.44000006
   12.22111034  116.36399841    2.21000004    2.44000006
   12.22444439  112.41699982    2.21000004    2.44000006
   12.22749996  112.44699860    2.21000004    2.44000006
   12.23083305  119.21600342    2.21000004    2.44000006
   12.23416710  106.94699860    2.21000004    2.44000006
   12.23722267  113.41300201    2.23000002    2.44000006
   12.24055576  112.63600159    2.21000004    2.44000006
   12.24361134  113.31800079    2.19000006    2.44000006
   12.24694443  107.62300110    2.17000008    2.44000006
   12.24750042  114.94499969    2.17000008    2.44000006
   12.25055599  113.59300232    2.17000008    2.44000006
   12.25388908  107.79699707    2.17000008    2.44000006
   12.25694466  107.76799774    2.19000006    2.44000006
   12.26027775  114.77600098    2.19000006    2.46000004
   12.26333332  112.60800171    2.21000004    2.46000004
   12.26666641  102.53399658    2.19000006    2.46000004
   12.26999950  111.01599884    2.19000006    2.44000006
   12.27305508  104.12699890    2.19000006    2.46000004
   12.27638817  111.28500366    2.17000008    2.46000004
   12.27972221  112.27300262    2.17000008    2.44000006
   12.28083324  112.08300018    2.17000008    2.44000006
   12.28333378  121.74400330    2.17000008    2.46000004
   12.28666687  110.55200195    2.15000010    2.46000004
   12.28972244  107.95999908    2.15000010    2.46000004
   12.29305553  117.15499878    2.15000010    2.46000004
   12.29611111  109.36399841    2.15000010    2.46000004
   12.29944515  110.43499756    2.17000008    2.46000004
   12.30277824  106.92299652    2.17000008    2.48000002
   12.30583382  118.31800079    2.17000008    2.46000004
   12.30916691  112.40499878    2.17000008    2.48000002
   12.31250000  114.43199921    2.17000008    2.46000004
   12.31416702  112.81400299    2.17000008    2.46000004
   12.31611156  107.43900299    2.19000006    2.46000004
   12.31944466  116.27500153    2.19000006    2.46000004
   12.32250023  118.14099884    2.19000006    2.46000004
   12.32583332  119.74199677    2.17000008    2.48000002
   12.32888889  110.35399628    2.17000008    2.48000002
   12.33222198  124.04900360    2.17000008    2.48000002
   12.33555508  114.93099976    2.17000008    2.48000002
   12.33861065  106.97599792    2.15000010    2.48000002
   12.34194374  123.09999847    2.13000011    2.46000004
   12.34527779  132.63900757    2.11999989    2.48000002
   12.34749985  120.58100128    2.13000011    2.48000002
   12.34888840  127.51699829    2.13000011    2.48000002
   12.35222244  125.16200256    2.11999989    2.48000002
   12.35527802  130.48199463    2.09999990    2.48000002
   12.35861111  120.86900330    2.11999989    2.48000002
   12.36166668  142.54800415    2.11999989    2.48000002
   12.36500072  118.11499786    2.09999990    2.48000002
   12.36833382  117.64299774    2.09999990    2.48000002
   12.37138939  124.64199829    2.09999990    2.48000002
   12.37472248  136.14799500    2.09999990    2.48000002
   12.37805557  149.12199402    2.07999992    2.48000002
   12.38083363  131.26199341    2.07999992    2.48000002
   12.38166714  125.79199982    2.07999992    2.48000002
   12.38500023  153.71499634    2.09999990    2.48000002
   12.38805580  130.31300354    2.07999992    2.48000002
   12.39138889  151.46299744    2.07999992    2.48000002
   12.39472198  133.02099609    2.07999992    2.48000002
   12.39777756  146.58500671    2.07999992    2.50000000
   12.40111065  146.63499451    2.07999992    2.50000000
   12.40416622  141.62699890    2.07999992    2.48000002
   12.40749931  158.51300049    2.05999994    2.48000002
   12.41083336  150.86500549    2.03999996    2.50000000
   12.41388893  149.01300049    2.03999996    2.50000000
   12.41444397  150.08900452    2.03999996    2.48000002
   12.41777802  154.74299622    2.01999998    2.48000002
   12.42083359  145.03799438    2.01999998    2.50000000
   12.42416668  136.25599670    2.03999996    2.48000002
   12.42750072  136.60400391    2.03999996    2.48000002
   12.43055630  144.57299805    2.03999996    2.50000000
   12.43388939  156.50500488    2.03999996    2.50000000
   12.43694496  140.44999695    2.05999994    2.50000000
   12.44027805  146.02900696    2.05999994    2.50000000
   12.44361115  144.24099731    2.05999994    2.48000002
   12.44666672  154.26199341    2.03999996    2.48000002
   12.44777775  137.87300110    2.03999996    2.48000002
   12.45027733  147.69200134    2.03999996    2.50000000
   12.45333290  143.36999512    2.01999998    2.50000000
   12.45666695  126.76999664    2.01999998    2.50000000
   12.46000004  148.79400635    2.00000000    2.50000000
   12.46305561  144.02200317    2.01999998    2.50000000
   12.46638870  129.23100281    2.01999998    2.51999998
   12.46944427  143.53300476    2.01999998    2.50000000
   12.47277737  125.32499695    2.01999998    2.50000000
   12.47611046  138.79600525    1.98000002    2.50000000
   12.47916603  143.56199646    1.98000002    2.50000000
   12.48111057  137.34500122    1.96000004    2.51999998
   12.48305511  118.94300079    1.96000004    2.51999998
   12.48611164  136.07200623    1.96000004    2.51999998
   12.48944473  125.39299774    1.94000006    2.50000000
   12.49250031  115.87799835    1.96000004    2.51999998
   12.49583340  123.99099731    1.98000002    2.51999998
   12.49916649  123.05200195    2.00000000    2.51999998
   12.50222206  122.03299713    2.00000000    2.51999998
   12.50555515  124.03399658    2.01999998    2.51999998
   12.50888920  134.23800659    2.01999998    2.51999998
   12.51194477  122.58399963    2.01999998    2.51999998
   12.51444435  133.38600159    2.00000000    2.51999998
   12.51583290  114.64499664    2.00000000    2.51999998
   12.51888847  132.13099670    1.98000002    2.51999998
   12.52222157  118.76599884    1.98000002    2.51999998
   12.52555561  120.76300049    1.89999998    2.51999998
   12.52861118  121.25700378    1.89999998    2.51999998
   12.53194427  111.89600372    1.88000000    2.51999998
   12.53500080  128.02499390    1.88000000    2.51999998
   12.53833389  120.16400146    1.89999998    2.51999998
   12.54166698  111.63500214    1.89999998    2.51999998
   12.54472256  111.05699921    1.91999996    2.51999998
   12.54777813  110.58100128    1.94000006    2.51999998
   12.54833412  106.48500061    1.94000006    2.51999998
   12.55138874  113.35099792    1.98000002    2.51999998
   12.55472279  120.71499634    2.00000000    2.51999998
   12.55805588  123.15399933    2.01999998    2.50000000
   12.56111145  127.34600067    2.03999996    2.50000000
   12.56444454  118.04599762    2.03999996    2.50000000
   12.56777763  113.79499817    2.01999998    2.50000000
   12.57083321  119.67099762    2.03999996    2.50000000
   12.57416630  124.47100067    2.05999994    2.50000000
   12.57750034  112.73500061    2.09999990    2.50000000
   12.58055592  112.61699677    2.07999992    2.51999998
   12.58111095  118.68199921    2.05999994    2.50000000
   12.58416653  121.61100006    2.07999992    2.50000000
   12.58722210  119.27100372    2.17000008    2.51999998
   12.59055519  117.28500366    2.32999992    2.51999998
   12.59388828  116.85199738    2.51999998    2.53999996
   12.59694386  115.94899750    2.76999998    2.53999996
   12.60027790  118.60600281    3.07999992    2.53999996
   12.60361195  108.26499939    3.50000000    2.55999994
   12.60666752  111.98999786    4.05999994    2.57999992
   12.61000061  113.95500183    4.76000023    2.55999994
   12.61305618  110.17099762    4.90999985    2.55999994
   12.61444473  108.16699982    4.90999985    2.55999994
   12.61694431  117.65899658    4.90999985    2.57999992
   12.61999989  113.34300232    4.90999985    2.57999992
   12.62333393  103.51200104    4.90999985    2.57999992
   12.62666702  120.38200378    4.90999985    2.57999992
   12.62972260  113.05100250    4.90999985    2.57999992
   12.63305569  109.05100250    4.90999985    2.57999992
   12.63611126  106.95600128    4.90999985    2.57999992
   12.63944435  114.95700073    4.90999985    2.57999992
   12.64277744  115.66899872    4.90999985    2.59999990
   12.64583302  117.08300018    4.90999985    2.57999992
   12.64777756  114.81999969    4.90999985    2.57999992
   12.64972210  114.09799957    4.90999985    2.57999992
   12.65277767  111.99700165    4.90999985    2.57999992
   12.65611076  107.57900238    4.90999985    2.55999994
   12.65944386  119.44400024    4.90999985    2.55999994
   12.66249943  112.38400269    4.90999985    2.55999994
   12.66583252  112.81400299    4.90999985    2.57999992
   12.66888905  116.02999878    4.90999985    2.57999992
   12.67222214  117.19499969    4.90999985    2.57999992
   12.67555618  108.39399719    4.90999985    2.57999992
   12.67861176  113.64800262    4.90999985    2.57999992
   12.68111134  113.21800232    4.90999985    2.59999990
   12.68249989  103.86499786    4.90999985    2.59999990
   12.68555546  109.93699646    4.90999985    2.59999990
   12.68888855  106.79199982    4.90999985    2.59999990
   12.69222260  113.74800110    4.90999985    2.61999989
   12.69527817  107.52400208    4.90999985    2.61999989
   12.69861126  101.43299866    4.90999985    2.64000010
   12.70166683  111.85199738    4.90999985    2.64000010
   12.70499992  110.25099945    4.90999985    2.64000010
   12.70833302  108.40200043    4.90999985    2.64000010
   12.71138859  110.17600250    4.90999985    2.64000010
   12.71444416  119.53900146    4.90999985    2.66000009
   12.71527767  119.19999695    4.90999985    2.66000009
   12.71833324  107.55699921    4.90999985    2.66000009
   12.72166634  108.76699829    4.90999985    2.64000010
   12.72499943  110.16200256    4.90999985    2.64000010
   12.72805500  108.88200378    4.90999985    2.64000010
   12.73138809  111.87400055    4.90999985    2.64000010
   12.73472214  106.61199951    4.90999985    2.64000010
   12.73805618  107.24800110    4.90999985    2.61999989
   12.74111176  105.99700165    4.90999985    2.59999990
   12.74444485  110.71199799    4.90999985    2.61999989
   12.76388931  109.26100159    4.90999985    2.55999994
   12.76444435  112.54000092    4.90999985    2.55999994
   12.88055611   -1.00000000   -1.00000000   -1.00000000
   12.97666645   -1.00000000   -1.00000000   -1.00000000
   13.08083344   -1.00000000   -1.00000000   -1.00000000
   13.17861176   -1.00000000   -1.00000000   -1.00000000
   13.27722168   -1.00000000   -1.00000000   -1.00000000
   13.37805557   -1.00000000   -1.00000000   -1.00000000
   13.47499943   -1.00000000   -1.00000000   -1.00000000
   13.57138920   -1.00000000   -1.00000000   -1.00000000
   13.67138958   -1.00000000   -1.00000000   -1.00000000
   13.70277786   76.71779633    4.90999985    2.80999994
   13.70611095  115.89800262    4.90999985    2.78999996
   13.70916653  117.08899689    4.90999985    2.80999994
   13.71249962  111.92600250    4.90999985    2.80999994
   13.71555519  112.94000244    4.90999985    2.80999994
   13.71888828  116.14600372    4.90999985    2.80999994
   13.72305489  116.14600372    4.90999985    2.82999992
   13.72722149  126.35600281    4.90999985    2.82999992
   13.73027706  116.43399811    4.73999977    2.82999992
   13.73361111  123.25499725    4.11999989    2.82999992
   13.73611164  124.06300354    4.11999989    2.82999992
   13.73694515  123.91400146    4.13999987    2.82999992
   13.74027824  129.41600037    3.48000002    2.82999992
   13.74361134  131.02900696    3.16000009    2.82999992
   13.74666691  122.87400055    3.16000009    2.82999992
   13.75000000  124.12699890    2.48000002    2.82999992
   13.75333309  126.96499634    2.42000008    2.82999992
   13.75638866  115.68900299    2.34999990    2.84999990
   13.75972176  119.84899902    1.86000001    2.82999992
   13.76583290  119.84899902    1.50000000    2.84999990
   13.76999950  118.07299805    1.44000006    2.86999989
   13.77333355  129.93099976    1.21000004    2.84999990
   13.77638817  125.11199951    1.11000001    2.86999989
   13.77972221  129.39100647    0.95999998    2.84999990
   13.78277779  117.23500061    0.89999998    2.86999989
   13.78611183  130.91600037    0.88000000    2.86999989
   13.78944492  123.92500305    0.86000001    2.86999989
   13.79250050  117.92299652    0.76999998    2.86999989
   13.79583359  116.54499817    0.75000000    2.86999989
   13.79888916  120.34500122    0.73000002    2.86999989
   13.80222225  123.18000031    0.70999998    2.86999989
   13.80277824  123.26399994    0.70999998    2.86999989
   13.80861092  123.26399994    0.67000002    2.84999990
   13.81277752  128.49600220    0.67000002    2.86999989
   13.81611156  130.60099792    0.67000002    2.86999989
   13.81916618  136.56799316    0.67000002    2.86999989
   13.82250023  129.47399902    0.64999998    2.86999989
   13.82555580  140.15899658    0.67000002    2.86999989
   13.82888889  131.95399475    0.64999998    2.86999989
   13.83222198  133.21000671    0.64999998    2.86999989
   13.83527756  119.25199890    0.64999998    2.84999990
   13.83611107  120.81199646    0.64999998    2.86999989
   13.83888817  137.15199280    0.64999998    2.86999989
   13.84222221  130.42399597    0.64999998    2.86999989
   13.84555531  136.20899963    0.64999998    2.84999990
   13.85138893  136.20899963    0.63000000    2.86999989
   13.85555553  130.80299377    0.63000000    2.86999989
   13.85888958  127.27300262    0.63000000    2.86999989
   13.86194515  140.02999878    0.61000001    2.86999989
   13.86527824  136.53599548    0.61000001    2.86999989
   13.86861134  139.88299561    0.61000001    2.84999990
   13.86944485  127.25900269    0.58999997    2.84999990
   13.87194443  143.50500488    0.58999997    2.84999990
   13.87527752  135.54699707    0.58999997    2.84999990
   13.87861156  139.32699585    0.56999999    2.82999992
   13.88194466  138.15199280    0.56999999    2.82999992
   13.88500023  143.07299805    0.56999999    2.82999992
   13.88833332  136.52699280    0.56999999    2.82999992
   13.89444447  136.52699280    0.55000001    2.80999994
   13.89861107  132.70799255    0.52999997    2.80999994
   13.90166664  133.25199890    0.52999997    2.78999996
   13.90277767  129.52600098    0.52999997    2.80999994
   13.90527725  134.04299927    0.52999997    2.78999996
   13.90833282  147.71800232    0.52999997    2.78999996
   13.91166592  146.28700256    0.51999998    2.76999998
   13.91499996  150.13299561    0.51999998    2.75000000
   13.91805553  132.45199585    0.51999998    2.76999998
   13.92138958  147.08399963    0.51999998    2.75000000
   13.92472267  151.12699890    0.51999998    2.75000000
   13.92777824  148.69700623    0.50000000    2.73000002
   13.93111134  137.03300476    0.50000000    2.73000002
   13.93722248  137.03300476    0.50000000    2.71000004
   13.94138908  143.12600708    0.47999999    2.64000010
   13.94472218  132.28300476    0.47999999    2.64000010
   13.94777775  144.02299500    0.47999999    2.57999992
   13.95111084  144.79100037    0.47999999    2.55999994
   13.95416641  133.58799744    0.47999999    2.55999994
   13.95749950  140.60600281    0.47999999    2.55999994
   13.96083355  139.61900330    0.47999999    2.55999994
   13.96388912  134.49400330    0.47999999    2.55999994
   13.96722221  138.97599792    0.46000001    2.50000000
   13.96944427  146.44500732    0.46000001    2.46000004
   13.97083282  138.37100220    0.46000001    2.46000004
   13.97388840  144.22900391    0.46000001    2.44000006
   13.97999954  144.22900391    0.44000000    2.34999990
   13.98416710  154.13900757    0.44000000    2.26999998
   13.98750019  145.67700195    0.44000000    2.17000008
   13.99083328  147.59899902    0.44000000    2.13000011
   13.99388885  148.45500183    0.44000000    2.13000011
   13.99722290  153.87399292    0.41999999    2.05999994
   14.00027752  153.94000244    0.41999999    2.05999994
   14.00277805  142.96600342    0.41999999    1.96000004
   14.00416660  150.64300537    0.41999999    1.94000006
   14.00722218  143.73800659    0.40000001    1.94000006
   14.01055527  173.71800232    0.40000001    1.83000004
   14.01388931  147.91600037    0.40000001    1.78999996
   14.01694393  149.42199707    0.40000001    1.76999998
   14.02305508  149.42199707    0.40000001    1.60000002
   14.02722168  155.76600647    0.40000001    1.60000002
   14.03027725  157.59599304    0.38000000    1.39999998
   14.03361130  146.53300476    0.38000000    1.34000003
   14.03611183  134.87300110    0.38000000    1.34000003
   14.03722286  152.94799805    0.38000000    1.34000003
   14.04027843  156.12199402    0.38000000    1.19000006
   14.04361153  142.82400513    0.38000000    1.14999998
   14.04694462  164.04100037    0.38000000    1.13000000
   14.05000019  157.51600647    0.38000000    1.11000001
   14.05333328  152.86500549    0.38000000    1.11000001
   14.05666733  136.45199585    0.38000000    1.07000005
   14.05972195  149.62899780    0.36000001    1.03999996
   14.06583309  149.62899780    0.36000001    1.00000000
   14.06999969  149.12199402    0.36000001    0.98000002
   14.07305527  139.58099365    0.36000001    1.00000000
   14.07638836  150.73899841    0.36000001    1.00000000
   14.07972240  152.85800171    0.34000000    0.98000002
   14.08277798  164.13200378    0.36000001    0.98000002
   14.08611107  161.30400085    0.34000000    0.98000002
   14.08944416  171.49000549    0.34000000    0.95999998
   14.09249973  157.42799377    0.34000000    0.98000002
   14.09583282  158.17100525    0.34000000    0.94000000
   14.09888840  160.81399536    0.34000000    0.94000000
   14.10222244  175.30999756    0.34000000    0.92000002
   14.10277843  167.53599548    0.34000000    0.89999998
   14.10861111  167.53599548    0.31999999    0.83999997
   14.11277771  158.55400085    0.31999999    0.81999999
   14.11611176  155.57600403    0.31999999    0.81999999
   14.11916637  174.15100098    0.31999999    0.75000000
   14.12250042  162.49899292    0.31999999    0.75000000
   14.12555599  166.37199402    0.31999999    0.75000000
   14.12888908  164.11799622    0.31999999    0.70999998
   14.13222218  161.82200623    0.31999999    0.70999998
   14.13527775  161.18899536    0.31999999    0.70999998
   14.13611126  151.85600281    0.31999999    0.70999998
   14.13888836  150.54200745    0.31999999    0.70999998
   14.14194393  135.49699402    0.31999999    0.70999998
   14.14527798  149.75999451    0.31999999    0.69000000
   14.15138817  149.75999451    0.34000000    0.69000000
   14.15555477  161.18299866    0.34000000    0.69000000
   14.15888882  164.46699524    0.34000000    0.69000000
   14.16194439  141.69799805    0.34000000    0.69000000
   14.16527748  156.04200745    0.34000000    0.69000000
   14.16861153  156.11399841    0.34000000    0.69000000
   14.16944504  156.97599792    0.34000000    0.69000000
   14.17222214  148.62300110    0.34000000    0.69000000
   14.17527771  158.20599365    0.31999999    0.69000000
   14.17861176  163.87600708    0.31999999    0.69000000
   14.18194485  171.39599609    0.31999999    0.69000000
   14.18500042  172.39100647    0.31999999    0.69000000
   14.18833351  182.09899902    0.34000000    0.76999998
   14.19444466  182.09899902    0.31999999    0.75000000
   14.19833374  167.98500061    0.31999999    0.76999998
   14.20166683  175.02299500    0.31999999    0.75000000
   14.20277786  176.41999817    0.31999999    0.75000000
   14.20527744  165.80999756    0.31999999    0.75000000
   14.20833302  165.31799316    0.31999999    0.73000002
   14.21166611  173.15499878    0.30000001    0.69000000
   14.21500015  157.87800598    0.30000001    0.69000000
   14.21805477  163.49400330    0.30000001    0.70999998
   14.22138882  187.67900085    0.30000001    0.70999998
   14.22472191  168.42999268    0.30000001    0.73000002
   14.22777748  164.53999329    0.30000001    0.73000002
   14.23111057  185.68699646    0.30000001    0.73000002
   14.23722267  185.68699646    0.30000001    0.75000000
   14.24138927  177.61099243    0.30000001    0.75000000
   14.24444485  173.48100281    0.30000001    0.75000000
   14.24777794  174.24800110    0.30000001    0.76999998
   14.25111103  163.20199585    0.30000001    0.76999998
   14.25416660  166.34399414    0.30000001    0.76999998
   14.25749969  160.10000610    0.30000001    0.76999998
   14.26055527  172.54699707    0.30000001    0.79000002
   14.26388931  184.02999878    0.31999999    0.76999998
   14.26722240  180.91000366    0.30000001    0.76999998
   14.26944447  185.14799500    0.31999999    0.76999998
   14.27083302  169.79699707    0.31999999    0.79000002
   14.27388859  190.92199707    0.31999999    0.76999998
   14.27999973  190.92199707    0.31999999    0.70999998
   14.28416729  192.39799500    0.31999999    0.70999998
   14.28722286  198.38299561    0.31999999    0.70999998
   14.29055595  171.28900146    0.31999999    0.70999998
   14.29388905  180.01199341    0.31999999    0.70999998
   14.29694462  199.93499756    0.31999999    0.70999998
   14.30027771  196.73899841    0.31999999    0.70999998
   14.30277824  185.99000549    0.31999999    0.70999998
   14.30388927  164.96600342    0.31999999    0.70999998
   14.30694485  162.07800293    0.31999999    0.70999998
   14.31027794  157.76300049    0.31999999    0.73000002
   14.31361103  160.14300537    0.31999999    0.73000002
   14.31666660  176.68899536    0.31999999    0.73000002
   14.32277775  176.68899536    0.30000001    0.75000000
   14.32694435  156.28399658    0.30000001    0.76999998
   14.33027744  166.44900513    0.30000001    0.76999998
   14.33333302  177.63000488    0.30000001    0.76999998
   14.33611107  157.87300110    0.30000001    0.79000002
   14.33722210  181.63400269    0.30000001    0.79000002
   14.34027767  187.44599915    0.30000001    0.79000002
   14.34361076  179.82600403    0.30000001    0.79000002
   14.34694386  197.65499878    0.30000001    0.80000001
   14.35000038  165.19099426    0.31999999    0.80000001
   14.35333347  172.34599304    0.30000001    0.81999999
   14.35666752  164.88600159    0.30000001    0.81999999
   14.35972214  162.24899292    0.30000001    0.81999999
   14.36583328  162.24899292    0.30000001    0.81999999
   14.36972237  182.89799500    0.30000001    0.81999999
   14.37305546  131.91600037    0.30000001    0.81999999
   14.37638855  164.30200195    0.30000001    0.81999999
   14.37944412  142.72000122    0.28000000    0.81999999
   14.38277817  133.88099670    0.28000000    0.83999997
   14.38583279  148.24800110    0.28000000    0.83999997
   14.38916683  149.86099243    0.28000000    0.83999997
   14.39249992  138.75999451    0.28000000    0.81999999
   14.39555550  152.97900391    0.28000000    0.81999999
   14.39888859  142.25900269    0.28000000    0.81999999
   14.40222168  154.07899475    0.28000000    0.83999997
   14.40277767  137.29299927    0.28000000    0.81999999
   14.40861034  137.29299927    0.28000000    0.83999997
   14.41277695  127.39199829    0.28000000    0.83999997
   14.41583252  135.58099365    0.28000000    0.83999997
   14.41916656  153.24699402    0.28000000    0.83999997
   14.42250061  134.65199280    0.28000000    0.83999997
   14.42555618  148.08799744    0.28000000    0.83999997
   14.42888927  130.64300537    0.28000000    0.83999997
   14.43194485  132.88699341    0.28000000    0.83999997
   14.43527794  151.29600525    0.28000000    0.83999997
   14.43611145  131.91799927    0.28000000    0.83999997
   14.43888855  134.97099304    0.28000000    0.83999997
   14.44222260  150.22900391    0.28000000    0.83999997
   14.44527817  142.44700623    0.28000000    0.83999997
   14.45138836  142.44700623    0.28000000    0.83999997
   14.45555496  152.97200012    0.28000000    0.83999997
   14.45888901  162.34899902    0.25999999    0.83999997
   14.46194458  139.47399902    0.25999999    0.83999997
   14.46527767  130.35699463    0.25999999    0.83999997
   14.46861076  149.00999451    0.25999999    0.83999997
   14.46944427  161.97900391    0.25999999    0.83999997
   14.47222137  148.78999329    0.25999999    0.83999997
   14.47555542  131.67100525    0.25999999    0.83999997
   14.47861099  159.06599426    0.25999999    0.83999997
   14.48194408  136.68299866    0.25999999    0.83999997
   14.48500061  141.72000122    0.28000000    0.83999997
   14.48833370  150.60099792    0.28000000    0.83999997
   14.49416733  150.60099792    0.28000000    0.83999997
   14.49833393  148.40699768    0.28000000    0.83999997
   14.50166702  142.59100342    0.28000000    0.83999997
   14.50277805  128.94400024    0.28000000    0.83999997
   14.50527763  146.21400452    0.28000000    0.83999997
   14.50861073  134.13999939    0.28000000    0.83999997
   14.51166630  138.98399353    0.28000000    0.83999997
   14.51500034  134.81199646    0.28000000    0.83999997
   14.51805496  134.86599731    0.28000000    0.83999997
   14.52138901  119.36399841    0.28000000    0.83999997
   14.52472210  136.60099792    0.28000000    0.81999999
   14.52777767  138.02400208    0.28000000    0.83999997
   14.53111076  144.96200562    0.28000000    0.83999997
   14.53722286  144.96200562    0.28000000    0.83999997
   14.54111195  126.67600250    0.25999999    0.81999999
   14.54444504  120.80899811    0.25999999    0.81999999
   14.54777813  137.79800415    2.11999989    2.78999996
   14.55083370  133.25900269    1.50000000    2.78999996
   14.55416679  132.77400208    1.50000000    2.78999996
   14.55749989  121.84799957    1.28999996    2.78999996
   14.56055546  121.95800018    1.07000005    2.78999996
   14.56388950  121.32199860    0.94000000    2.80999994
   14.56694412  124.33899689    0.94000000    2.78999996
   14.56944466  120.35600281    0.94000000    2.78999996
   14.57055569  110.79399872    0.94000000    2.78999996
   14.57388878  109.22799683    0.94000000    2.78999996
   14.57999992  109.22799683    0.95999998    2.78999996
   14.58416653  115.31900024    0.95999998    2.78999996
   14.58722210  116.20800018    0.94000000    2.78999996
   14.59055519  126.81800079    0.94000000    2.78999996
   14.59388828  112.30000305    0.94000000    2.78999996
   14.59694386  111.88099670    0.94000000    2.78999996
   14.60027790  113.83200073    0.94000000    2.78999996
   14.60277843  121.13500214    0.94000000    2.78999996
   14.60388947  116.86199951    0.94000000    2.78999996
   14.60722256  119.00499725    0.92000002    2.78999996
   14.61027813  116.14399719    0.94000000    2.78999996
   14.61361122  109.40299988    0.92000002    2.78999996
   14.61666679  112.06199646    0.92000002    2.78999996
   14.62277794  112.06199646    0.92000002    2.78999996
   14.62694454  116.18000031    0.92000002    2.80999994
   14.63027763  122.58200073    0.92000002    2.78999996
   14.63333321  120.13300323    0.92000002    2.78999996
   14.63611126  112.48799896    0.92000002    2.78999996
   14.63694477  110.56900024    0.92000002    2.78999996
   14.64027786  115.00800323    0.92000002    2.78999996
   14.64333344  111.27100372    0.92000002    2.78999996
   14.64666653  111.30400085    0.92000002    2.78999996
   14.64972210  109.26399994    0.92000002    2.78999996
   14.65305519  105.58899689    0.92000002    2.78999996
   14.65638828  106.97699738    0.92000002    2.78999996
   14.65944386  107.04799652    0.92000002    2.78999996
   14.66555500  107.04799652    0.92000002    2.78999996
   14.66972256  113.83000183    0.92000002    2.80999994
   14.67305565  108.95700073    0.92000002    2.78999996
   14.67611122   95.95760345    0.94000000    2.80999994
   14.67944431  114.45200348    0.92000002    2.78999996
   14.68277836  111.68299866    0.92000002    2.76999998
   14.68583298  104.89600372    0.92000002    2.78999996
   14.68916702  103.35900116    0.92000002    2.76999998
   14.69250011  103.47699738    0.92000002    2.76999998
   14.69555569   98.19020081    0.94000000    2.76999998
   14.69888878  108.04599762    0.94000000    2.76999998
   14.70194435  110.80500031    0.94000000    2.76999998
   14.70277786  102.73999786    0.94000000    2.78999996
   14.72361088  102.73999786    1.00000000    2.76999998
   14.72777748   99.59709930    1.00000000    2.76999998
   14.73111057   96.27719879    1.00000000    2.76999998
   14.73416710  105.60700226    1.01999998    2.76999998
   14.73611164  102.43499756    1.00000000    2.76999998
   14.73777771  105.52600098    1.00000000    2.76999998
   14.74111176  105.12799835    1.00000000    2.78999996
   14.74416733  108.12000275    1.00000000    2.76999998
   14.74750042  107.17199707    1.00000000    2.76999998
   14.75083351  102.44499969    1.00000000    2.76999998
   14.75388908  104.67199707    1.00000000    2.76999998
   14.75722218  100.28099823    0.98000002    2.76999998
   14.76027775   94.99960327    0.98000002    2.76999998
   14.76638889   94.99960327    1.00000000    2.78999996
   14.77055550  105.84200287    1.01999998    2.76999998
   14.77361107  102.03199768    1.05999994    2.76999998
   14.77694416   97.12709808    1.03999996    2.78999996
   14.78027725  105.32900238    1.07000005    2.78999996
   14.78333378  117.59100342    1.07000005    2.78999996
   14.78666687  104.58799744    1.11000001    2.78999996
   14.79000092   96.33290100    1.19000006    2.78999996
   14.79305553   92.27290344    1.21000004    2.76999998
   14.79638958   97.50789642    1.34000003    2.76999998
   14.79944515   91.29499817    1.39999998    2.75000000
   14.80277824  107.38099670    1.41999996    2.76999998
   14.80333328   93.94219971    1.41999996    2.76999998
   14.80916691   93.94219971    1.50000000    2.78999996
   14.81333351  102.51799774    1.66999996    2.78999996
   14.81666660   96.06770325    1.73000002    2.78999996
   14.81972218   96.88939667    1.76999998    2.78999996
   14.82305527  103.24199677    1.83000004    2.78999996
   14.82611084   99.85890198    1.86000001    2.78999996
   14.82944393   96.82009888    2.13000011    2.78999996
   14.83277798  100.96199799    2.15000010    2.78999996
   14.83583260   97.68769836    2.15000010    2.78999996
   14.83666611  101.50000000    2.28999996    2.78999996
   14.83944416   95.67350006    2.39000010    2.78999996
   14.84277725   94.36650085    2.39000010    2.78999996
   14.84611034   97.81569672    2.39000010    2.80999994
   14.85194492   97.81569672    2.40000010    2.78999996
   14.85611153   97.23529816    2.42000008    2.78999996
   14.85944462  100.63300323    2.42000008    2.78999996
   14.86250019   93.61840057    2.44000006    2.78999996
   14.86583328  104.77500153    2.44000006    2.78999996
   14.86916637   94.32949829    2.46000004    2.78999996
   14.86999989   85.96009827    2.48000002    2.78999996
   14.87250042   86.69760132    2.48000002    2.78999996
   14.87583351   94.73000336    2.55999994    2.78999996
   14.87916660   82.41500092    2.57999992    2.78999996
   14.88222218   99.31300354    2.66000009    2.78999996
   14.88555527   89.97029877    2.67000008    2.78999996
   14.88888836   99.00299835    3.03999996    2.82999992
   14.89499950   99.00299835    3.50000000    2.82999992
   14.89888859  107.71800232    3.97000003    2.82999992
   14.90222168  105.75900269    4.61999989    2.82999992
   14.90333271   93.94300079    4.61999989    2.82999992
   14.90583324  117.94300079    4.61999989    2.82999992
   14.90916634  103.62000275    4.90999985    2.82999992
   14.91249943  105.49500275    4.90999985    2.84999990
   14.91555500   93.67369843    4.90999985    2.84999990
   14.91888905   91.33999634    4.90999985    2.84999990
   14.92222214  103.80799866    4.90999985    2.84999990
   14.92527771  103.79199982    4.90999985    2.82999992
   14.92861176   97.87380219    4.90999985    2.82999992
   14.93166733   96.93190002    4.90999985    2.82999992
   14.93777752   96.93190002    4.90999985    2.82999992
   14.94194412   94.20079803    4.90999985    2.82999992
   14.94499969  105.79299927    4.90999985    2.82999992
   14.94833374  115.84700012    4.90999985    2.82999992
   14.95166683  104.36799622    4.90999985    2.82999992
   14.95472240   98.50219727    4.90999985    2.84999990
   14.95805550  108.38999939    4.90999985    2.84999990
   14.96111107  108.94999695    4.90999985    2.82999992
   14.96444416   95.46389771    4.90999985    2.84999990
   14.96777725  108.43599701    4.90999985    2.84999990
   14.96999931  121.94799805    4.90999985    2.84999990
   14.97111034   91.69129944    4.90999985    2.84999990
   14.97444439   94.05100250    4.90999985    2.84999990
   14.98055553   94.05100250    4.90999985    2.82999992
   14.98472214   92.01419830    4.90999985    2.84999990
   14.98805618   93.93499756    4.90999985    2.84999990
   14.99111176  101.00700378    4.90999985    2.84999990
   14.99444485   89.55909729    4.90999985    2.84999990
   14.99750042   88.78820038    4.90999985    2.84999990
   15.00083351   94.91239929    4.90999985    2.82999992
   15.00333309   91.52760315    4.90999985    2.84999990
   15.00444412   97.13849640    4.90999985    2.84999990
   15.00777817   92.59539795    4.90999985    2.82999992
   15.01111126   86.39769745    4.90999985    2.84999990
   15.01416683   99.50209808    4.90999985    2.84999990
   15.01749992   92.26249695    4.90999985    2.84999990
   15.02333355   92.26249695    4.90999985    2.86999989
   15.02750015   97.72930145    4.90999985    2.84999990
   15.03083324   90.13999939    4.90999985    2.84999990
   15.03388977   85.73539734    4.90999985    2.84999990
   15.03666687   91.59809875    4.90999985    2.82999992
   15.03750038   98.66699982    4.90999985    2.82999992
   15.04083347   95.02159882    4.90999985    2.84999990
   15.04416752   87.36650085    4.90999985    2.84999990
   15.04750061   88.60040283    4.90999985    2.84999990
   15.05055618   87.38009644    4.90999985    2.84999990
   15.05388927   90.13960266    4.90999985    2.84999990
   15.05722237   91.99800110    4.90999985    2.84999990
   15.06027794   90.85109711    4.90999985    2.84999990
   15.06638908   90.85109711    4.90999985    2.84999990
   15.07055569  105.23000336    4.90999985    2.82999992
   15.07361126  101.75800323    4.90999985    2.86999989
   15.07694435  109.32599640    4.90999985    2.86999989
   15.08027744  103.30100250    4.90999985    2.84999990
   15.08333302  104.09899902    4.90999985    2.84999990
   15.08666611  113.67900085    4.90999985    2.84999990
   15.09000015  106.62500000    4.90999985    2.84999990
   15.09305477  110.36000061    4.90999985    2.84999990
   15.09638882   95.89600372    4.90999985    2.84999990
   15.09944439  103.77999878    4.90999985    2.86999989
   15.10277843   93.42050171    4.90999985    2.84999990
   15.10333347   88.65309906    4.90999985    2.86999989
   15.10916710   88.65309906    4.90999985    2.84999990
   15.11333370   94.61419678    4.90999985    2.84999990
   15.11666679   98.08309937    4.90999985    2.86999989
   15.11972237   92.27459717    4.90999985    2.86999989
   15.12305546   96.72309875    4.90999985    2.86999989
   15.12638855   79.48259735    4.90999985    2.86999989
   15.12944412   91.73480225    4.90999985    2.86999989
   15.13249969   86.29570007    4.90999985    2.86999989
   15.13583279   87.47229767    4.90999985    2.86999989
   15.13666630   85.44819641    4.90999985    2.86999989
   15.13916683   88.79190063    4.90999985    2.89000010
   15.14249992   92.29669952    4.90999985    2.89000010
   15.14583302   92.84889984    4.90999985    2.89000010
   15.15194416   92.84889984    4.90999985    2.89000010
   15.15611076   90.76840210    4.90999985    2.91000009
   15.15944386   94.13659668    4.90999985    2.91000009
   15.16249943   97.21340179    4.90999985    2.91000009
   15.16583252   89.99120331    4.90999985    2.89000010
   15.16888905   93.44349670    4.90999985    2.93000007
   15.17000008   98.18209839    4.90999985    2.91000009
   15.17250061   91.36669922    4.90999985    2.91000009
   15.17583370   84.29889679    4.90999985    2.93000007
   15.17916679   87.56379700    4.90999985    2.93000007
   15.18222237   89.66870117    4.90999985    2.93000007
   15.18555546   90.97840118    4.90999985    2.93000007
   15.18888855   86.95790100    4.90999985    2.93000007
   15.19472218   86.95790100    4.90999985    2.93000007
   15.19888878   92.64669800    4.90999985    2.93000007
   15.20222187   95.70939636    4.90999985    2.93000007
   15.20333290   93.61380005    4.90999985    2.93000007
   15.20583344   88.95629883    4.90999985    2.93000007
   15.20888901   89.66950226    4.90999985    2.93000007
   15.21222210   91.72650146    4.90999985    2.94000006
   15.21527767   94.18640137    4.90999985    2.93000007
   15.21861076   98.55899811    4.90999985    2.93000007
   15.22194386   93.50869751    4.90999985    2.93000007
   15.22499943   96.39749908    4.90999985    2.93000007
   15.22833252   96.63300323    4.90999985    2.93000007
   15.23166656   96.16649628    4.90999985    2.94000006
   15.23777771   96.16649628    4.90999985    2.94000006
   15.24166679   95.94400024    4.90999985    2.93000007
   15.24499989   91.92279816    4.90999985    2.93000007
   15.24833393   88.37020111    4.90999985    2.93000007
   15.25138855   91.50199890    4.90999985    2.93000007
   15.25472260   92.72840118    4.90999985    2.93000007
   15.25805569   94.54989624    4.90999985    2.93000007
   15.26111126   89.13040161    4.90999985    2.91000009
   15.26444435   93.32219696    4.90999985    2.91000009
   15.26749992   89.51529694    4.90999985    2.91000009
   15.26999950   90.65619659    4.90999985    2.91000009
   15.27138901   95.07379913    4.90999985    2.91000009
   15.27444458   96.29889679    4.90999985    2.91000009
   15.28055573   96.29889679    4.90999985    2.89000010
   15.28472233  102.54299927    4.90999985    2.89000010
   15.28777790   90.40750122    4.90999985    2.89000010
   15.29111195   83.41790009    4.90999985    2.86999989
   15.29444504   95.88289642    4.90999985    2.86999989
   15.29750061   89.38130188    4.90999985    2.89000010
   15.30083370   82.29830170    4.90999985    2.86999989
   15.30333328   87.89019775    4.90999985    2.84999990
   15.30444431   90.24430084    4.90999985    2.86999989
   15.30749989   88.86830139    4.90999985    2.86999989
   15.31083393   87.43620300    4.90999985    2.84999990
   15.31416702   93.93350220    4.90999985    2.84999990
   15.31722260   97.83439636    4.90999985    2.86999989
   15.32333374   97.83439636    4.90999985    2.84999990
   15.32750034   97.07140350    4.90999985    2.84999990
   15.33083344   97.99710083    4.90999985    2.84999990
   15.33388901   99.31469727    4.90999985    2.84999990
   15.33666611   92.84629822    4.90999985    2.84999990
   15.33777714   92.89759827    4.90999985    2.84999990
   15.34083271   94.22080231    4.90999985    2.84999990
   15.34416676   95.93219757    4.90999985    2.84999990
   15.34749985  108.98300171    4.90999985    2.84999990
   15.35055637   97.07669830    4.90999985    2.82999992
   15.35388947   89.32869720    4.90999985    2.82999992
   15.35722256   98.62989807    4.90999985    2.82999992
   15.36027813  100.73999786    4.90999985    2.84999990
   15.36638927  100.73999786    4.90999985    2.82999992
   15.37027836  101.66000366    4.90999985    2.84999990
   15.37361145  100.14800262    4.90999985    2.82999992
   15.37694454   98.13819885    4.90999985    2.84999990
   15.38000011   89.06479645    4.90999985    2.84999990
   15.38333321  100.01399994    4.90999985    2.84999990
   15.38638878  102.08699799    4.90999985    2.84999990
   15.38972187   93.64029694    4.90999985    2.86999989
   15.39305496   99.77339935    4.90999985    2.86999989
   15.39611053  101.01000214    4.90999985    2.86999989
   15.39944458  105.99400330    4.90999985    2.89000010
   15.40277767   98.16699982    4.90999985    2.89000010
   15.40333271  103.16999817    4.90999985    2.89000010
   15.40916634  103.16999817    4.90999985    2.89000010
   15.41305542   96.30229950    4.90999985    2.89000010
   15.41638851   99.46160126    4.90999985    2.91000009
   15.41972256   97.56909943    4.90999985    2.91000009
   15.42277813   95.92749786    4.90999985    2.91000009
   15.42611122   91.82399750    4.90999985    2.93000007
   15.42944431   92.87049866    4.90999985    2.93000007
   15.43249989   96.76899719    4.90999985    2.93000007
   15.43583298   92.53459930    4.90999985    2.93000007
   15.43666649   92.69280243    4.90999985    2.94000006
   15.43944454   92.51229858    4.90999985    2.94000006
   15.44250011   89.62280273    4.90999985    2.94000006
   15.44583321   96.74179840    4.90999985    2.94000006
   15.45194435   96.74179840    4.90999985    2.94000006
   15.45611095   92.24780273    4.90999985    2.94000006
   15.45916653   99.65319824    4.90999985    2.94000006
   15.46249962   92.64189911    4.90999985    2.94000006
   15.46583271  102.23899841    4.90999985    2.94000006
   15.46888828   93.23149872    4.90999985    2.94000006
   15.46999931   91.42759705    4.90999985    2.94000006
   15.47249985   96.65429688    4.90999985    2.94000006
   15.47555542   88.82510376    4.90999985    2.94000006
   15.47888851   88.33020020    4.90999985    2.94000006
   15.48222160   90.20069885    4.90999985    2.94000006
   15.48527813   90.87760162    4.90999985    2.96000004
   15.48861122   90.35710144    4.90999985    2.94000006
   15.49472237   90.35710144    4.90999985    2.96000004
   15.49888897   93.19319916    4.90999985    2.96000004
   15.50222206   95.26599884    4.90999985    2.98000002
   15.50333309   93.57830048    4.90999985    2.98000002
   15.50583363   89.35569763    4.90999985    2.98000002
   15.50888920   87.28130341    4.90999985    2.98000002
   15.51222229   92.98090363    4.90999985    2.98000002
   15.51555538   97.22399902    4.90999985    2.98000002
   15.51861095   94.98799896    4.90999985    2.98000002
   15.52194405   95.31330109    4.90999985    2.98000002
   15.52499962   89.17009735    4.90999985    2.98000002
   15.52833271   89.87419891    4.32999992    2.98000002
   15.53166676   92.90249634    4.34999990    2.98000002
   15.53750038   92.90249634    3.07999992    2.98000002
   15.54166698   96.45210266    2.91000009    2.98000002
   15.54500008   95.24530029    2.75000000    2.98000002
   15.54833412   92.82450104    2.07999992    2.98000002
   15.55138874   98.34919739    1.78999996    2.98000002
   15.55472279   97.55059814    1.80999994    2.98000002
   15.55805588   91.84690094    1.39999998    2.98000002
   15.56111145   94.02870178    1.07000005    2.98000002
   15.56444454   99.52749634    1.09000003    2.98000002
   15.56777763   93.50900269    0.95999998    2.98000002
   15.56999969   99.19840240    0.94000000    2.98000002
   15.57138920   93.99230194    0.94000000    2.98000002
   15.57444477   97.16049957    0.86000001    2.98000002
   15.58055592   97.16049957    0.75000000    2.98000002
   15.58472157   91.25980377    0.75000000    2.98000002
   15.58777714   98.70570374    0.75000000    2.98000002
   15.59111118   95.70629883    0.73000002    2.98000002
   15.59416676   87.03869629    0.73000002    2.98000002
   15.59749985   96.81999969    0.73000002    2.98000002
   15.60083389   99.70420074    0.73000002    2.98000002
   15.60361195   92.57990265    0.73000002    2.98000002
   15.60472298   98.56099701    0.73000002    2.98000002
   15.60805607   97.31259918    0.69000000    2.98000002
   15.61111164   93.10369873    0.58999997    2.96000004
   15.61444473   92.07129669    0.58999997    2.98000002
   15.61750031   96.95709991    0.52999997    2.96000004
   15.62333393   96.95709991    0.50000000    2.96000004
   15.62750053   94.51110077    0.46000001    2.96000004
   15.63055611  100.75700378    0.46000001    2.94000006
   15.63388920   99.62249756    0.46000001    2.96000004
   15.63666630  103.33699799    0.44000000    2.94000006
   15.63749981  100.97200012    0.44000000    2.96000004
   15.64055538  104.38400269    0.41999999    2.94000006
   15.64388847   97.01399994    0.41999999    2.94000006
   15.64722252  109.63300323    0.41999999    2.94000006
   15.65027714  103.72799683    0.40000001    2.94000006
   15.65361118  103.78700256    0.40000001    2.93000007
   15.65666676   97.19809723    0.41999999    2.93000007
   15.65999985   96.73690033    0.40000001    2.93000007
   15.66611099   96.73690033    0.40000001    2.91000009
   15.67027855  103.83300018    0.40000001    2.91000009
   15.67361164   93.73390198    0.40000001    2.91000009
   15.67666721   97.24749756    0.40000001    2.89000010
   15.68000031   96.46340179    0.38000000    2.89000010
   15.68305588   95.97619629    0.38000000    2.86999989
   15.68638897   94.67980194    0.38000000    2.89000010
   15.68972206  103.00000000    0.38000000    2.84999990
   15.69277763  104.97699738    0.38000000    2.82999992
   15.69611073  103.35900116    0.40000001    2.80999994
   15.69944477   94.77230072    0.40000001    2.78999996
   15.70249939   99.04100037    0.40000001    2.80999994
   15.70333290   98.34329987    0.40000001    2.78999996
   15.70888901   98.34329987    0.40000001    2.78999996
   15.71305561  100.06400299    0.38000000    2.80999994
   15.71638870   96.83799744    0.38000000    2.80999994
   15.71972179  103.83499908    0.38000000    2.80999994
   15.73722267   97.10330200    0.38000000    2.78999996
   15.73972225   95.17780304    0.38000000    2.78999996
   15.74305534  101.80799866    0.38000000    2.78999996
   15.74611092  100.24299622    0.40000001    2.76999998
   15.75194454  100.24299622    0.38000000    2.71000004
   15.75611115   97.03469849    0.38000000    2.71000004
   15.75944424  101.05599976    0.36000001    2.64000010
   15.76249981   91.72389984    0.36000001    2.64000010
   15.76583290   96.19740295    0.36000001    2.57999992
   15.76916599   94.59420013    0.36000001    2.51999998
   15.77055550   91.26540375    0.34000000    2.48000002
   15.77277756   95.96369934    0.34000000    2.42000008
   15.77583313   91.74449921    0.36000001    2.42000008
   15.77916622   93.74490356    0.34000000    2.34999990
   15.78222179   92.26750183    0.34000000    2.28999996
   15.78555584   95.24130249    0.34000000    2.26999998
   15.78888893   92.72489929    0.34000000    2.15000010
   15.79472256   92.72489929    0.31999999    2.07999992
   15.79888916   94.63619995    0.31999999    1.94000006
   15.80222225   93.68470001    0.31999999    1.94000006
   15.80388927   95.54340363    0.31999999    1.91999996
   15.80555534   99.00620270    0.31999999    1.85000002
   15.80888939   97.70790100    0.30000001    1.66999996
   15.81222248  101.24700165    0.30000001    1.66999996
   15.81527805   96.94940186    0.30000001    1.60000002
   15.81861115  103.00000000    0.30000001    1.46000004
   15.82194424   95.21279907    0.30000001    1.46000004
   15.82499981   88.68789673    0.30000001    1.46000004
   15.82833290   96.11150360    0.30000001    1.46000004
   15.83138847   97.86060333    0.30000001    1.46000004
   15.83777714   97.86060333    0.30000001    1.46000004
   15.84166622   93.82759857    0.30000001    1.46000004
   15.84499931   93.19869995    0.30000001    1.46000004
   15.84833336   97.55030060    0.31999999    1.46000004
   15.85138893   90.81670380    0.30000001    1.46000004
   15.85472298   89.20140076    0.30000001    1.44000006
   15.85805607   98.52719879    0.30000001    1.44000006
   15.86111164   98.38400269    0.30000001    1.36000001
   15.86444473   98.05879974    0.28000000    1.30999994
   15.86750031   92.80419922    0.28000000    1.28999996
   15.87055588   98.42430115    0.28000000    1.25000000
   15.87111092   99.66850281    0.28000000    1.16999996
   15.87444496   95.68740082    0.28000000    1.09000003
   15.88055611   95.68740082    0.25999999    1.03999996
   15.88472176   92.88659668    0.25999999    0.83999997
   15.88777733   98.44509888    0.25999999    0.83999997
   15.89111137   97.33350372    0.25999999    0.81999999
   15.89444447   90.43049622    0.25999999    0.76999998
   15.89750004   89.21800232    0.25999999    0.73000002
   15.90083313   87.98349762    0.25999999    0.73000002
   15.90388870   88.81150055    0.25999999    0.70999998
   15.90444374   86.05609894    0.25999999    0.70999998
   15.90749931   89.62220001    0.25999999    0.70999998
   15.91083336   88.06159973    0.28000000    0.70999998
   15.91416645   85.20149994    0.30000001    0.70999998
   15.91722298   86.52100372    0.69000000    0.70999998
   15.92333412   86.52100372    1.51999998    0.70999998
   15.92750072   86.42430115    0.30000001    0.73000002
   15.93083382   86.62580109    0.30000001    0.73000002
   15.93388939   88.20189667    0.28000000    0.75000000
   15.93722248   86.84980011    0.30000001    0.76999998
   15.93777752   86.36910248    0.30000001    0.76999998
   15.94083309   84.42610168    0.30000001    0.76999998
   15.94416714   86.35990143    0.28000000    0.79000002
   15.94722271   93.18460083    0.28000000    0.79000002
   15.95055580   91.72760010    0.28000000    0.79000002
   15.95388889   86.28780365    0.28000000    0.79000002
   15.95694447   87.38800049    0.30000001    0.79000002
   15.96027756   88.19570160    0.30000001    0.79000002
   15.96611118   88.19570160    0.30000001    0.80000001
   15.97027779   87.89620209    0.30000001    0.79000002
   15.97083282   92.85810089    0.30000001    0.79000002
   15.97416592   91.22090149    0.30000001    0.79000002
   15.97722149   92.51509857    0.30000001    0.80000001
   15.98055553   90.97029877    0.30000001    0.79000002
   15.98361111   95.20390320    0.30000001    0.79000002
   15.98694515  179.94400024    0.30000001    0.79000002
   15.99027824   93.60590363    0.30000001    0.80000001
   15.99333382   92.28350067    0.28000000    0.80000001
   15.99666691   81.34410095    0.30000001    0.80000001
   16.00000000   85.88510132    0.28000000    0.81999999
   16.00305557   88.45149994    0.28000000    0.81999999
   16.00416756   87.90529633    0.28000000    0.81999999
   16.00916672   87.90529633    0.28000000    0.81999999
   16.01305580   93.05599976    0.28000000    0.81999999
   16.01638794   92.58650208    0.28000000    0.83999997
   16.01972198   86.09359741    0.25999999    0.83999997
   16.02277756   86.38600159    0.25999999    0.83999997
   16.02611160   96.75499725    0.25999999    0.83999997
   16.02944374   91.82219696    0.25999999    0.83999997
   16.03249931   89.50440216    0.25999999    0.86000001
   16.03583336   95.65149689    0.25999999    0.86000001
   16.03750038   92.70379639    0.25999999    0.86000001
   16.03944397   91.10590363    0.25999999    0.86000001
   16.04249954   90.23220062    0.25000000    0.86000001
   16.04583359   91.17259979    0.25000000    0.86000001
   16.05194283   91.17259979    0.25000000    0.86000001
   16.05611038   90.83650208    0.25000000    0.83999997
   16.05944443   88.59750366    0.25000000    0.83999997
   16.06250000   89.92369843    0.25000000    0.86000001
   16.06583214   91.81230164    0.25000000    0.83999997
   16.06916809   82.42859650    0.25000000    0.86000001
   16.07083511   85.24810028    0.25000000    0.86000001
   16.07250023   82.57039642    0.25000000    0.83999997
   16.07583427   85.56549835    0.25000000    0.86000001
   16.07888985   85.19300079    0.23000000    0.83999997
   16.08222389   84.91000366    0.23000000    0.83999997
   16.08527756   90.90260315    0.23000000    0.86000001
   16.08861160   91.49250031    0.23000000    0.86000001
   16.09472275   91.49250031    0.23000000    0.83999997
   16.09889030   94.08290100    0.23000000    0.86000001
   16.10222244   93.79930115    0.20999999    0.83999997
   16.10416794   93.36360168    0.20999999    0.83999997
   16.10583305   91.86799622    0.20999999    0.83999997
   16.10916710   89.06590271    0.20999999    0.83999997
   16.11222267   89.71949768    0.20999999    0.83999997
   16.11555672   90.39479828    0.20999999    0.83999997
   16.11888885   92.09870148    0.20999999    0.83999997
   16.12194443   91.09059906    0.20999999    0.83999997
   16.12527847   88.19000244    0.20999999    0.83999997
   16.12833405   93.74680328    0.19000000    0.81999999
   16.13166618   93.25579834    0.19000000    0.81999999
   16.13750076   93.25579834    0.20999999    0.83999997
   16.14166641   89.39759827    0.20999999    0.81999999
   16.14500046   93.23159790    0.20999999    0.81999999
   16.14805603   91.98909760    0.19000000    0.81999999
   16.15138817   89.92819977    0.19000000    0.81999999
   16.15472221   87.86879730    0.19000000    0.81999999
   16.15777779   89.15360260    0.19000000    0.81999999
   16.16110992   92.88780212    0.19000000    0.81999999
   16.16444397   89.90480042    0.19000000    0.81999999
   16.16749954   95.69000244    0.17000000    0.81999999
   16.17083359  100.23999786    0.19000000    0.81999999
   16.17138863   93.95369720    0.17000000    0.81999999
   16.17444420   94.05069733    0.17000000    0.81999999
   16.18055534   94.05069733    0.17000000    0.81999999
   16.18444443   95.10130310    0.17000000    0.80000001
   16.18777657   88.68039703    0.17000000    0.80000001
   16.19111061   91.55110168    0.17000000    0.80000001
   16.19416618   94.29579926    0.17000000    0.80000001
   16.19749832   89.46970367    0.15000001    0.80000001
   16.20083427   86.22859955    0.15000001    0.80000001
   16.20388985   86.97000122    0.17000000    0.80000001
   16.20444489   83.03690338    0.17000000    0.80000001
   16.20777893   88.60130310    0.17000000    0.80000001
   16.21083450   86.37940216    0.17000000    0.80000001
   16.21416664   90.61840057    0.17000000    0.79000002
   16.21750069   88.54519653    0.17000000    0.80000001
   16.22333336   88.54519653    0.17000000    0.79000002
   16.22750092   87.23770142    0.17000000    0.80000001
   16.23055649   95.41089630    0.17000000    0.79000002
   16.23388863   90.27899933    0.17000000    0.79000002
   16.23722267   88.09480286    0.17000000    0.80000001
   16.23777771   92.57260132    0.17000000    0.80000001
   16.24083328   86.07820129    0.17000000    0.79000002
   16.24416733   93.48819733    0.17000000    0.80000001
   16.24722290   89.31479645    0.17000000    0.79000002
   16.25055504   92.98470306    0.17000000    0.79000002
   16.25361061   91.00879669    0.17000000    0.79000002
   16.25694466   87.39669800    0.17000000    0.79000002
   16.26027870   92.00779724    0.17000000    0.79000002
   16.26611137   92.00779724    0.15000001    0.79000002
   16.27027702   90.94029999    0.17000000    0.79000002
   16.27111053   87.66120148    0.17000000    0.79000002
   16.27388954   93.47299957    0.15000001    0.79000002
   16.27694511   91.03379822    0.17000000    0.79000002
   16.28027725   90.32649994    0.17000000    0.79000002
   16.28361130   91.02249908    0.17000000    0.79000002
   16.28666687   89.07820129    0.17000000    0.80000001
   16.28999901   92.24680328    0.15000001    0.79000002
   16.29305458   92.98229980    0.17000000    0.79000002
   16.29638863   89.64520264    0.17000000    0.79000002
   16.29972076   89.08059692    0.17000000    0.79000002
   16.30277634   90.22360229    0.17000000    0.79000002
   16.30444336   86.84539795    0.17000000    0.76999998
   16.30888748   86.84539795    0.17000000    0.76999998
   16.31305504   90.13559723    0.17000000    0.76999998
   16.31638718   88.15290070    0.17000000    0.76999998
   16.31944466   91.11460114    0.17000000    0.76999998
   16.32277870   87.32550049    0.17000000    0.76999998
   16.32611275   85.57379913    0.17000000    0.76999998
   16.32944489   87.49909973    0.17000000    0.76999998
   16.33250046   86.75070190    0.17000000    0.76999998
   16.33583450   90.73619843    0.17000000    0.76999998
   16.33777809   93.09739685    0.17000000    0.76999998
   16.33944511   91.42669678    0.17000000    0.76999998
   16.34250069   89.17829895    0.17000000    0.76999998
   16.34583473   90.72879791    0.17000000    0.76999998
   16.35166740   90.72879791    0.17000000    0.76999998
   16.35583305   87.73280334    0.17000000    0.75000000
   16.35916710   86.49770355    0.17000000    0.75000000
   16.36250114   90.40450287    0.17000000    0.75000000
   16.36555672   93.01470184    0.19000000    0.75000000
   16.36888885   86.89990234    0.17000000    0.75000000
   16.37111092   86.89640045    0.19000000    0.75000000
   16.37249947   86.70719910    0.19000000    0.73000002
   16.37555504   88.65879822    0.19000000    0.73000002
   16.37888908   85.80819702    0.19000000    0.73000002
   16.38222313   88.04270172    0.19000000    0.73000002
   16.38527679   85.54949951    0.19000000    0.73000002
   16.38861084   86.93139648    0.19000000    0.70999998
   16.39472198   86.93139648    0.17000000    0.70999998
   16.39888954   88.24770355    0.17000000    0.70999998
   16.40194321   88.39499664    0.17000000    0.70999998
   16.40444374   89.72560120    0.17000000    0.70999998
   16.40583229   87.37760162    0.17000000    0.69000000
   16.40888786   89.26180267    0.17000000    0.69000000
   16.41222191   85.84429932    0.17000000    0.69000000
   16.41555595   85.93430328    0.17000000    0.69000000
   16.41860962   89.84239960    0.17000000    0.69000000
   16.42194366   89.19409943    0.17000000    0.67000002
   16.42527771   86.35379791    0.17000000    0.67000002
   16.42833328   90.11139679    0.17000000    0.67000002
   16.43166542   88.01100159    0.17000000    0.67000002
   16.43750000   88.01100159    0.17000000    0.67000002
   16.44166565   90.52439880    0.17000000    0.67000002
   16.44499969   87.48619843    0.17000000    0.67000002
   16.44805527   92.37779999    0.17000000    0.67000002
   16.45138931   90.05169678    0.17000000    0.67000002
   16.45472336   86.95939636    0.17000000    0.67000002
   16.45777893   87.00679779    0.17000000    0.67000002
   16.46111107   87.94560242    0.17000000    0.67000002
   16.46416664   86.30460358    0.17000000    0.67000002
   16.46750069   87.46890259    0.17000000    0.67000002
   16.47083473   82.66190338    0.17000000    0.67000002
   16.47249985   89.91110229    0.17000000    0.67000002
   16.47444534   94.16410065    0.17000000    0.67000002
   16.48027802   94.16410065    0.17000000    0.67000002
   16.48444557   87.40470123    0.17000000    0.67000002
   16.48777771   86.35359955    0.17000000    0.67000002
   16.49111176   84.38569641    0.17000000    0.64999998
   16.49416733   86.96060181    0.17000000    0.64999998
   16.49749947   86.46839905    0.17000000    0.64999998
   16.50083351   86.03929901    0.17000000    0.63000000
   16.50388908   84.14340210    0.17000000    0.64999998
   16.50583267   90.91960144    0.17000000    0.63000000
   16.50749969   88.78769684    0.17000000    0.63000000
   16.51055527   87.92420197    0.17000000    0.63000000
   16.51388931   85.26370239    0.17000000    0.63000000
   16.51722145   80.98200226    0.17000000    0.63000000
   16.52333260   80.98200226    0.17000000    0.63000000
   16.52722168   89.79679871    0.17000000    0.61000001
   16.53055573   85.85679626    0.17000000    0.61000001
   16.53388786   90.15129852    0.17000000    0.61000001
   16.53694344   80.82640076    0.15000001    0.61000001
   16.53944397   85.66790009    0.15000001    0.58999997
   16.54055595   88.74629974    0.15000001    0.58999997
   16.54388809   82.39340210    0.15000001    0.58999997
   16.54722214   88.06159973    0.15000001    0.58999997
   16.55027771   86.27839661    0.15000001    0.58999997
   16.55360985   90.56620026    0.15000001    0.58999997
   16.55694389   84.12629700    0.15000001    0.58999997
   16.55999947   86.12310028    0.15000001    0.58999997
   16.56611061   86.12310028    0.15000001    0.58999997
   16.57027817   89.99600220    0.15000001    0.56999999
   16.57277870   91.32009888    0.13000000    0.56999999
   16.57361221   90.21150208    0.13000000    0.56999999
   16.57694626   87.95369720    0.13000000    0.56999999
   16.58027840   85.52429962    0.13000000    0.56999999
   16.58333397   88.14720154    0.13000000    0.56999999
   16.58666801   86.68599701    0.13000000    0.56999999
   16.59000015   88.85690308    0.13000000    0.56999999
   16.59305573   84.50260162    0.13000000    0.56999999
   16.59638977   83.79419708    0.13000000    0.56999999
   16.59944534   82.51570129    0.13000000    0.56999999
   16.60277748   92.99749756    0.13000000    0.56999999
   16.60888863   92.99749756    0.13000000    0.55000001
   16.61305618   89.33750153    0.13000000    0.55000001
   16.61638832   85.96109772    0.13000000    0.55000001
   16.61944389   89.66040039    0.13000000    0.56999999
   16.62277794   85.39050293    0.13000000    0.55000001
   16.62583351   84.21890259    0.13000000    0.55000001
   16.62916756   87.77159882    0.13000000    0.55000001
   16.63249969   88.79900360    0.13000000    0.55000001
   16.63555527   89.07839966    0.11000000    0.55000001
   16.63888931   87.29389954    0.13000000    0.55000001
   16.63972282   88.58200073    0.11000000    0.55000001
   16.64249992   89.66960144    0.11000000    0.55000001
   16.64583397   88.18450165    0.11000000    0.55000001
   16.65166664   88.18450165    0.11000000    0.52999997
   16.65583229   89.49729919    0.11000000    0.52999997
   16.65916634   84.97709656    0.11000000    0.52999997
   16.66250038   86.01200104    0.11000000    0.52999997
   16.66555595   87.61160278    0.11000000    0.52999997
   16.66888809   84.74890137    0.11000000    0.52999997
   16.67222214   91.48829651    0.11000000    0.52999997
   16.67305565   91.58100128    0.11000000    0.52999997
   16.67583275  141.35400391    0.11000000    0.52999997
   16.67916679   93.34819794    0.11000000    0.52999997
   16.68222237   88.27989960    0.11000000    0.52999997
   16.68555450   87.59390259    0.11000000    0.52999997
   16.68888855   85.01589966    0.11000000    0.52999997
   16.69472122   85.01589966    0.11000000    0.52999997
   16.69861031   89.97669983    0.11000000    0.52999997
   16.70194435   83.65070343    0.11000000    0.52999997
   16.70527840   88.05380249    0.11000000    0.52999997
   16.70666695   88.23619843    0.11000000    0.52999997
   16.70888901   83.51609802    0.11000000    0.52999997
   16.71194458   89.88890076    0.11000000    0.52999997
   16.71527863   87.82820129    0.11000000    0.52999997
   16.71861076   87.27619934    0.11000000    0.52999997
   16.72166634   83.96779633    0.11000000    0.52999997
   16.72500038   89.04199982    0.11000000    0.52999997
   16.72805595   85.59660339    0.11000000    0.52999997
   16.73139000   84.17500305    0.11000000    0.52999997
   16.73750114   84.17500305    0.11000000    0.52999997
   16.75583267   90.07080078    0.11000000    0.52999997
   16.75916672   85.39479828    0.11000000    0.52999997
   16.76222229   86.02429962    0.11000000    0.52999997
   16.76555634   91.73459625    0.11000000    0.51999998
   16.76861000   90.61039734    0.11000000    0.51999998
   16.77194405   84.82240295    0.11000000    0.51999998
   16.77527809   86.63210297    0.11000000    0.51999998
   16.78055573   86.63210297    0.09000000    0.51999998
   16.78472137   85.27020264    0.09000000    0.51999998
   16.78777695   83.25469971    0.09000000    0.51999998
   16.78888893   82.69020081    0.09000000    0.51999998
   16.79138756   86.59339905    0.09000000    0.51999998
   16.79472160   83.15239716    0.09000000    0.51999998
   16.79805565   80.61720276    0.09000000    0.51999998
   16.80111122   82.59470367    0.09000000    0.51999998
   16.80444336   83.15599823    0.09000000    0.51999998
   16.80777740   79.62030029    0.09000000    0.51999998
   16.81083298   85.44159698    0.09000000    0.51999998
   16.81416512   87.66889954    0.09000000    0.51999998
   16.81722260   84.94999695    0.09000000    0.50000000
   16.82333374   84.94999695    0.09000000    0.50000000
   16.82750130   81.91230011    0.09000000    0.50000000
   16.83083344   85.92240143    0.09000000    0.50000000
   16.83388901   86.04010010    0.09000000    0.47999999
   16.83722305   80.09220123    0.09000000    0.47999999
   16.84055710   85.85540009    0.09000000    0.47999999
   16.84361267   86.47560120    0.09000000    0.47999999
   16.84694481   87.54640198    0.09000000    0.47999999
   16.85027885   85.58280182    0.09000000    0.47999999
   16.85333443   86.31349945    0.09000000    0.47999999
   16.85555649   82.48110199    0.09000000    0.47999999
   16.85694504   86.07990265    0.09000000    0.47999999
   16.86027908   87.11329651    0.09000000    0.46000001
   16.86611176   87.11329651    0.09000000    0.46000001
   16.87027740   84.89779663    0.09000000    0.46000001
   16.87361145   85.69539642    0.09000000    0.46000001
   16.87666702   86.37419891    0.09000000    0.46000001
   16.88000107   84.12300110    0.09000000    0.46000001
   16.88333321   89.11180115    0.09000000    0.46000001
   16.88638878   81.98100281    0.07000000    0.46000001
   16.88888931   84.61589813    0.09000000    0.46000001
   16.88999939   90.15190125    0.09000000    0.46000001
   16.89333344   88.14019775    0.07000000    0.44000000
   16.89666748   85.53639984    0.07000000    0.44000000
   16.89972115   84.48660278    0.09000000    0.44000000
   16.90305519   85.63189697    0.09000000    0.44000000
   16.90888786   85.63189697    0.09000000    0.44000000
   16.91305542   84.00000000    0.09000000    0.44000000
   16.91638756   80.58730316    0.07000000    0.44000000
   16.91972160   82.45040131    0.09000000    0.44000000
   16.92222214   85.12779999    0.07000000    0.44000000
   16.92305565   86.08039856    0.07000000    0.44000000
   16.92638779   82.69200134    0.07000000    0.44000000
   16.92972183   85.86009979    0.07000000    0.44000000
   16.93305397   84.00499725    0.07000000    0.44000000
   16.93610954   88.83920288    0.07000000    0.44000000
   16.93944359   84.58740234    0.07000000    0.44000000
   16.94277763   86.13359833    0.07000000    0.44000000
   16.94583321   85.32039642    0.07000000    0.41999999
   16.95194435   85.32039642    0.07000000    0.41999999
   16.95611191   86.13860321    0.07000000    0.41999999
   16.95916748   85.87550354    0.07000000    0.41999999
   16.96250153   87.88990021    0.07000000    0.40000001
   16.96555710   82.93740082    0.07000000    0.40000001
   16.96888924   89.38729858    0.07000000    0.40000001
   16.97222328   84.20929718    0.07000000    0.40000001
   16.97527885   84.82319641    0.07000000    0.40000001
   16.97861099   84.37719727    0.07000000    0.40000001
   16.98194504   87.18109894    0.07000000    0.40000001
   16.98500061   83.33059692    0.07000000    0.40000001
   16.98833275   82.06320190    0.07000000    0.38000000
   16.98888969   84.84950256    0.07000000    0.38000000
   16.99472237   84.84950256    0.07000000    0.38000000
   16.99888992   82.30110168    0.07000000    0.38000000
   17.00222206   85.99069977    0.05000000    0.09000000
   17.00527763   84.18620300    0.05000000    0.09000000
   17.00861168   86.97290039    0.05000000    0.09000000
   17.01166725   84.01840210    0.05000000    0.09000000
   17.01499939   88.58209991    0.05000000    0.09000000
   17.01833344   90.91510010    0.05000000    0.09000000
   17.02138901   84.97129822    0.05000000    0.09000000
   17.02222252   84.93280029    0.05000000    0.09000000
   17.02527809   85.50839996    0.05000000    0.09000000
   17.02833366   87.30770111    0.05000000    0.09000000
   17.03166580   83.79479980    0.05000000    0.09000000
   17.03750038   83.79479980    0.05000000    0.09000000
   17.04166603   85.12680054    0.05000000    0.09000000
   17.04500008   83.70149994    0.05000000    0.09000000
   17.04805565   85.09410095    0.05000000    0.09000000
   17.05138779   87.28820038    0.05000000    0.09000000
   17.05472183   83.45240021    0.05000000    0.09000000
   17.05555534   86.49359894    0.05000000    0.09000000
   17.05833244   85.80829620    0.05000000    0.09000000
   17.06138802   83.36160278    0.05000000    0.09000000
   17.06472206   84.72889709    0.05000000    0.09000000
   17.06805611   82.79309845    0.05000000    0.09000000
   17.07111168   83.69149780    0.05000000    0.09000000
   17.07444572   81.10079956    0.05000000    0.09000000
   17.08055687   81.10079956    0.05000000    0.09000000
   17.08444595   83.30259705    0.05000000    0.09000000
   17.08777809   81.48600006    0.05000000    0.09000000
   17.08889008   83.22509766    0.05000000    0.09000000
   17.09138870   86.63490295    0.05000000    0.09000000
   17.09444427   81.50360107    0.05000000    0.09000000
   17.09777832   86.24520111    0.05000000    0.09000000
   17.10111237   85.38639832    0.05000000    0.09000000
   17.10416794   86.86360168    0.05000000    0.09000000
   17.10750008   83.64610291    0.05000000    0.09000000
   17.11083412   80.72530365    0.05000000    0.09000000
   17.11388969   89.36959839    0.05000000    0.09000000
   17.11722183   84.06250000    0.05000000    0.09000000
   17.12333298   84.06250000    0.05000000    0.09000000
   17.12750053   84.47509766    0.05000000    0.09000000
   17.13055611   83.44100189    0.05000000    0.09000000
   17.13388824   83.82649994    0.05000000    0.09000000
   17.13722229   86.18430328    0.05000000    0.09000000
   17.14027786   86.40329742    0.05000000    0.09000000
   17.14361191   89.44789886    0.05000000    0.09000000
   17.14666748   86.74639893    0.05000000    0.09000000
   17.14999962   85.48770142    0.05000000    0.09000000
   17.15333366   86.05460358    0.05000000    0.09000000
   17.15555573   83.01370239    0.05000000    0.09000000
   17.15694427   83.67780304    0.05000000    0.09000000
   17.15999985   83.58529663    0.05000000    0.09000000
   17.16611099   83.58529663    0.05000000    0.09000000
   17.17027664   82.84889984    0.05000000    0.09000000
   17.17333221   83.42350006    0.05000000    0.09000000
   17.17666626   85.92790222    0.05000000    0.09000000
   17.18000031   84.83740234    0.05000000    0.09000000
   17.18305397   83.48729706    0.05000000    0.09000000
   17.18638802   91.94000244    0.05000000    0.09000000
   17.18888855   84.13770294    0.05000000    0.09000000
   17.18999863   85.29709625    0.05000000    0.09000000
   17.19305420   84.35500336    0.05000000    0.09000000
   17.19638824   83.39630127    0.05000000    0.09000000
   17.19972038   80.56259918    0.05000000    0.09000000
   17.20277786   81.43740082    0.05000000    0.09000000
   17.20888901   81.43740082    0.05000000    0.09000000
   17.21305656   84.04789734    0.05000000    0.09000000
   17.21638870   84.25669861    0.05000000    0.09000000
   17.21944427   82.13059998    0.05000000    0.09000000
   17.22222328   86.16829681    0.05000000    0.09000000
   17.22333336   81.85420227    0.05000000    0.09000000
   17.22638893   83.00990295    0.05000000    0.09000000
   17.22972298   82.91079712    0.05000000    0.09000000
   17.23305511   89.00080109    0.05000000    0.09000000
   17.23611069   84.69809723    0.05000000    0.09000000
   17.23944473   85.91000366    0.05000000    0.09000000
   17.24250031   87.60199738    0.05000000    0.09000000
   17.24583435   83.16200256    0.05000000    0.09000000
   17.25166702   83.16200256    0.05000000    0.09000000
   17.25583267   82.65480042    0.05000000    0.09000000
   17.25916672   82.18550110    0.05000000    0.09000000
   17.26250076   84.33100128    0.05000000    0.09000000
   17.26583290   86.21430206    0.05000000    0.09000000
   17.26888847   85.24449921    0.05000000    0.09000000
   17.27222252   84.71029663    0.05000000    0.09000000
   17.27527809   84.22879791    0.05000000    0.09000000
   17.27861023   87.46990204    0.05000000    0.09000000
   17.28194427   88.34339905    0.05000000    0.09000000
   17.28499985   88.89179993    0.05000000    0.09000000
   17.28833199   86.47789764    0.05000000    0.09000000
   17.28888893   86.67549896    0.05000000    0.09000000
   17.29472160   86.67549896    0.05000000    0.09000000
   17.29888916   86.35500336    0.05000000    0.09000000
   17.30194283   87.55319977    0.05000000    0.09000000
   17.30527687   87.26679993    0.05000000    0.09000000
   17.30833244   82.89009857    0.05000000    0.09000000
   17.31166649   85.20220184    0.05000000    0.09000000
   17.31499863   85.06410217    0.05000000    0.09000000
   17.31805611   83.09989929    0.05000000    0.09000000
   17.32139015   85.26580048    0.05000000    0.09000000
   17.32222366   88.33309937    0.05000000    0.09000000
   17.32500076   85.21869659    0.05000000    0.09000000
   17.32805634   84.93370056    0.05000000    0.09000000
   17.33139038   83.65129852    0.05000000    0.09000000
   17.33750153   83.65129852    0.05000000    0.09000000
   17.34166718   84.90390015    0.05000000    0.09000000
   17.34472275   82.62319946    0.05000000    0.09000000
   17.34805679   83.23310089    0.05000000    0.09000000
   17.35138893   87.65830231    0.05000000    0.09000000
   17.35444450   87.46710205    0.05000000    0.09000000
   17.35555649   87.11199951    0.05000000    0.09000000
   17.35805511   85.87010193    0.05000000    0.09000000
   17.36111069   84.14820099    0.05000000    0.09000000
   17.36444473   90.54679871    0.05000000    0.09000000
   17.36777878   87.74349976    0.05000000    0.09000000
   17.37083435   89.73639679    0.05000000    0.09000000
   17.37416649   89.19670105    0.05000000    0.09000000
   17.38027763   89.19670105    0.05000000    0.09000000
   17.38444519   87.92019653    0.05000000    0.09000000
   17.38777733   89.35540009    0.05000000    0.09000000
   17.38888931   85.26399994    0.05000000    0.09000000
   17.39138794   87.45919800    0.05000000    0.09000000
   17.39444351   80.06839752    0.05000000    0.09000000
   17.39777756   80.03250122    0.05000000    0.09000000
   17.40111160   87.34420013    0.05000000    0.09000000
   17.40416718   87.85610199    0.05000000    0.09000000
   17.40749931   89.36019897    0.05000000    0.09000000
   17.41055489   81.69699860    0.05000000    0.09000000
   17.41388893   90.72969818    0.05000000    0.09000000
   17.41722107   94.19979858    0.05000000    0.09000000
   17.42305565   94.19979858    0.05000000    0.09000000
   17.42722130   87.39980316    0.05000000    0.09000000
   17.43055534   88.57099915    0.05000000    0.09000000
   17.43388748   87.70320129    0.05000000    0.09000000
   17.43694305   87.01470184    0.05000000    0.09000000
   17.44027710   84.39550018    0.05000000    0.09000000
   17.44333267   85.02230072    0.05000000    0.09000000
   17.44666672   86.37490082    0.05000000    0.09000000
   17.45000076   88.49839783    0.05000000    0.09000000
   17.45305634   88.16649628    0.05000000    0.09000000
   17.45555687   81.74610138    0.05000000    0.09000000
   17.45666695   89.56430054    0.05000000    0.09000000
   17.45972252   83.82430267    0.05000000    0.09000000
   17.46611214   83.82430267    0.05000000    0.09000000
   17.47000122   77.97239685    0.05000000    0.09000000
   17.47333336   82.98040009    0.05000000    0.09000000
   17.47666740   84.46089935    0.05000000    0.09000000
   17.47972298   83.21749878    0.05000000    0.09000000
   17.48305511   83.64340210    0.05000000    0.09000000
   17.48638916   83.14080048    0.05000000    0.09000000
   17.48888969   84.55410004    0.05000000    0.09000000
   17.48999977   89.35810089    0.05000000    0.09000000
   17.49305534   87.12950134    0.05000000    0.09000000
   17.49638939   83.93810272    0.05000000    0.09000000
   17.49972153   88.57910156    0.05000000    0.09000000
   17.50277710   86.52330017    0.05000000    0.09000000
   17.50888824   86.52330017    0.05000000    0.09000000
   17.51305580   85.86160278    0.05000000    0.09000000
   17.51611137   92.61470032    0.05000000    0.09000000
   17.51944351   82.89820099    0.05000000    0.09000000
   17.52222252   85.84230042    0.05000000    0.09000000
   17.52305603   90.39530182    0.05000000    0.09000000
   17.52611160   85.89230347    0.05000000    0.09000000
   17.52944374   86.11489868    0.05000000    0.09000000
   17.53249931   87.57489777    0.05000000    0.09000000
   17.53583336   87.69560242    0.05000000    0.09000000
   17.53916550   84.87200165    0.05000000    0.09000000
   17.54222107  153.68600464    0.05000000    0.09000000
   17.54555511   85.20939636    0.05000000    0.09000000
   17.55166626   85.20939636    0.05000000    0.09000000
   17.55583191   89.18430328    0.05000000    0.09000000
   17.55916595   88.14980316    0.05000000    0.09000000
   17.56222153   88.54380035    0.05000000    0.09000000
   17.56555557   90.41609955    0.05000000    0.09000000
   17.56861115   87.50920105    0.05000000    0.09000000
   17.57194519   84.59200287    0.05000000    0.09000000
   17.57527924   85.05609894    0.05000000    0.09000000
   17.57833481   81.60859680    0.05000000    0.09000000
   17.58166695   82.53040314    0.05000000    0.09000000
   17.58500099   86.16880035    0.05000000    0.09000000
   17.58805656   88.61679840    0.05000000    0.09000000
   17.58889008   86.40640259    0.05000000    0.09000000
   17.59444427   86.40640259    0.05000000    0.09000000
   17.59861183   91.40409851    0.05000000    0.09000000
   17.60194397   88.18489838    0.05000000    0.09000000
   17.60499954   91.54609680    0.05000000    0.09000000
   17.60833359   94.98069763    0.05000000    0.09000000
   17.61166763   98.76850128    0.05000000    0.09000000
   17.61499977   94.90450287    0.05000000    0.09000000
   17.61805534  102.41400146    0.05000000    0.09000000
   17.62138939  105.27200317    0.05000000    0.09000000
   17.62222290   90.89630127    0.05000000    0.09000000
   17.62500000  101.44000244    0.05000000    0.09000000
   17.62833405  111.56700134    0.05000000    0.09000000
   17.63138962  104.25399780    0.05000000    0.09000000
   17.63750076  104.25399780    0.05000000    0.09000000
   17.64166641  114.45700073    0.05000000    0.09000000
   17.64472198  121.98000336    0.05000000    0.09000000
   17.64805603  129.36599731    0.05000000    0.09000000
   17.65111160  145.81799316    0.05000000    0.09000000
   17.65444374  149.93699646    0.05000000    0.09000000
   17.65555573  194.90100098    0.05000000    0.09000000
   17.65805435  216.66200256    0.05000000    0.09000000
   17.66138840  355.41799927    0.05000000    0.09000000
   17.66444397  334.22601318    0.05000000    0.09000000
   17.66777802  177.06100464    0.05000000    0.09000000
   17.67083359   91.72789764    0.05000000    0.09000000
   17.67416573   -1.00000000   -1.00000000   -1.00000000
   17.68027687   -1.00000000   -1.00000000   -1.00000000
   17.68444443   -1.00000000    0.05000000    0.09000000
   17.68750000   -1.00000000    0.05000000    0.09000000
   17.69111061   -1.00000000    0.05000000    0.09000000
   17.69416618   -1.00000000    0.05000000    0.09000000
   17.69749832   -1.00000000    0.05000000    0.09000000
   17.70083427   -1.00000000    0.05000000    0.09000000
   17.70388985   -1.00000000    0.05000000    0.09000000
   17.70722389   -1.00000000    0.05000000    0.09000000
   17.71055603   -1.00000000    0.05000000    0.09000000
   17.71361160   -1.00000000    0.05000000    0.09000000
   17.71694565   -1.00000000    0.05000000    0.09000000
   17.72722244   -1.00000000    0.05000000    0.09000000
   17.73027802   -1.00000000    0.05000000    0.09000000
   17.73361206   -1.00000000    0.05000000    0.09000000
   17.73694420   -1.00000000    0.05000000    0.09000000
   17.73999977   -1.00000000    0.05000000    0.09000000
   17.74333382   -1.00000000    0.05000000    0.09000000
   17.74638939   -1.00000000    0.05000000    0.09000000
   17.74972153   -1.00000000    0.05000000    0.09000000
   17.75305557   -1.00000000    0.05000000    0.09000000
   17.78027725   -1.00000000    0.05000000    0.09000000
   17.78333282   -1.00000000    0.05000000    0.09000000
   17.78666687   -1.00000000    0.05000000    0.09000000
   17.79027748   -1.00000000    0.05000000    0.09000000
   17.79333305   -1.00000000    0.05000000    0.09000000
   17.79666710   -1.00000000    0.05000000    0.09000000
   17.79999924   -1.00000000    0.05000000    0.09000000
   17.80305481   -1.00000000    0.05000000    0.09000000
   17.80638885   -1.00000000    0.05000000    0.09000000
   17.80972099   -1.00000000    0.05000000    0.09000000
   17.81277657   -1.00000000    0.05000000    0.09000000
   17.82305717   -1.00000000    0.05000000    0.09000000
   17.82638931   -1.00000000    0.05000000    0.09000000
   17.82944489   -1.00000000    0.05000000    0.09000000
   17.83277893   -1.00000000    0.05000000    0.09000000
   17.83583450   -1.00000000    0.05000000    0.09000000
   17.83916664   -1.00000000    0.05000000    0.09000000
   17.84250069   -1.00000000    0.05000000    0.09000000
   17.84555626   -1.00000000    0.05000000    0.09000000
   17.84889030   -1.00000000    0.05000000    0.09000000
   17.85222244  132.27999878    0.05000000    0.09000000
   17.85527802   -1.00000000    0.05000000    0.09000000
   17.86166763   -1.00000000    0.05000000    0.09000000
   17.86583328   91.81289673    0.05000000    0.09000000
   17.86916733   87.05529785    0.05000000    0.09000000
   17.87249947   89.45559692    0.05000000    0.09000000
   17.87555504   85.32009888    0.05000000    0.09000000
   17.87888908   93.27880096    0.05000000    0.09000000
   17.88194466   94.00070190    0.05000000    0.09000000
   17.88527679   85.93779755    0.05000000    0.09000000
   17.88861084   85.01770020    0.05000000    0.09000000
   17.88916588   88.52449799    0.05000000    0.09000000
   17.89222145   86.68319702    0.05000000    0.09000000
   17.89527702   85.94969940    0.05000000    0.09000000
   17.89861107   90.35929871    0.05000000    0.09000000
   17.90472221   90.35929871    0.05000000    0.09000000
   17.90888786   91.49440002    0.05000000    0.09000000
   17.91194344   92.39320374    0.05000000    0.09000000
   17.91527748   88.75579834    0.05000000    0.09000000
   17.91833305   84.31600189    0.05000000    0.09000000
   17.92166519   91.01069641    0.05000000    0.09000000
   17.92249870   91.50659943    0.05000000    0.09000000
   17.92527771   85.36630249    0.05000000    0.09000000
   17.92833328   94.67089844    0.05000000    0.09000000
   17.93166542   89.24099731    0.05000000    0.09000000
   17.93472099   82.36750031    0.05000000    0.09000000
   17.93805504   87.07890320    0.05000000    0.09000000
   17.94138718   86.85410309    0.05000000    0.09000000
   17.94749832   86.85410309    0.05000000    0.09000000
   17.95166779   89.68689728    0.05000000    0.09000000
   17.95472336   86.09770203    0.05000000    0.09000000
   17.95583344   90.27059937    0.05000000    0.09000000
   17.95861244   89.74720001    0.05000000    0.09000000
   17.96166801   88.23789978    0.05000000    0.09000000
   17.96500015   88.32820129    0.05000000    0.09000000
   17.96805573   93.35900116    0.05000000    0.09000000
   17.97138977   91.53820038    0.05000000    0.09000000
   17.97472191   89.61879730    0.05000000    0.09000000
   17.97777748   90.85440063    0.05000000    0.09000000
   17.98111153   90.71759796    0.05000000    0.09000000
   17.98444557   90.23120117    0.05000000    0.09000000
   17.99027824   90.23120117    0.05000000    0.09000000
   17.99444389   91.91929626    0.05000000    0.09000000
   17.99777794   92.56349945    0.05000000    0.09000000
   18.00083351   90.98210144    0.05000000    0.09000000
   18.00416756   90.46369934    0.05000000    0.09000000
   18.00749969   89.59359741    0.05000000    0.09000000
   18.01055527   93.11569977    0.05000000    0.09000000
   18.01388931   88.70899963    0.05000000    0.09000000
   18.01694489   94.51219940    0.05000000    0.09000000
   18.02027702   92.04389954    0.05000000    0.09000000
   18.02249908   98.61810303    0.05000000    0.09000000
   18.02388954   94.94609833    0.05000000    0.09000000
   18.02694511   91.88929749    0.05000000    0.09000000
   18.03305435   91.88929749    0.05000000    0.09000000
   18.03722191   88.66609955    0.05000000    0.09000000
   18.04055595   91.39830017    0.05000000    0.09000000
   18.04388809   90.28949738    0.05000000    0.09000000
   18.04694366   96.35350037    0.05000000    0.09000000
   18.05027771   84.62719727    0.05000000    0.09000000
   18.05333328   87.30950165    0.05000000    0.09000000
   18.05583191   92.65630341    0.05000000    0.09000000
   18.05722237   91.15809631    0.05000000    0.09000000
   18.06027794   88.60880280    0.05000000    0.09000000
   18.06361008   88.32689667    0.05000000    0.09000000
   18.06694603   88.76580048    0.05000000    0.09000000
   18.07000160   86.74469757    0.05000000    0.09000000
   18.07611275   86.74469757    0.05000000    0.09000000
   18.08027840   96.23860168    0.05000000    0.09000000
   18.08333397   90.64009857    0.05000000    0.09000000
   18.08666801   96.56459808    0.05000000    0.09000000
   18.08916664   92.90390015    0.05000000    0.09000000
   18.09027863   89.73760223    0.05000000    0.09000000
   18.09361267   95.49099731    0.05000000    0.09000000
   18.09666824   95.86730194    0.05000000    0.09000000
   18.10000038   89.14320374    0.05000000    0.09000000
   18.10305595   99.02590179    0.05000000    0.09000000
   18.10639000   95.56590271    0.05000000    0.09000000
   18.10972214   92.71250153    0.05000000    0.09000000
   18.11277771   90.68119812    0.05000000    0.09000000
   18.11888885   90.68119812    0.05000000    0.09000000
   18.12305641   93.73919678    0.05000000    0.09000000
   18.12611198   92.37270355    0.05000000    0.09000000
   18.12944412   97.97209930    0.05000000    0.09000000
   18.13277817   88.44599915    0.05000000    0.09000000
   18.13611031   89.25090027    0.05000000    0.09000000
   18.13916588   95.69689941    0.05000000    0.09000000
   18.14249992   89.00330353    0.05000000    0.09000000
   18.14555550   86.36779785    0.05000000    0.09000000
   18.14888954   92.45290375    0.05000000    0.09000000
   18.15222168   86.91889954    0.05000000    0.09000000
   18.15527725   92.84410095    0.05000000    0.09000000
   18.15583229   92.54560089    0.05000000    0.09000000
   18.16166687   92.54560089    0.05000000    0.09000000
   18.16583252   90.14890289    0.05000000    0.09000000
   18.16916656  101.63400269    0.05000000    0.09000000
   18.17222214   88.39179993    0.05000000    0.09000000
   18.17555428   97.86579895    0.05000000    0.09000000
   18.17888832   91.29640198    0.05000000    0.09000000
   18.18194389   85.23639679    0.05000000    0.09000000
   18.18527603   89.09609985    0.05000000    0.09000000
   18.18861008   94.25640106    0.05000000    0.09000000
   18.18916512   91.78299713    0.05000000    0.09000000
   18.19222069   95.14710236    0.05000000    0.09000000
   18.19555473   95.54280090    0.05000000    0.09000000
   18.19861031   93.01039886    0.05000000    0.09000000
   18.20472336   93.01039886    0.05000000    0.09000000
   18.20888901   94.04820251    0.05000000    0.09000000
   18.21194458   94.34369659    0.05000000    0.09000000
   18.21527863   90.27809906    0.05000000    0.09000000
   18.21833420   98.61119843    0.05000000    0.09000000
   18.22166634   89.78730011    0.05000000    0.09000000
   18.22249985  100.09400177    0.05000000    0.09000000
   18.22527885  104.26200104    0.05000000    0.09000000
   18.22833443   88.35109711    0.05000000    0.09000000
   18.23166656  101.25099945    0.05000000    0.09000000
   18.23500061   89.79799652    0.05000000    0.09000000
   18.23805618  102.04100037    0.05000000    0.09000000
   18.24138832   97.73000336    0.05000000    0.09000000
   18.24749947   97.73000336    0.05000000    0.09000000
   18.25138855   97.27999878    0.05000000    0.09000000
   18.25472260  104.10399628    0.05000000    0.09000000
   18.25583267   97.50630188    0.05000000    0.09000000
   18.25833321  108.41300201    0.05000000    0.09000000
   18.26138878   97.86940002    0.05000000    0.09000000
   18.26472282  104.45400238    0.05000000    0.09000000
   18.26805496   96.55280304    0.05000000    0.09000000
   18.27111053   98.35659790    0.05000000    0.09000000
   18.27444458   95.40170288    0.05000000    0.09000000
   18.27750015   95.26370239    0.05000000    0.09000000
   18.28083229   87.21779633    0.05000000    0.09000000
   18.28416634   89.59819794    0.05000000    0.09000000
   18.29027748   89.59819794    0.05000000    0.09000000
   18.29444313   97.12190247    0.05000000    0.09000000
   18.29749870   91.81469727    0.05000000    0.09000000
   18.30083275   92.25360107    0.05000000    0.09000000
   18.30388832   91.70580292    0.05000000    0.09000000
   18.30722237   91.02159882    0.05000000    0.09000000
   18.31055450   88.75839996    0.05000000    0.09000000
   18.31361008   92.00650024    0.05000000    0.09000000
   18.31694603   93.23000336    0.05000000    0.09000000
   18.32027817   88.99279785    0.05000000    0.09000000
   18.32250023   88.99320221    0.05000000    0.09000000
   18.32389069   94.39119720    0.05000000    0.09000000
   18.32694626   96.24220276    0.05000000    0.09000000
   18.33305550   96.24220276    0.05000000    0.09000000
   18.33722305   95.28450012    0.05000000    0.09000000
   18.34027863   95.30819702    0.05000000    0.09000000
   18.34361267   91.94159698    0.05000000    0.09000000
   18.34694481   95.18949890    0.05000000    0.09000000
   18.35000038   94.39790344    0.05000000    0.09000000
   18.35333443   93.14990234    0.05000000    0.09000000
   18.35583305   96.13919830    0.05000000    0.09000000
   18.35694504   96.00939941    0.05000000    0.09000000
   18.36000061   89.21579742    0.05000000    0.09000000
   18.36333466   91.86340332    0.05000000    0.09000000
   18.36666679   92.22149658    0.05000000    0.09000000
   18.36972237   93.07640076    0.05000000    0.09000000
   18.37583351   93.07640076    0.05000000    0.09000000
   18.38000107   88.79460144    0.05000000    0.09000000
   18.38333321   88.73539734    0.05000000    0.09000000
   18.38638878   86.98660278    0.05000000    0.09000000
   18.38916588   87.93489838    0.05000000    0.09000000
   18.39027786   87.04550171    0.05000000    0.09000000
   18.39333344   88.36740112    0.05000000    0.09000000
   18.39666748   88.85009766    0.05000000    0.09000000
   18.39999962   88.26969910    0.05000000    0.09000000
   18.40305519   88.02839661    0.05000000    0.09000000
   18.40638924   83.30840302    0.05000000    0.09000000
   18.40944481   90.93209839    0.05000000    0.09000000
   18.41277695   88.24590302    0.05000000    0.09000000
   18.41888809   88.24590302    0.05000000    0.09000000
   18.42277718   87.40290070    0.05000000    0.09000000
   18.42611122   90.17420197    0.05000000    0.09000000
   18.42944336   88.34200287    0.05000000    0.09000000
   18.43277740   92.01460266    0.05000000    0.09000000
   18.43583298   94.18820190    0.05000000    0.09000000
   18.43916512   96.46430206    0.05000000    0.09000000
   18.44222069   92.73680115    0.05000000    0.09000000
   18.44555473   88.08309937    0.05000000    0.09000000
   18.44888878   91.35109711    0.05000000    0.09000000
   18.45194435   87.24009705    0.05000000    0.09000000
   18.45527840   92.35510254    0.05000000    0.09000000
   18.45583344   94.49379730    0.05000000    0.09000000
   18.46166801   94.49379730    0.05000000    0.09000000
   18.46583366   92.57520294    0.05000000    0.09000000
   18.46888924  230.45700073    0.05000000    0.09000000
   18.47222328   -1.00000000    0.05000000    0.09000000
   18.47555542   -1.00000000    0.05000000    0.09000000
   18.47861099   -1.00000000    0.05000000    0.09000000
   18.48194504   86.59819794    0.05000000    0.09000000
   18.48500061   -1.00000000    0.05000000    0.09000000
   18.48833275   -1.00000000    0.05000000    0.09000000
   18.49194527   -1.00000000    0.05000000    0.09000000
   18.49500084   -1.00000000    0.05000000    0.09000000
