    HOUR (UT)   FLARE FACTOR    SKY TESTER    SUN TESTER
   12.17638874   -1.00000000   -1.00000000   -1.00000000
   12.21500015  203.56599426    1.14999998    1.83000004
   12.21805477  186.39700317    1.14999998    1.83000004
   12.22138882  191.49899292    1.14999998    1.85000002
   12.22472191  176.21400452    1.16999996    1.85000002
   12.22777748  170.51699829    1.14999998    1.85000002
   12.23111057  169.90899658    1.14999998    1.83000004
   12.23527813  169.90899658    1.14999998    1.85000002
   12.23944473  177.64700317    1.14999998    1.85000002
   12.24277782  159.35200500    1.16999996    1.86000001
   12.24611092  177.19000244    1.14999998    1.86000001
   12.24833393  154.16000366    1.14999998    1.86000001
   12.24972248  177.42900085    1.14999998    1.86000001
   12.25277805  183.05200195    1.14999998    1.86000001
   12.25611115  172.38800049    1.14999998    1.86000001
   12.25944424  147.97200012    1.14999998    1.88000000
   12.26249981  151.16499329    1.14999998    1.86000001
   12.26583290  141.18600464    1.14999998    1.86000001
   12.26888847  144.53799438    1.14999998    1.86000001
   12.27250004  171.12199402    1.14999998    1.86000001
   12.27833271  171.12199402    1.13000000    1.88000000
   12.28222179  146.22500610    1.13000000    1.89999998
   12.28555584  172.53799438    1.13000000    1.89999998
   12.28888893  159.35499573    1.13000000    1.89999998
   12.29222298  172.48800659    1.13000000    1.88000000
   12.29555607  177.33299255    1.13000000    1.89999998
   12.29861164  172.39399719    1.13000000    1.89999998
   12.30194473  186.14900208    1.11000001    1.91999996
   12.30527782  186.92700195    1.13000000    1.91999996
   12.30833340  182.98800659    1.11000001    1.91999996
   12.31166649  193.28300476    1.11000001    1.91999996
   12.31500053  166.83099365    1.11000001    1.91999996
   12.31527805  179.86199951    1.11000001    1.91999996
   12.32111073  179.86199951    1.11000001    1.94000006
   12.32527733  152.62100220    1.11000001    1.91999996
   12.32833290  175.89599609    1.11000001    1.91999996
   12.33166695  176.89700317    1.11000001    1.91999996
   12.33500004  186.77600098    1.11000001    1.91999996
   12.33833313  182.22099304    1.09000003    1.91999996
   12.34138870  198.35299683    1.09000003    1.91999996
   12.34472179  182.60800171    1.09000003    1.94000006
   12.34805489  201.41700745    1.09000003    1.94000006
   12.34861088  193.16200256    1.09000003    1.94000006
   12.35138893  185.19400024    1.09000003    1.94000006
   12.35472298  192.05200195    1.09000003    1.94000006
   12.35777855  182.09500122    1.09000003    1.94000006
   12.36388969  182.09500122    1.09000003    1.96000004
   12.36805534  170.00500488    1.07000005    1.96000004
   12.37138939  182.04299927    1.07000005    1.96000004
   12.37444496  183.42999268    1.07000005    1.96000004
   12.37777805  185.86799622    1.07000005    1.96000004
   12.38111115  177.49400330    1.07000005    1.96000004
   12.38194466  171.63000488    1.09000003    1.96000004
   12.38472176  192.94500732    1.07000005    1.96000004
   12.38805580  160.36199951    1.07000005    1.96000004
   12.39111137  180.04100037    1.07000005    1.98000002
   12.39444447  191.95700073    1.07000005    1.98000002
   12.39777756  204.78199768    1.05999994    1.96000004
   12.40083313  179.97300720    1.07000005    1.98000002
   12.40666676  179.97300720    1.05999994    1.98000002
   12.41083336  168.10000610    1.05999994    1.98000002
   12.41416645  154.52699280    1.05999994    1.98000002
   12.41527748  140.79400635    1.05999994    1.98000002
   12.41777802  163.73800659    1.05999994    1.98000002
   12.42111111  190.53999329    1.05999994    2.00000000
   12.42416668  179.75399780    1.05999994    2.00000000
   12.42750072  204.00599670    1.03999996    2.00000000
   12.43083382  194.24699402    1.03999996    2.00000000
   12.43416691  196.34100342    1.05999994    2.00000000
   12.43722248  160.71800232    1.05999994    2.00000000
   12.44055557  174.89900208    1.03999996    2.00000000
   12.44388866  171.52000427    1.03999996    2.01999998
   12.44972229  171.52000427    1.03999996    2.00000000
   12.45361137  160.66200256    1.03999996    2.01999998
   12.45694447  157.87100220    1.01999998    2.01999998
   12.46027756  158.08200073    1.01999998    2.01999998
   12.46333313  212.49600220    1.01999998    2.01999998
   12.46666622  187.30499268    1.00000000    2.01999998
   12.46999931  197.57400513    1.00000000    2.01999998
   12.47305489  191.78500366    1.01999998    2.03999996
   12.47638798  181.29400635    1.00000000    2.03999996
   12.47944355  196.49200439    1.00000000    2.03999996
   12.48194408  203.48899841    1.00000000    2.03999996
   12.48305511  184.06199646    1.00000000    2.03999996
   12.48638916  176.29400635    1.00000000    2.03999996
   12.49250031  176.29400635    1.00000000    2.05999994
   12.49666691  166.69099426    1.00000000    2.03999996
   12.49972248  187.45399475    0.98000002    2.03999996
   12.50305557  195.41400146    1.00000000    2.03999996
   12.50638866  205.24299622    0.98000002    2.05999994
   12.50944424  170.62800598    1.00000000    2.05999994
   12.51277733  185.92799377    1.00000000    2.05999994
   12.51527786  179.80499268    1.00000000    2.05999994
   12.51666641  164.91299438    0.98000002    2.05999994
   12.51972198  167.74000549    0.98000002    2.05999994
   12.52305508  153.22000122    0.98000002    2.05999994
   12.52638817  151.28700256    0.98000002    2.05999994
   12.52944374  129.65199280    0.95999998    2.07999992
   12.53527832  129.65199280    0.95999998    2.05999994
   12.53944492  150.80900574    0.95999998    2.07999992
   12.54277802  161.27000427    0.94000000    2.07999992
   12.54583359  177.11999512    0.94000000    2.07999992
   12.54888916  155.14100647    0.95999998    2.09999990
   12.54944515  149.73100281    0.95999998    2.09999990
   12.55277824  172.76300049    0.94000000    2.09999990
   12.55583382  176.81700134    0.94000000    2.09999990
   12.55916691  173.05099487    0.94000000    2.09999990
   12.56250000  137.58799744    0.94000000    2.07999992
   12.56555557  171.59100342    0.92000002    2.09999990
   12.56888866  149.21499634    0.92000002    2.09999990
   12.57222176  163.29400635    0.92000002    2.09999990
   12.57805538  163.29400635    0.94000000    2.07999992
   12.58222198  171.97099304    0.92000002    2.09999990
   12.58555508  182.33999634    0.92000002    2.09999990
   12.58861065  192.91900635    0.89999998    2.09999990
   12.59194374  179.91999817    0.89999998    2.09999990
   12.59527779  197.40600586    0.89999998    2.11999989
   12.59833336  171.93899536    0.89999998    2.09999990
   12.60166740  176.60600281    0.89999998    2.09999990
   12.60500050  178.32400513    0.89999998    2.11999989
   12.60805607  163.44700623    0.89999998    2.11999989
   12.61138916  167.30900574    0.89999998    2.11999989
   12.61472225  191.38200378    0.88000000    2.11999989
   12.61555576  183.13800049    0.88000000    2.11999989
   12.62111092  183.13800049    0.89999998    2.11999989
   12.62527752  150.00500488    0.88000000    2.11999989
   12.62833309  180.91600037    0.88000000    2.11999989
   12.63166714  171.28799438    0.88000000    2.11999989
   12.63472176  157.60400391    0.88000000    2.13000011
   12.63805580  163.10299683    0.88000000    2.13000011
   12.64138889  180.56599426    0.88000000    2.13000011
   12.64444447  173.97999573    0.88000000    2.13000011
   12.64777756  159.81100464    0.86000001    2.13000011
   12.64888859  174.34899902    0.86000001    2.13000011
   12.65138817  161.11199951    0.86000001    2.13000011
   12.65472221  179.11000061    0.86000001    2.13000011
   12.65805531  186.59500122    0.86000001    2.15000010
   12.66388893  186.59500122    0.86000001    2.13000011
   12.66805553  183.42799377    0.86000001    2.13000011
   12.67111111  177.34500122    0.86000001    2.15000010
   12.67444515  181.75700378    0.86000001    2.13000011
   12.67777824  175.66799927    0.86000001    2.15000010
   12.68083382  183.08099365    0.86000001    2.13000011
   12.68222237  180.30200195    0.86000001    2.13000011
   12.68472195  180.02200317    0.88000000    2.15000010
   12.68777752  179.20100403    0.86000001    2.15000010
   12.69111156  176.12899780    0.86000001    2.15000010
   12.69444466  166.55000305    0.86000001    2.15000010
   12.69750023  166.44299316    0.86000001    2.15000010
   12.70083332  174.57000732    0.83999997    2.15000010
   12.70666695  174.57000732    0.83999997    2.17000008
   12.71083355  182.74400330    0.83999997    2.17000008
   12.71416664  189.14100647    0.81999999    2.17000008
   12.71555519  178.70500183    0.81999999    2.17000008
   12.71777725  171.74800110    0.81999999    2.17000008
   12.72111034  186.36900330    0.83999997    2.17000008
   12.72444439  153.19500732    0.81999999    2.17000008
   12.72749996  180.34599304    0.81999999    2.17000008
   12.73083305  175.94299316    0.83999997    2.17000008
   12.73388958  173.18699646    0.83999997    2.17000008
   12.73722267  182.38499451    0.83999997    2.17000008
   12.74055576  180.98300171    0.81999999    2.17000008
   12.74361134  174.46699524    0.81999999    2.19000006
   12.74944496  174.46699524    0.81999999    2.17000008
   12.75361156  173.20700073    0.81999999    2.19000006
   12.75694466  185.51499939    0.81999999    2.17000008
   12.76000023  175.38000488    0.81999999    2.19000006
   12.76333332  157.26100159    0.81999999    2.19000006
   12.76666641  157.15899658    0.81999999    2.19000006
   12.76972198  168.95599365    0.81999999    2.19000006
   12.77305508  175.82699585    0.80000001    2.21000004
   12.77638817  172.46099854    0.80000001    2.19000006
   12.77944374  172.94200134    0.81999999    2.21000004
   12.78222179  177.93499756    0.81999999    2.21000004
   12.78305531  175.63999939    0.81999999    2.21000004
   12.78638935  173.85699463    0.81999999    2.19000006
   12.79222298  173.85699463    0.80000001    2.21000004
   12.79638958  165.57299805    0.80000001    2.21000004
   12.79972267  171.16200256    0.80000001    2.21000004
   12.80305576  166.77400208    0.80000001    2.21000004
   12.80611134  161.66400146    0.80000001    2.21000004
   12.80944443  178.09199524    0.80000001    2.23000002
   12.81277752  165.24099731    0.79000002    2.21000004
   12.81555557  161.15499878    0.79000002    2.21000004
   12.81611156  162.03599548    0.79000002    2.21000004
   12.81944466  165.77499390    0.79000002    2.21000004
   12.82250023  151.65100098    0.79000002    2.21000004
   12.82583332  157.64999390    0.79000002    2.23000002
   12.82916641  164.75199890    0.76999998    2.23000002
   12.83527756  164.75199890    0.76999998    2.23000002
   12.83944416  149.78199768    0.76999998    2.23000002
   12.84249973  160.55799866    0.76999998    2.23000002
   12.84583282  156.15199280    0.76999998    2.23000002
   12.84888840  162.01800537    0.76999998    2.23000002
   12.84944439  164.75900269    0.76999998    2.23000002
   12.85277843  161.45899963    0.76999998    2.23000002
   12.85583401  149.12399292    0.76999998    2.23000002
   12.85916710  155.90199280    0.76999998    2.23000002
   12.86250019  155.41999817    0.75000000    2.23000002
   12.86555576  163.28700256    0.76999998    2.23000002
   12.86888885  164.88099670    0.75000000    2.23000002
   12.87222195  146.44000244    0.75000000    2.23000002
   12.87805557  146.44000244    0.75000000    2.23000002
   12.88222218  162.72000122    0.75000000    2.25000000
   12.88527775  157.72300720    0.75000000    2.23000002
   12.88861084  152.23100281    0.75000000    2.25000000
   12.89194393  153.32000732    0.73000002    2.25000000
   12.89499950  155.55000305    0.75000000    2.25000000
   12.89833355  150.92799377    0.73000002    2.25000000
   12.90166664  156.10600281    0.73000002    2.25000000
   12.90472221  148.78700256    0.73000002    2.25000000
   12.90805531  153.73800659    0.75000000    2.26999998
   12.91138840  154.43200684    0.75000000    2.25000000
   12.91444397  158.51699829    0.73000002    2.25000000
   12.91555500  145.75000000    0.73000002    2.25000000
   12.92083359  145.75000000    0.73000002    2.26999998
   12.92500019  146.96200562    0.73000002    2.26999998
   12.92833328  151.52600098    0.73000002    2.26999998
   12.93138885  150.38200378    0.73000002    2.26999998
   12.93472195  151.91499329    0.73000002    2.26999998
   12.93805599  162.19999695    0.73000002    2.26999998
   12.94111156  164.58700562    0.73000002    2.26999998
   12.94444466  158.59199524    0.73000002    2.26999998
   12.94777775  155.53999329    0.73000002    2.26999998
   12.94888878  144.49099731    0.73000002    2.26999998
   12.95111084  150.85200500    0.73000002    2.26999998
   12.95444393  172.79899597    0.73000002    2.26999998
   12.95777798  160.30299377    0.73000002    2.26999998
   12.96388912  160.30299377    0.73000002    2.26999998
   12.96805477  157.61700439    0.70999998    2.28999996
   12.97111034  160.31300354    0.70999998    2.26999998
   12.97444439  161.15699768    0.70999998    2.26999998
   12.97749996  160.64100647    0.70999998    2.26999998
   12.98083305  159.21800232    0.70999998    2.28999996
   12.98222160  165.89500427    0.70999998    2.28999996
   12.98444462  160.57800293    0.70999998    2.28999996
   12.98777771  163.79899597    0.70999998    2.28999996
   12.99111176  168.04699707    0.70999998    2.28999996
   12.99416733  158.77900696    0.70999998    2.28999996
   12.99750042  170.01100159    0.70999998    2.28999996
   13.00055599  157.81599426    0.70999998    2.28999996
   13.00666714  157.81599426    0.70999998    2.28999996
   13.01083374  169.04100037    0.70999998    2.28999996
   13.01388931  169.63999939    0.70999998    2.28999996
   13.01555538  163.16299438    0.69000000    2.28999996
   13.01777744  160.90600586    0.69000000    2.28999996
   13.02083302  161.13200378    0.70999998    2.30999994
   13.02416611  174.00799561    0.69000000    2.28999996
   13.02750015  172.49499512    0.69000000    2.28999996
   13.03055573  173.67599487    0.69000000    2.30999994
   13.03388977  173.47099304    0.69000000    2.30999994
   13.03722286  162.76600647    0.69000000    2.30999994
   13.04027843  169.89399719    0.69000000    2.30999994
   13.04361153  173.44700623    0.69000000    2.28999996
   13.04944515  173.44700623    0.69000000    2.30999994
   13.05361176  158.69700623    0.69000000    2.30999994
   13.05666733  164.14599609    0.69000000    2.30999994
   13.06000042  167.75199890    0.69000000    2.30999994
   13.06333351  168.38000488    0.69000000    2.30999994
   13.06638908  174.96299744    0.69000000    2.30999994
   13.06972218  157.89999390    0.69000000    2.30999994
   13.07305527  171.65400696    0.69000000    2.30999994
   13.07611084  170.46699524    0.69000000    2.30999994
   13.07944393  178.27900696    0.69000000    2.30999994
   13.08222198  170.16099548    0.69000000    2.30999994
   13.08305550  174.58900452    0.69000000    2.30999994
   13.08638859  170.53700256    0.69000000    2.30999994
   13.09222221  170.53700256    0.69000000    2.32999992
   13.09638882  185.73199463    0.69000000    2.32999992
   13.09972191  186.42999268    0.69000000    2.32999992
   13.10277843  173.01100159    0.69000000    2.32999992
   13.10611153  186.53599548    0.69000000    2.30999994
   13.10944462  179.27400208    0.69000000    2.30999994
   13.11250019  174.32499695    0.69000000    2.32999992
   13.11555576  187.20100403    0.69000000    2.30999994
   13.11611176  194.35899353    0.69000000    2.30999994
   13.11944485  195.96000671    0.67000002    2.32999992
   13.12277794  200.90199280    0.67000002    2.32999992
   13.12583351  194.13499451    0.69000000    2.32999992
   13.12916660  233.49600220    0.67000002    2.32999992
   13.13527775  233.49600220    0.69000000    2.32999992
   13.13916683  251.73500061    0.67000002    2.32999992
   13.14249992  267.85800171    0.69000000    2.32999992
   13.14583302  319.21701050    0.67000002    2.32999992
   13.14777756  315.19400024    0.67000002    2.32999992
   13.14888859  343.44000244    0.67000002    2.32999992
   13.15027714  403.25601196    0.67000002    2.32999992
   13.15166664  392.05801392    0.67000002    2.32999992
   13.15305519  375.17098999    0.67000002    2.32999992
   13.15444374  439.47799683    0.67000002    2.32999992
   13.15583324  424.80499268    0.67000002    2.32999992
   13.15722179  464.92300415    0.67000002    2.32999992
   13.15861034  398.44400024    0.67000002    2.32999992
   13.15999985  465.18499756    0.67000002    2.32999992
   13.16138840  510.61199951    0.69000000    2.34999990
   13.16277695  487.65100098    0.69000000    2.34999990
   13.16416645  458.46200562    0.69000000    2.32999992
   13.16555500  400.79598999    0.69000000    2.32999992
   13.16694450  364.06600952    0.67000002    2.34999990
   13.16833401  325.06900024    0.67000002    2.34999990
   13.16972256  309.09100342    0.67000002    2.34999990
   13.17111111  224.21200562    0.67000002    2.34999990
   13.17138958  194.13499451    0.69000000    2.32999992
   13.17138958  233.49600220    0.67000002    2.32999992
   13.17138958  251.73500061    0.67000002    2.32999992
   13.17138958  267.85800171    0.69000000    2.32999992
   13.17166710  319.21701050    0.67000002    2.32999992
   13.17166710  174.32499695    0.69000000    2.32999992
   13.17166710  194.35899353    0.69000000    2.30999994
   13.17166710  195.96000671    0.67000002    2.32999992
   13.17166710  200.90199280    0.67000002    2.32999992
   13.17250061  221.60200500    0.67000002    2.34999990
   13.17555618  177.36799622    0.67000002    2.34999990
   13.17888927  132.20799255    0.67000002    2.34999990
   13.18194485  117.64099884    0.67000002    2.34999990
   13.18527794  102.46800232    0.69000000    2.34999990
   13.19194412  102.46800232    0.67000002    2.36999989
   13.19611073   67.70059967    0.67000002    2.34999990
   13.19944477   23.57019997    0.67000002    2.34999990
   13.20249939   -1.00000000    0.67000002    2.34999990
   13.20611095   -1.00000000    0.67000002    2.34999990
   13.20916653   -1.00000000    0.67000002    2.36999989
   13.21249962   -1.00000000    0.69000000    2.34999990
   13.21583271   -1.00000000    0.69000000    2.34999990
   13.24027824   -1.00000000    0.64999998    2.34999990
   13.24361134   -1.00000000    0.67000002    2.36999989
   13.24694443   -1.00000000    0.67000002    2.34999990
   13.25000000   -1.00000000    0.67000002    2.36999989
   13.25333309   -1.00000000    0.67000002    2.36999989
   13.25666714   -1.00000000    0.67000002    2.36999989
   13.25972176   -1.00000000    0.67000002    2.36999989
   13.26333332   -1.00000000    0.64999998    2.34999990
   13.26666641  165.52400208    0.64999998    2.34999990
   13.27027798  174.12600708    0.64999998    2.36999989
   13.27166653  184.49299622    0.64999998    2.36999989
   13.27388859  162.44099426    0.64999998    2.36999989
   13.27916622  162.44099426    0.64999998    2.36999989
   13.28333378  162.12800598    0.64999998    2.36999989
   13.28638935  177.20899963    0.64999998    2.36999989
   13.28972244  167.96000671    0.64999998    2.36999989
   13.29277802  161.09899902    0.64999998    2.36999989
   13.29611111  178.76100159    0.64999998    2.36999989
   13.29944515  168.36700439    0.64999998    2.36999989
   13.30249977  179.74200439    0.67000002    2.39000010
   13.30500031  169.47399902    0.67000002    2.39000010
   13.30611134  172.14700317    0.67000002    2.36999989
   13.30944443  183.25300598    0.64999998    2.39000010
   13.31250000  175.86999512    0.64999998    2.39000010
   13.31583309  166.35899353    0.64999998    2.39000010
   13.32194424  166.35899353    0.67000002    2.39000010
   13.32611084  167.14599609    0.64999998    2.36999989
   13.32916641  158.71600342    0.64999998    2.39000010
   13.33249950  165.04499817    0.64999998    2.39000010
   13.33555508  162.44400024    0.64999998    2.39000010
   13.33861065  162.94500732    0.67000002    2.39000010
   13.33944416  172.89399719    0.67000002    2.39000010
   13.34249973  172.92599487    0.69000000    2.39000010
   13.34583282  149.64999390    0.69000000    2.39000010
   13.34916592  172.67100525    0.69000000    2.39000010
   13.35222244  169.96299744    0.69000000    2.39000010
   13.35555553  176.47399902    0.69000000    2.39000010
   13.35888958  172.19200134    0.69000000    2.39000010
   13.36500072  172.19200134    0.69000000    2.39000010
   13.36888885  167.94799805    0.69000000    2.39000010
   13.37194443  170.70399475    0.69000000    2.39000010
   13.37277794  169.00599670    0.69000000    2.39000010
   13.37583351  141.50799561    0.69000000    2.39000010
   13.37916660  171.97399902    0.69000000    2.39000010
   13.38249969  161.58799744    0.69000000    2.39000010
   13.38555527  171.56700134    0.73000002    2.39000010
   13.38888836  150.45199585    0.75000000    2.39000010
   13.39222240  161.31300354    0.73000002    2.39000010
   13.39527798  160.10099792    0.69000000    2.39000010
   13.39861107  167.54499817    0.69000000    2.39000010
   13.40194416  155.91200256    0.67000002    2.40000010
   13.40749931  155.91200256    0.64999998    2.40000010
   13.41166592  165.32299805    0.64999998    2.39000010
   13.41499996  169.36300659    0.64999998    2.40000010
   13.41805553  162.09100342    0.64999998    2.39000010
   13.42138958  168.32400513    0.64999998    2.40000010
   13.42472267  161.95899963    0.64999998    2.40000010
   13.42777824  154.56599426    0.64999998    2.40000010
   13.43111134  169.49600220    0.64999998    2.40000010
   13.43444443  157.81599426    0.64999998    2.40000010
   13.43750000  164.89199829    0.63000000    2.40000010
   13.43861103  156.42900085    0.63000000    2.40000010
   13.44111156  163.42599487    0.63000000    2.40000010
   13.44444466  162.83900452    0.63000000    2.40000010
   13.45055580  162.83900452    0.63000000    2.40000010
   13.45444393  161.80799866    0.63000000    2.40000010
   13.45777798  166.96099854    0.63000000    2.40000010
   13.46111107  154.92700195    0.63000000    2.40000010
   13.46416664  162.82699585    0.63000000    2.40000010
   13.46749973  163.88000488    0.61000001    2.40000010
   13.47055531  150.20599365    0.61000001    2.40000010
   13.47194386  152.00199890    0.61000001    2.40000010
   13.47416592  156.05000305    0.61000001    2.40000010
   13.47749996  166.65299988    0.61000001    2.40000010
   13.48055553  164.25100708    0.61000001    2.40000010
   13.48388958  163.38000488    0.61000001    2.40000010
   13.48694515  159.06500244    0.61000001    2.40000010
   13.49333382  159.06500244    0.61000001    2.42000008
   13.49750042  150.63400269    0.61000001    2.42000008
   13.50055599  152.94200134    0.61000001    2.40000010
   13.50388908  155.01499939    0.61000001    2.42000008
   13.50527763  153.87699890    0.61000001    2.42000008
   13.50749969  146.59199524    0.61000001    2.42000008
   13.51083374  166.82000732    0.61000001    2.42000008
   13.51388931  160.54400635    0.61000001    2.42000008
   13.51722240  163.50500488    0.61000001    2.42000008
   13.52055550  162.44099426    0.61000001    2.42000008
   13.52361107  156.09399414    0.58999997    2.42000008
   13.52694416  174.40699768    0.61000001    2.42000008
   13.53027725  165.40600586    0.58999997    2.42000008
   13.53611183  165.40600586    0.58999997    2.42000008
   13.54027843  156.34300232    0.58999997    2.42000008
   13.54333401  167.59500122    0.58999997    2.42000008
   13.54666710  161.62899780    0.58999997    2.40000010
   13.55000019  155.97799683    0.58999997    2.42000008
   13.55305576  167.09199524    0.58999997    2.42000008
   13.55638885  159.48399353    0.58999997    2.42000008
   13.55972195  163.59300232    0.58999997    2.42000008
   13.56277752  145.53999329    0.58999997    2.42000008
   13.56611156  163.83500671    0.58999997    2.42000008
   13.56944466  147.70500183    0.58999997    2.44000006
   13.57194424  159.17999268    0.58999997    2.44000006
   13.57277775  171.91099548    0.58999997    2.44000006
   13.57888889  171.91099548    0.58999997    2.42000008
   13.58305550  171.54100037    0.58999997    2.44000006
   13.58638859  175.13099670    0.58999997    2.44000006
   13.58944416  170.17700195    0.58999997    2.42000008
   13.59277725  170.00999451    0.58999997    2.44000006
   13.59611034  169.96600342    0.58999997    2.44000006
   13.59916592  164.98899841    0.58999997    2.44000006
   13.60249996  177.70700073    0.58999997    2.42000008
   13.60555553  173.24699402    0.58999997    2.44000006
   13.60611153  157.13900757    0.58999997    2.44000006
   13.60944462  160.87899780    0.58999997    2.44000006
   13.61250019  165.35699463    0.58999997    2.44000006
   13.61583328  172.35200500    0.58999997    2.44000006
   13.62194443  172.35200500    0.58999997    2.44000006
   13.62583351  149.27200317    0.56999999    2.44000006
   13.62916660  157.51800537    0.56999999    2.44000006
   13.63249969  160.29499817    0.56999999    2.44000006
   13.63555527  157.57400513    0.56999999    2.44000006
   13.63888836  176.25799561    0.56999999    2.44000006
   13.63916683  178.31100464    0.56999999    2.44000006
   13.64249992  172.77000427    0.56999999    2.44000006
   13.64555550  170.19000244    0.56999999    2.44000006
   13.64888859  159.90100098    0.56999999    2.44000006
   13.65222168  157.86900330    0.56999999    2.44000006
   13.65527725  162.70199585    0.56999999    2.44000006
   13.65861034  152.28999329    0.56999999    2.42000008
   13.66472149  152.28999329    0.56999999    2.44000006
   13.66888905  164.99699402    0.56999999    2.44000006
   13.67194462  163.78399658    0.56999999    2.44000006
   13.67250061  166.49899292    0.56999999    2.44000006
   13.67583370  166.15100098    0.56999999    2.44000006
   13.67888927  158.55900574    0.56999999    2.44000006
   13.68222237  159.91299438    0.56999999    2.44000006
   13.68555546  153.60499573    0.56999999    2.44000006
   13.68861103  171.08099365    0.56999999    2.46000004
   13.69194412  154.76199341    0.56999999    2.44000006
   13.69499969  162.36399841    0.56999999    2.44000006
   13.69833374  156.56900024    0.56999999    2.46000004
   13.70166683  164.29299927    0.56999999    2.46000004
   13.70749950  164.29299927    0.56999999    2.46000004
   13.71166611  180.66600037    0.56999999    2.46000004
   13.71500015  174.07099915    0.56999999    2.46000004
   13.71805477  173.96099854    0.55000001    2.46000004
   13.72138882  165.50799561    0.56999999    2.46000004
   13.72472191  167.71699524    0.56999999    2.46000004
   13.72777748  148.63299561    0.56999999    2.46000004
   13.73111057  160.46200562    0.56999999    2.46000004
   13.73416710  162.98199463    0.55000001    2.46000004
   13.73750019  163.39700317    0.56999999    2.44000006
   13.73916721  173.92999268    0.56999999    2.44000006
   13.74111176  169.34800720    0.56999999    2.44000006
   13.74416733  166.56500244    0.56999999    2.46000004
   13.75027752  166.56500244    0.56999999    2.46000004
   13.75444412  163.64500427    0.56999999    2.46000004
   13.75777817  150.77900696    0.56999999    2.46000004
   13.76083374  160.43299866    0.56999999    2.46000004
   13.76416683  157.64900208    0.56999999    2.46000004
   13.76749992  150.55099487    0.56999999    2.46000004
   13.77055550  154.90499878    0.56999999    2.46000004
   13.77250004  158.57400513    0.55000001    2.46000004
   13.77444458  148.78100586    0.55000001    2.46000004
   13.77750015  157.40100098    0.55000001    2.46000004
   13.78083324  143.08000183    0.55000001    2.46000004
   13.78416729  154.96099854    0.55000001    2.46000004
   13.78722286  153.15100098    0.55000001    2.46000004
   13.79305553  153.15100098    0.55000001    2.46000004
   13.79722309  156.85200500    0.55000001    2.46000004
   13.80055618  151.52900696    0.55000001    2.46000004
   13.80388927  145.37699890    0.55000001    2.48000002
   13.80583382  166.90400696    0.55000001    2.48000002
   13.80749989  161.19000244    0.55000001    2.48000002
   13.81055546  139.70599365    0.55000001    2.46000004
   13.81388950  153.84300232    0.55000001    2.46000004
   13.81722260  149.38400269    0.55000001    2.46000004
   13.82027817  164.00999451    0.55000001    2.46000004
   13.82361126  151.49099731    0.55000001    2.46000004
   13.82694435  161.16000366    0.55000001    2.46000004
   13.82999992  155.40800476    0.55000001    2.46000004
   13.83611107  155.40800476    0.55000001    2.46000004
   13.84000015  164.30299377    0.55000001    2.48000002
   13.84333324  147.24600220    0.55000001    2.48000002
   13.84666634  165.07699585    0.55000001    2.48000002
   13.84972191  163.75100708    0.55000001    2.48000002
   13.85305595  166.93200684    0.55000001    2.46000004
   13.85638905  167.72200012    0.55000001    2.48000002
   13.85944462  167.80499268    0.55000001    2.48000002
   13.86277771  164.81199646    0.55000001    2.46000004
   13.86583328  164.10800171    0.55000001    2.46000004
   13.86916637  165.18499756    0.55000001    2.48000002
   13.87250042  160.10699463    0.55000001    2.48000002
   13.87305546  157.68899536    0.55000001    2.48000002
   13.87888908  157.68899536    0.55000001    2.48000002
   13.88305569  168.02400208    0.55000001    2.48000002
   13.88611126  170.53799438    0.55000001    2.48000002
   13.88944435  175.09500122    0.55000001    2.48000002
   13.89277744  163.84100342    0.52999997    2.48000002
   13.89583302  160.07000732    0.52999997    2.48000002
   13.89916611  168.60000610    0.52999997    2.48000002
   13.90249920  144.48699951    0.52999997    2.48000002
   13.90555477  150.84700012    0.52999997    2.48000002
   13.90611076  168.39799500    0.52999997    2.48000002
   13.90916634  152.87899780    0.52999997    2.48000002
   13.91249943  152.06799316    0.52999997    2.48000002
   13.91555500  158.45899963    0.52999997    2.48000002
   13.92166710  158.45899963    0.52999997    2.48000002
   13.92583370  157.15400696    0.52999997    2.48000002
   13.92916679  162.90100098    0.52999997    2.48000002
   13.93222237  169.15299988    0.52999997    2.48000002
   13.93555546  162.46600342    0.52999997    2.48000002
   13.93888855  173.10899353    0.55000001    2.48000002
   13.93972206  164.12199402    0.55000001    2.48000002
   13.94222260  170.18499756    0.52999997    2.48000002
   13.94555569  166.66900635    0.52999997    2.48000002
   13.94888878  173.88099670    0.52999997    2.48000002
   13.95194435  178.40499878    0.52999997    2.50000000
   13.95527744  152.47200012    0.52999997    2.50000000
   13.95833302  165.60499573    0.55000001    2.48000002
   13.96444416  165.60499573    0.52999997    2.48000002
   13.96861076  156.12699890    0.52999997    2.50000000
   13.97194386  159.36500549    0.52999997    2.48000002
   13.97305489  165.39900208    0.52999997    2.48000002
   13.97555542  151.62199402    0.52999997    2.48000002
   13.97888851  140.65499878    0.52999997    2.48000002
   13.98194408  153.83399963    0.52999997    2.48000002
   13.98527813  172.60600281    0.52999997    2.48000002
   13.98861122  147.79100037    0.52999997    2.48000002
   13.99166679  159.35400391    0.55000001    2.48000002
   13.99499989  152.69299316    0.55000001    2.48000002
   13.99833393  146.44700623    0.52999997    2.50000000
   14.00138855  149.16600037    0.55000001    2.48000002
   14.00749969  149.16600037    0.52999997    2.50000000
   14.01166630  155.79699707    0.51999998    2.50000000
   14.01472187  151.41700745    0.51999998    2.50000000
   14.01805496  154.77499390    0.51999998    2.50000000
   14.02111053  156.98300171    0.52999997    2.48000002
   14.02444458  156.13299561    0.52999997    2.50000000
   14.02777767  162.57600403    0.52999997    2.50000000
   14.03083324  158.00199890    0.52999997    2.51999998
   14.03416729  158.72799683    0.52999997    2.50000000
   14.03750038  163.01600647    0.55000001    2.50000000
   14.03972244  152.24899292    0.52999997    2.50000000
   14.04083347  147.72300720    0.52999997    2.50000000
   14.04416752  157.67999268    0.52999997    2.50000000
   14.05027771  157.67999268    0.55000001    2.50000000
   14.05444431  159.91999817    0.52999997    2.50000000
   14.05749989  152.75100708    0.52999997    2.50000000
   14.06083393  158.49899292    0.55000001    2.50000000
   14.06416702  145.85400391    0.52999997    2.51999998
   14.06722260  143.99099731    0.52999997    2.50000000
   14.07055569  158.16900635    0.52999997    2.51999998
   14.07305527  149.85800171    0.52999997    2.50000000
   14.07416630  139.77000427    0.55000001    2.50000000
   14.07750034  142.30400085    0.55000001    2.50000000
   14.08055592  143.80000305    0.52999997    2.50000000
   14.08388901  147.39900208    0.52999997    2.50000000
   14.08722210  142.22900391    0.52999997    2.50000000
   14.09305477  142.22900391    0.52999997    2.50000000
   14.09722233  144.17199707    0.52999997    2.50000000
   14.10055637  146.42599487    0.52999997    2.51999998
   14.10361195  149.47000122    0.55000001    2.50000000
   14.10638905  153.39300537    0.55000001    2.50000000
   14.10722256  163.79299927    0.55000001    2.50000000
   14.11055565  144.38800049    0.52999997    2.51999998
   14.11388969  161.04600525    0.55000001    2.51999998
   14.11694431  149.95399475    0.52999997    2.50000000
   14.12027836  147.02600098    0.52999997    2.50000000
   14.12333393  129.28900146    0.55000001    2.50000000
   14.12666702  131.80700684    0.52999997    2.50000000
   14.13000011  139.89100647    0.55000001    2.50000000
   14.13583279  139.89100647    0.55000001    2.50000000
   14.14000034  146.27999878    0.55000001    2.51999998
   14.14333344  150.71000671    0.52999997    2.50000000
   14.14666653  139.20300293    0.52999997    2.50000000
   14.14972210  138.12699890    0.52999997    2.50000000
   14.15305519  149.40699768    0.52999997    2.50000000
   14.15638828  149.70199585    0.51999998    2.50000000
   14.15944386  140.24099731    0.52999997    2.50000000
   14.16277695  137.31900024    0.52999997    2.50000000
   14.16583252  140.34399414    0.52999997    2.50000000
   14.16916656  140.79499817    0.52999997    2.51999998
   14.17250061  144.51300049    0.52999997    2.51999998
   14.17305565  141.26899719    0.52999997    2.51999998
   14.17888927  141.26899719    0.52999997    2.51999998
   14.18305588  134.90699768    0.52999997    2.51999998
   14.18611145  141.37500000    0.52999997    2.51999998
   14.18944454  142.78500366    0.52999997    2.51999998
   14.19250011  157.60699463    0.52999997    2.50000000
   14.19583321  144.64799500    0.52999997    2.51999998
   14.19916630  140.60800171    0.52999997    2.51999998
   14.20222187  135.05900574    0.51999998    2.51999998
   14.20555496  142.55599976    0.51999998    2.51999998
   14.20638847  138.31799316    0.52999997    2.51999998
   14.20916653  142.06599426    0.52999997    2.51999998
   14.21249962  139.67500305    0.52999997    2.51999998
   14.21583271  133.34199524    0.55000001    2.51999998
   14.22166634  133.34199524    0.56999999    2.51999998
   14.22583294  146.39900208    0.56999999    2.51999998
   14.22888851  146.17300415    0.56999999    2.51999998
   14.23222160  133.35899353    0.56999999    2.51999998
   14.24972248  130.40699768    0.63000000    2.53999996
   14.25222206  146.83500671    0.63000000    2.53999996
   14.25527763  146.85699463    0.64999998    2.51999998
   14.25861073  149.00399780    0.64999998    2.51999998
   14.26472187  149.00399780    0.76999998    2.51999998
   14.26861095  135.20700073    0.86000001    2.51999998
   14.27194405  133.92199707    0.92000002    2.51999998
   14.27527714  144.03399658    0.98000002    2.51999998
   14.27833271  146.55999756    0.75000000    2.51999998
   14.28166676  140.52699280    0.70999998    2.51999998
   14.28305531  150.43400574    0.70999998    2.51999998
   14.28555584  145.58099365    0.67000002    2.51999998
   14.28861141  145.64700317    0.67000002    2.51999998
   14.29194450  144.17799377    0.67000002    2.51999998
   14.29527855  142.55999756    0.63000000    2.51999998
   14.29833412  132.27900696    0.61000001    2.51999998
   14.30166721  136.95300293    0.58999997    2.51999998
   14.30749989  136.95300293    0.58999997    2.51999998
   14.31166649  144.83999634    0.56999999    2.51999998
   14.31472206  141.71099854    0.55000001    2.51999998
   14.31638908  124.60299683    0.55000001    2.51999998
   14.31861115  138.90800476    0.55000001    2.53999996
   14.32166672  125.88700104    0.55000001    2.53999996
   14.32499981  149.38099670    0.56999999    2.51999998
   14.32833290  138.54600525    0.56999999    2.51999998
   14.33138847  137.19099426    0.56999999    2.51999998
   14.33472157  140.65499878    0.58999997    2.53999996
   14.33777714  134.08200073    0.56999999    2.53999996
   14.34111118  145.12699890    0.56999999    2.51999998
   14.34444427  145.40400696    0.55000001    2.53999996
   14.35027790  145.40400696    0.55000001    2.51999998
   14.35444450  147.47300720    0.55000001    2.53999996
   14.35777855  139.10299683    0.55000001    2.53999996
   14.36083412  129.95700073    0.55000001    2.53999996
   14.36416721  138.53300476    0.52999997    2.53999996
   14.36750031  141.67199707    0.52999997    2.53999996
   14.37055588  146.94299316    0.52999997    2.51999998
   14.37388897  126.03900146    0.55000001    2.53999996
   14.37694454  140.55999756    0.52999997    2.53999996
   14.38027763  135.66700745    0.55000001    2.51999998
   14.38305569  136.67799377    0.55000001    2.51999998
   14.38388920  135.27699280    0.52999997    2.53999996
   14.38694477  138.71699524    0.52999997    2.53999996
   14.39305496  138.71699524    0.52999997    2.53999996
   14.39722252  135.32499695    0.52999997    2.51999998
   14.40055561  140.59599304    0.52999997    2.53999996
   14.40361118  140.14199829    0.52999997    2.53999996
   14.40694427  142.95100403    0.52999997    2.53999996
   14.41027737  153.79600525    0.52999997    2.53999996
   14.41333294  168.82299805    0.52999997    2.53999996
   14.41638851  146.26499939    0.52999997    2.51999998
   14.41722298  153.10499573    0.52999997    2.51999998
   14.42027855  167.94400024    0.52999997    2.53999996
   14.42361164  144.73500061    0.52999997    2.53999996
   14.42694473  150.64799500    0.52999997    2.53999996
   14.43000031  159.77699280    0.52999997    2.53999996
   14.43611145  159.77699280    0.52999997    2.53999996
   14.44027805  145.17700195    0.52999997    2.55999994
   14.44333363  155.97900391    0.52999997    2.53999996
   14.44666672  158.76899719    0.52999997    2.53999996
   14.44972229  166.44599915    0.52999997    2.53999996
   14.45027733  159.80200195    0.52999997    2.53999996
   14.45361137  146.90600586    0.52999997    2.53999996
   14.45666695  159.08900452    0.52999997    2.53999996
   14.46000004  145.83900452    0.52999997    2.53999996
   14.46333313  173.73699951    0.52999997    2.53999996
   14.46638870  158.48100281    0.52999997    2.53999996
   14.46972179  161.74000549    0.52999997    2.53999996
   14.47277737  178.51899719    0.52999997    2.53999996
   14.47888851  178.51899719    0.51999998    2.53999996
   14.48305511  169.84199524    0.52999997    2.53999996
   14.48361111  164.46200562    0.52999997    2.53999996
   14.48666668  145.15600586    0.52999997    2.53999996
   14.49000072  154.87300110    0.52999997    2.53999996
   14.49305534  158.79899597    0.52999997    2.53999996
   14.49638939  151.20700073    0.52999997    2.53999996
   14.49972248  170.08799744    0.52999997    2.53999996
   14.50277805  156.28599548    0.52999997    2.55999994
   14.50611115  154.47700500    0.52999997    2.55999994
   14.50944424  160.95599365    0.52999997    2.53999996
   14.51249981  165.66999817    0.52999997    2.53999996
   14.51583290  149.46800232    0.55000001    2.55999994
   14.51694393  146.04699707    0.55000001    2.55999994
   14.52166653  146.04699707    0.64999998    2.53999996
   14.52583313  150.72099304    0.67000002    2.53999996
   14.52916622  136.74200439    0.64999998    2.55999994
   14.53222179  149.48100281    0.61000001    2.55999994
   14.53555584  144.25399780    0.58999997    2.55999994
   14.53861141  135.88900757    0.58999997    2.55999994
   14.54194450  133.92999268    0.58999997    2.53999996
   14.54527855  146.33000183    0.61000001    2.53999996
   14.54833412  143.26800537    0.58999997    2.55999994
   14.55027771  132.44599915    0.58999997    2.53999996
   14.55194473  143.38600159    0.58999997    2.53999996
   14.55527782  140.88299561    0.56999999    2.55999994
   14.55861092  149.79699707    0.56999999    2.53999996
   14.56444454  149.79699707    0.61000001    2.53999996
   14.56861115  148.13999939    0.64999998    2.55999994
   14.57194424  147.02000427    0.64999998    2.55999994
   14.57499981  135.75700378    0.64999998    2.55999994
   14.57833290  150.17900085    0.75000000    2.55999994
   14.58166695  140.36999512    0.79000002    2.53999996
   14.58361053  144.19500732    0.79000002    2.53999996
   14.58500004  146.74000549    0.76999998    2.55999994
   14.58833313  129.52400208    0.79000002    2.55999994
   14.59166622  138.57099915    0.79000002    2.55999994
   14.59472179  140.37500000    0.79000002    2.55999994
   14.59805489  134.13800049    0.79000002    2.55999994
   14.60138893  146.78599548    0.81999999    2.55999994
   14.60750008  146.78599548    0.79000002    2.53999996
   14.61166668  137.41499329    0.70999998    2.55999994
   14.61472225  133.69500732    0.70999998    2.55999994
   14.61694431  123.11499786    0.70999998    2.55999994
   14.61833382  133.20199585    0.69000000    2.55999994
   14.62166691  143.57200623    0.69000000    2.55999994
   14.62500000  131.20700073    0.67000002    2.55999994
   14.62805557  127.97599792    0.63000000    2.53999996
   14.63138866  129.04699707    0.58999997    2.55999994
   14.63472176  130.30400085    0.56999999    2.55999994
   14.63777733  137.95500183    0.56999999    2.55999994
   14.64111137  135.65100098    0.56999999    2.55999994
   14.64416695  136.74400330    0.55000001    2.55999994
   14.65027714  136.74400330    0.55000001    2.55999994
   14.65444374  133.88999939    0.55000001    2.55999994
   14.65749931  136.87600708    0.55000001    2.55999994
   14.66083336  133.24400330    0.55000001    2.55999994
   14.66416645  130.62899780    0.55000001    2.55999994
   14.66722298  134.90400696    0.55000001    2.55999994
   14.67055607  132.96800232    0.55000001    2.57999992
   14.67361164  143.06900024    0.55000001    2.55999994
   14.67694473  127.44100189    0.55000001    2.55999994
   14.68027782  119.92299652    0.52999997    2.55999994
   14.68333340  125.80899811    0.52999997    2.55999994
   14.68388939  119.34300232    0.52999997    2.55999994
   14.68722248  123.12699890    0.52999997    2.55999994
   14.69305515  123.12699890    0.51999998    2.55999994
   14.69722271  120.41600037    0.51999998    2.55999994
   14.70055580  121.49099731    0.51999998    2.55999994
   14.70361137  121.41100311    0.52999997    2.55999994
   14.70694447  124.30599976    0.52999997    2.55999994
   14.71000004  120.05599976    0.52999997    2.57999992
   14.71333313  128.08099365    0.52999997    2.55999994
   14.71666622  117.72100067    0.52999997    2.55999994
   14.71722221  121.25000000    0.51999998    2.55999994
   14.72027779  122.68299866    0.51999998    2.55999994
   14.72333336  125.04399872    0.51999998    2.55999994
   14.72666645  120.94799805    0.51999998    2.57999992
   14.72999954  119.88700104    0.51999998    2.57999992
   14.73583317  119.88700104    0.51999998    2.55999994
   14.74000072  123.36000061    0.52999997    2.57999992
   14.74333382  120.65399933    0.52999997    2.57999992
   14.74666691  125.60299683    0.51999998    2.55999994
   14.74972248  118.54799652    0.51999998    2.55999994
   14.75055599  120.19799805    0.51999998    2.57999992
   14.75333309  121.17700195    0.51999998    2.57999992
   14.75638866  116.81999969    0.51999998    2.57999992
   14.75972176  115.00099945    0.51999998    2.55999994
   14.76305580  129.02299500    0.52999997    2.57999992
   14.76611137  128.69900513    0.51999998    2.57999992
   14.76944447  127.81199646    0.51999998    2.57999992
   14.77277756  122.20999908    0.51999998    2.55999994
   14.77888870  122.20999908    0.51999998    2.55999994
   14.78277779  115.54900360    0.51999998    2.55999994
   14.78388977  121.56800079    0.51999998    2.55999994
   14.78666687  125.49199677    0.51999998    2.55999994
   14.78972244  119.69699860    0.52999997    2.57999992
   14.79305553  121.56099701    0.51999998    2.57999992
   14.79638958  114.62599945    0.51999998    2.55999994
   14.79944515  129.61700439    0.51999998    2.55999994
   14.80277824  113.73899841    0.52999997    2.57999992
   14.80611134  126.97100067    0.51999998    2.57999992
   14.80916691  124.54799652    0.51999998    2.57999992
   14.81250000  120.36900330    0.51999998    2.55999994
   14.81583309  131.74000549    0.55000001    2.55999994
   14.81722260  128.72700500    0.55000001    2.55999994
   14.82166672  128.72700500    0.56999999    2.57999992
   14.82583332  130.44099426    0.61000001    2.55999994
   14.82888889  131.02000427    0.58999997    2.57999992
   14.83222198  132.67100525    0.55000001    2.57999992
   14.83555508  137.19999695    0.55000001    2.57999992
   14.83861065  124.11499786    0.55000001    2.57999992
   14.84194374  134.89900208    0.55000001    2.57999992
   14.84499931  134.29899597    0.58999997    2.55999994
   14.84833336  129.62300110    0.64999998    2.57999992
   14.85055637  116.15200043    0.64999998    2.57999992
   14.85194492  124.34300232    0.64999998    2.57999992
   14.85527802  139.00799561    0.67000002    2.55999994
   14.85861111  143.93699646    0.63000000    2.57999992
   14.86444473  143.93699646    0.61000001    2.57999992
   14.86861134  137.53900146    0.61000001    2.57999992
   14.87194443  148.60000610    0.61000001    2.57999992
   14.87500000  135.91499329    0.58999997    2.57999992
   14.87833309  132.78599548    0.56999999    2.57999992
   14.88166714  114.08999634    0.56999999    2.57999992
   14.88388920  132.92700195    0.56999999    2.57999992
   14.88527775  124.05100250    0.56999999    2.57999992
   14.88833332  131.54800415    0.56999999    2.57999992
   14.89166641  129.95100403    0.56999999    2.57999992
   14.89499950  137.40199280    0.58999997    2.57999992
   14.89805508  141.22300720    0.58999997    2.57999992
   14.90138817  139.64799500    0.58999997    2.57999992
   14.90722179  139.64799500    0.58999997    2.57999992
   14.91138840  138.11900330    0.56999999    2.57999992
   14.91472149  136.32000732    0.55000001    2.57999992
   14.91722298  138.48699951    0.52999997    2.57999992
   14.91833401  140.64599609    0.52999997    2.57999992
   14.92166710  131.86599731    0.52999997    2.57999992
   14.92472267  133.02099609    0.52999997    2.57999992
   14.92805576  129.61300659    0.55000001    2.57999992
   14.93111134  128.36700439    0.55000001    2.57999992
   14.93444443  129.52000427    0.55000001    2.57999992
   14.93777752  134.97700500    0.55000001    2.57999992
   14.94083309  140.86000061    0.55000001    2.57999992
   14.94416714  134.16799927    0.55000001    2.57999992
   14.95027733  134.16799927    0.55000001    2.57999992
   14.95416641  145.54299927    0.51999998    2.57999992
   14.95749950  142.38999939    0.51999998    2.57999992
   14.96083355  128.78399658    0.51999998    2.59999990
   14.96388912  140.21600342    0.51999998    2.57999992
   14.96722221  130.49400330    0.51999998    2.57999992
   14.97055531  141.88600159    0.52999997    2.57999992
   14.97361088  141.82200623    0.51999998    2.57999992
   14.97694397  129.04600525    0.52999997    2.57999992
   14.97999954  136.55200195    0.51999998    2.57999992
   14.98333359  127.91100311    0.52999997    2.57999992
   14.98527813  142.72300720    0.51999998    2.57999992
   14.98694515  120.97100067    0.51999998    2.59999990
   14.99305534  120.97100067    0.51999998    2.57999992
   14.99722290  144.03700256    0.51999998    2.57999992
   15.00027752  146.09599304    0.51999998    2.57999992
   15.00361156  134.08799744    0.52999997    2.59999990
   15.00694466  144.51400757    0.52999997    2.57999992
   15.01000023  132.51600647    0.52999997    2.57999992
   15.01333332  124.98400116    0.52999997    2.57999992
   15.01638889  144.40699768    0.51999998    2.59999990
   15.01861095  132.71899414    0.51999998    2.59999990
   15.01999950  139.76100159    0.51999998    2.57999992
   15.02333355  117.24400330    0.51999998    2.57999992
   15.02666664  127.92400360    0.51999998    2.57999992
   15.02972221  121.00399780    0.51999998    2.57999992
   15.03583336  121.00399780    0.50000000    2.59999990
   15.04000092  134.24600220    0.51999998    2.59999990
   15.04333401  135.22099304    0.50000000    2.59999990
   15.04638958  136.89700317    0.50000000    2.59999990
   15.04972267  116.59899902    0.51999998    2.59999990
   15.05194473  131.93800354    0.51999998    2.59999990
   15.05333328  129.87300110    0.51999998    2.59999990
   15.05666733  133.14399719    0.51999998    2.57999992
   15.05972195  120.62999725    0.50000000    2.57999992
   15.06305599  119.40299988    0.50000000    2.57999992
   15.06638908  140.25799561    0.50000000    2.57999992
   15.06944466  129.77799988    0.50000000    2.59999990
   15.07277775  118.21600342    0.50000000    2.59999990
   15.07861137  118.21600342    0.47999999    2.57999992
   15.08277798  134.72700500    0.47999999    2.57999992
   15.08527756  130.80499268    0.47999999    2.57999992
   15.08638859  143.04800415    0.47999999    2.59999990
   15.08972168  133.86399841    0.47999999    2.59999990
   15.09305477  131.59500122    0.47999999    2.59999990
   15.09611034  124.77899933    0.47999999    2.59999990
   15.09944439  125.32900238    0.47999999    2.59999990
   15.10277843  139.08900452    0.47999999    2.59999990
   15.10583401  130.74400330    0.46000001    2.59999990
   15.10916710  117.09100342    0.46000001    2.59999990
   15.11250019  131.64900208    0.46000001    2.59999990
   15.11555576  129.83000183    0.46000001    2.59999990
   15.12166691  129.83000183    0.47999999    2.59999990
   15.12555599  127.64199829    0.46000001    2.59999990
   15.12888908  131.12500000    0.44000000    2.59999990
   15.13222218  128.72200012    0.44000000    2.59999990
   15.13527775  126.80200195    0.44000000    2.59999990
   15.13861084  122.63300323    0.44000000    2.59999990
   15.14194393  140.90699768    0.44000000    2.59999990
   15.14527798  128.98899841    0.44000000    2.59999990
   15.14833355  135.75900269    0.44000000    2.59999990
   15.15166664  129.31399536    0.44000000    2.59999990
   15.15249920  135.11700439    0.44000000    2.59999990
   15.15499973  126.09600067    0.44000000    2.59999990
   15.15833282  139.44799805    0.44000000    2.59999990
   15.16444397  139.44799805    0.44000000    2.59999990
   15.16861153  131.08200073    0.44000000    2.59999990
   15.17166710  128.95199585    0.44000000    2.59999990
   15.17500019  142.04200745    0.44000000    2.59999990
   15.17833328  118.40399933    0.44000000    2.59999990
   15.18138885  124.35800171    0.44000000    2.59999990
   15.18472195  137.14300537    0.44000000    2.59999990
   15.18583298  125.32900238    0.44000000    2.59999990
   15.18805599  127.29799652    0.44000000    2.59999990
   15.19138908  131.25599670    0.44000000    2.59999990
   15.19472218  134.63900757    0.44000000    2.59999990
   15.19777775  136.64799500    0.44000000    2.59999990
   15.20111084  129.00300598    0.44000000    2.59999990
   15.20722198  129.00300598    0.44000000    2.59999990
   15.21138859  131.88299561    0.44000000    2.59999990
   15.21472168  125.26899719    0.44000000    2.59999990
   15.21777725  126.68599701    0.44000000    2.61999989
   15.21916580  132.02799988    0.44000000    2.61999989
   15.22138882  135.92100525    0.44000000    2.59999990
   15.22472191  127.65499878    0.44000000    2.59999990
   15.22805500  123.95600128    0.44000000    2.59999990
   15.23111057  116.17900085    0.44000000    2.59999990
   15.23444462  128.03799438    0.44000000    2.59999990
   15.23750019  114.22299957    0.44000000    2.61999989
   15.24083328  130.65299988    0.44000000    2.61999989
   15.24416733  116.38800049    0.44000000    2.61999989
   15.25000000  116.38800049    0.44000000    2.59999990
   15.26833344  125.05599976    0.41999999    2.59999990
   15.27166653  127.87899780    0.41999999    2.59999990
   15.27499962  133.51199341    0.41999999    2.61999989
   15.27805519  137.24000549    0.41999999    2.61999989
   15.28138828  130.68299866    0.41999999    2.59999990
   15.28472233  123.19100189    0.41999999    2.59999990
   15.28777790  137.77299500    0.44000000    2.59999990
   15.29305553  137.77299500    0.44000000    2.59999990
   15.29722309  125.43599701    0.44000000    2.59999990
   15.30055618  114.81500244    0.46000001    2.61999989
   15.30138874  128.69900513    0.46000001    2.61999989
   15.40138817   -1.00000000   -1.00000000   -1.00000000
   15.51805496   -1.00000000   -1.00000000   -1.00000000
   15.69416714   -1.00000000   -1.00000000   -1.00000000
   15.75000000  127.67900085    0.46000001    2.61999989
   15.75333309  115.94799805    0.50000000    2.61999989
   15.75666714  130.79899597    0.47999999    2.61999989
   15.75972176  144.17300415    0.51999998    2.61999989
   15.76305580  142.60899353    0.51999998    2.61999989
   15.76638889  130.86199951    0.51999998    2.61999989
   15.77027798  130.86199951    0.47999999    2.64000010
   15.77444458  149.87600708    0.50000000    2.61999989
   15.77777767  116.09999847    0.46000001    2.61999989
   15.78111076  130.19900513    0.46000001    2.61999989
   15.78333378  130.52699280    0.44000000    2.61999989
   15.78472233  129.51899719    0.44000000    2.61999989
   15.78777790  127.12599945    0.44000000    2.64000010
   15.79111195  132.21099854    0.44000000    2.61999989
   15.79444504  113.83599854    0.46000001    2.61999989
   15.79750061  125.06400299    0.44000000    2.61999989
   15.80083370  130.70100403    0.44000000    2.61999989
   15.80388927  124.07800293    0.44000000    2.61999989
   15.80722237  137.48100281    0.44000000    2.61999989
   15.81333351  137.48100281    0.44000000    2.64000010
   15.81750011  122.94300079    0.44000000    2.61999989
   15.82055569  118.17099762    0.44000000    2.61999989
   15.82388878  142.13299561    0.41999999    2.61999989
   15.82694435  132.70700073    0.41999999    2.61999989
   15.83027744  144.23800659    0.41999999    2.61999989
   15.83361053  124.91600037    0.44000000    2.61999989
   15.83666611  124.31999969    0.46000001    2.64000010
   15.84000015  134.03700256    0.46000001    2.64000010
   15.84333324  131.20799255    0.46000001    2.64000010
   15.84638882  118.47399902    0.46000001    2.64000010
   15.84972191  124.53700256    0.46000001    2.61999989
   15.85027790  122.41200256    0.46000001    2.61999989
   15.85611153  122.41200256    0.44000000    2.61999989
   15.86027813  126.95899963    0.44000000    2.61999989
   15.86333370  122.57099915    0.41999999    2.61999989
   15.86666679  126.62999725    0.44000000    2.61999989
   15.86999989  120.35700226    0.41999999    2.61999989
   15.87305546  135.74099731    0.41999999    2.61999989
   15.87638855  129.76300049    0.44000000    2.61999989
   15.87944412  124.80999756    0.44000000    2.61999989
   15.88277817  124.52600098    0.44000000    2.61999989
   15.88361073  122.41799927    0.44000000    2.61999989
   15.88638878  124.94300079    0.44000000    2.61999989
   15.88972187  120.74500275    0.41999999    2.61999989
   15.89305496  133.02200317    0.44000000    2.61999989
   15.89888859  133.02200317    0.44000000    2.61999989
   15.90305519  125.47100067    0.41999999    2.64000010
   15.90638828  127.06600189    0.41999999    2.61999989
   15.90944386  122.20500183    0.44000000    2.61999989
   15.91277695  125.77999878    0.44000000    2.61999989
   15.91583252  128.94099426    0.44000000    2.61999989
   15.91694450  129.68299866    0.46000001    2.61999989
   15.91944504  123.24299622    0.46000001    2.61999989
   15.92277813  125.54199982    0.47999999    2.61999989
   15.92611122  132.65499878    0.46000001    2.64000010
   15.92916679  127.10199738    0.46000001    2.61999989
   15.93249989  151.66799927    0.46000001    2.61999989
   15.93555546  148.52699280    0.46000001    2.61999989
   15.94166660  148.52699280    0.44000000    2.64000010
   15.94583321  150.56900024    0.41999999    2.64000010
   15.94916630  139.71299744    0.41999999    2.61999989
   15.95027733  136.45100403    0.41999999    2.61999989
   15.95249939  148.03300476    0.41999999    2.61999989
   15.95583344  153.04800415    0.41999999    2.61999989
   15.95916653  147.07299805    0.44000000    2.61999989
   15.96222210  139.70599365    0.44000000    2.61999989
   15.96555519  141.14500427    0.46000001    2.64000010
   15.96861076  130.34500122    0.47999999    2.64000010
   15.97194386  131.43299866    0.44000000    2.64000010
   15.97527695  136.30000305    0.44000000    2.64000010
   15.97833252  120.43599701    0.41999999    2.61999989
   15.98444462  120.43599701    0.44000000    2.61999989
   15.98861122  114.27999878    0.44000000    2.61999989
   15.99194431  121.94599915    0.46000001    2.61999989
   15.99527836  121.43099976    0.46000001    2.64000010
   15.99833393  116.20099640    0.51999998    2.61999989
   16.00166702  116.52700043    0.51999998    2.61999989
   16.00499916  113.26300049    0.55000001    2.64000010
   16.00805473  113.53399658    0.64999998    2.64000010
   16.01138878  111.36499786    0.69000000    2.61999989
   16.01444435  115.51300049    0.69000000    2.61999989
   16.01694489  113.78900146    0.69000000    2.61999989
   16.01805496  115.78600311    0.64999998    2.61999989
   16.02138901  120.55799866    0.64999998    2.61999989
   16.02750015  120.55799866    0.58999997    2.61999989
   16.03166580  115.11000061    0.61000001    2.61999989
   16.03472137  116.57900238    0.63000000    2.61999989
   16.03805542  110.45200348    0.61000001    2.61999989
   16.04138756  112.63300323    0.58999997    2.61999989
   16.04444313  111.00399780    0.56999999    2.61999989
   16.04777718  120.70700073    0.56999999    2.61999989
   16.05027771  114.50399780    0.56999999    2.61999989
   16.05111122  111.68800354    0.56999999    2.61999989
   16.05444336  110.43900299    0.56999999    2.61999989
   16.05749893  111.18800354    0.56999999    2.64000010
   16.06083298  113.56400299    0.55000001    2.61999989
   16.06416512  117.37599945    0.52999997    2.61999989
   16.07027817  117.37599945    0.55000001    2.61999989
   16.07444572  116.86599731    0.56999999    2.64000010
   16.07750130  119.72699738    0.56999999    2.64000010
   16.08083344  117.69999695    0.55000001    2.61999989
   16.08361244  114.16500092    0.52999997    2.61999989
   16.08444595  115.51799774    0.52999997    2.61999989
   16.08777809  120.12300110    0.51999998    2.61999989
   16.09111214  114.75399780    0.50000000    2.64000010
   16.09416771  112.28299713    0.50000000    2.64000010
   16.09749985  119.70999908    0.51999998    2.64000010
   16.10083389  118.45200348    0.47999999    2.61999989
   16.10388947  123.39499664    0.44000000    2.61999989
   16.10722351  125.38700104    0.44000000    2.61999989
   16.11305618  125.38700104    0.40000001    2.64000010
   16.11722183  113.05500031    0.41999999    2.64000010
   16.12055588  115.99700165    0.41999999    2.64000010
   16.12361145  110.67900085    0.41999999    2.64000010
   16.12694550  113.45300293    0.41999999    2.61999989
   16.13027763  109.25700378    0.41999999    2.61999989
   16.13333321  103.93800354    0.41999999    2.61999989
   16.13666725  102.11799622    0.41999999    2.61999989
   16.13972282  114.70500183    0.44000000    2.64000010
   16.14305496  103.16100311    0.46000001    2.64000010
   16.14638901  110.13400269    0.46000001    2.61999989
   16.14944458  111.02799988    0.46000001    2.61999989
   16.15027809  119.76300049    0.47999999    2.64000010
   16.15583229  119.76300049    0.46000001    2.64000010
   16.15999985  114.74299622    0.47999999    2.64000010
   16.16333389  106.74199677    0.51999998    2.64000010
   16.16638756  110.17199707    0.51999998    2.64000010
   16.16972160  108.54900360    0.51999998    2.64000010
   16.17305565  103.16999817    0.50000000    2.64000010
   16.17638779  115.57399750    0.50000000    2.64000010
   16.17944336  119.95200348    0.47999999    2.61999989
   16.18277740  101.68199921    0.46000001    2.61999989
   16.18361092  104.22599792    0.46000001    2.61999989
   16.18610954  107.99900055    0.46000001    2.61999989
   16.18944359  109.09899902    0.44000000    2.64000010
   16.19277763  108.22599792    0.41999999    2.61999989
   16.19888878  108.22599792    0.41999999    2.64000010
   16.20305634  109.76999664    0.41999999    2.64000010
   16.20611191  106.28399658    0.41999999    2.64000010
   16.20944595  106.54599762    0.41999999    2.64000010
   16.21250153  110.31099701    0.41999999    2.64000010
   16.21583366  106.15299988    0.41999999    2.64000010
   16.21694565  108.65399933    0.41999999    2.61999989
   16.21972275  113.69599915    0.41999999    2.61999989
   16.22277832  110.77899933    0.41999999    2.61999989
   16.22611237  108.26599884    0.41999999    2.64000010
   16.22916794  107.38800049    0.41999999    2.61999989
   16.23250008  107.94300079    0.41999999    2.64000010
   16.23583412  105.18800354    0.41999999    2.64000010
   16.24166679  105.18800354    0.40000001    2.61999989
   16.24583435  109.63300323    0.40000001    2.64000010
   16.24888992  112.54599762    0.40000001    2.64000010
   16.25027847  111.61799622    0.40000001    2.64000010
   16.25250053  105.32900238    0.40000001    2.64000010
   16.25583267  115.68199921    0.40000001    2.61999989
   16.25916672  115.84500122    0.40000001    2.64000010
   16.26222229  104.55999756    0.40000001    2.64000010
   16.26555634  112.25599670    0.40000001    2.64000010
   16.26861000  108.98200226    0.40000001    2.64000010
   16.27194405  110.86699677    0.41999999    2.64000010
   16.27527809  104.21099854    0.41999999    2.64000010
   16.27833366  106.43699646    0.41999999    2.64000010
   16.28444481  106.43699646    0.44000000    2.61999989
   16.28861046  109.54000092    0.41999999    2.64000010
   16.29194450  111.60500336    0.41999999    2.64000010
   16.29500008  110.23999786    0.41999999    2.64000010
   16.29833221  109.15299988    0.44000000    2.64000010
   16.30166626  103.03399658    0.44000000    2.61999989
   16.30472183  109.86299896    0.44000000    2.61999989
   16.30805397  106.96600342    0.46000001    2.61999989
   16.31110954  105.31700134    0.50000000    2.64000010
   16.31444359  105.06099701    0.51999998    2.61999989
   16.31694603  102.12699890    0.52999997    2.64000010
   16.31805611  106.75000000    0.52999997    2.64000010
   16.32139015  108.66600037    0.51999998    2.61999989
   16.32722282  108.66600037    0.56999999    2.64000010
   16.33139038  107.96499634    0.58999997    2.61999989
   16.33472252  104.46299744    0.55000001    2.64000010
   16.33805656  107.34200287    0.52999997    2.64000010
   16.34111214  110.40899658    0.51999998    2.64000010
   16.34444427  108.21199799    0.51999998    2.64000010
   16.34777832  107.46900177    0.47999999    2.64000010
   16.35027885  102.28900146    0.47999999    2.64000010
   16.35111237  108.12200165    0.47999999    2.61999989
   16.35444450   99.63999939    0.47999999    2.61999989
   16.35777855  114.81600189    0.46000001    2.64000010
   16.36083412  106.18099976    0.41999999    2.64000010
   16.36416626  106.57900238    0.41999999    2.66000009
   16.37027740  106.57900238    0.40000001    2.64000010
   16.37444496  103.32199860    0.41999999    2.64000010
   16.37750053  109.65200043    0.41999999    2.64000010
   16.38083267  106.63300323    0.41999999    2.64000010
   16.38361168  106.42900085    0.41999999    2.61999989
   16.38416672  111.45400238    0.41999999    2.61999989
   16.38750076  105.53700256    0.41999999    2.64000010
   16.39083290  101.50399780    0.41999999    2.61999989
   16.39388847  105.92700195    0.41999999    2.64000010
   16.39722252  102.66600037    0.41999999    2.64000010
   16.40055466  105.73500061    0.41999999    2.64000010
   16.40361023  102.28299713    0.41999999    2.61999989
   16.40694427  112.07399750    0.41999999    2.64000010
   16.41305542  112.07399750    0.41999999    2.64000010
   16.41722107  109.48600006    0.44000000    2.61999989
   16.42027664  110.93699646    0.41999999    2.61999989
   16.42361069  104.63600159    0.41999999    2.64000010
   16.42694473  101.20600128    0.41999999    2.64000010
   16.43000031  105.41899872    0.41999999    2.64000010
   16.43333244  104.11000061    0.41999999    2.64000010
   16.43666649  108.14199829    0.44000000    2.64000010
   16.43972206  107.04399872    0.44000000    2.61999989
   16.44305420  109.65200043    0.44000000    2.64000010
   16.44610977  106.51699829    0.44000000    2.64000010
   16.44944382  104.90200043    0.44000000    2.64000010
   16.45027924  115.41899872    0.44000000    2.64000010
   16.45583344  115.41899872    0.41999999    2.64000010
   16.46000099  110.81400299    0.41999999    2.61999989
   16.46333504  112.81500244    0.44000000    2.64000010
   16.46638870  116.41300201    0.41999999    2.61999989
   16.46972275  112.04699707    0.41999999    2.61999989
   16.47305679  107.93800354    0.41999999    2.64000010
   16.47611237  107.15299988    0.44000000    2.64000010
   16.47944450  104.92600250    0.44000000    2.64000010
   16.48250008  107.42199707    0.41999999    2.64000010
   16.48361206  111.88099670    0.44000000    2.64000010
   16.48638916  113.29000092    0.44000000    2.64000010
   16.48944473  117.15699768    0.44000000    2.61999989
   16.49277878  109.62599945    0.41999999    2.64000010
   16.49861145  109.62599945    0.41999999    2.61999989
   16.50277710  116.60600281    0.44000000    2.64000010
   16.50611115  121.74800110    0.41999999    2.64000010
   16.50944519  113.46399689    0.41999999    2.64000010
   16.51250076  106.04000092    0.41999999    2.64000010
   16.51583290  101.10900116    0.41999999    2.64000010
   16.51694489  107.05599976    0.41999999    2.64000010
   16.51916695  110.44599915    0.41999999    2.64000010
   16.52249908  106.72100067    0.41999999    2.64000010
   16.52583313  110.53299713    0.41999999    2.64000010
   16.52888870   98.67060089    0.41999999    2.64000010
   16.53222275  131.76400757    0.41999999    2.64000010
   16.53555489  118.04399872    0.44000000    2.64000010
   16.54166603  118.04399872    0.46000001    2.64000010
   16.54555511  116.04799652    0.46000001    2.64000010
   16.54888916  102.86399841    0.46000001    2.64000010
   16.55027771  119.56099701    0.46000001    2.64000010
   16.55249977  125.97299957    0.47999999    2.64000010
   16.55583191  118.80300140    0.50000000    2.64000010
   16.55916595  121.77700043    0.50000000    2.61999989
   16.56222153  120.37400055    0.51999998    2.64000010
   16.56555557  107.85399628    0.51999998    2.64000010
   16.56888962  116.18900299    0.50000000    2.61999989
   16.57194519  116.30400085    0.50000000    2.64000010
   16.57527924  114.69300079    0.47999999    2.64000010
   16.57833481  122.41100311    0.47999999    2.64000010
   16.58444595  122.41100311    0.44000000    2.64000010
   16.58861160  111.09600067    0.44000000    2.64000010
   16.59166718  121.37400055    0.44000000    2.64000010
   16.59500122  118.60500336    0.44000000    2.64000010
   16.59833336  125.33599854    0.44000000    2.64000010
   16.60138893  126.85600281    0.47999999    2.64000010
   16.60472298  131.43499756    0.47999999    2.64000010
   16.60777855  112.26100159    0.47999999    2.64000010
   16.61111069  111.94100189    0.47999999    2.64000010
   16.61444473  112.90599823    0.46000001    2.64000010
   16.61694527  107.06999969    0.52999997    2.64000010
   16.61777878  120.43699646    0.52999997    2.64000010
   16.62111092  107.53199768    0.63000000    2.64000010
   16.62722206  107.53199768    0.63000000    2.64000010
   16.63138962  117.50000000    0.58999997    2.64000010
   16.63472176  116.89900208    0.58999997    2.64000010
   16.63777733  119.01499939    0.64999998    2.64000010
   16.64111137  118.44000244    0.92000002    2.64000010
   16.64416695  116.76300049    1.05999994    2.64000010
   16.64749908  114.52600098    4.90999985    2.55999994
   16.65027809  117.20800018    4.90999985    2.53999996
   16.65138817  131.24299622    4.90999985    2.53999996
   16.65444374  136.90100098    4.90999985    2.51999998
   16.65777779  110.40799713    4.90999985    2.50000000
   16.66083336  124.43800354    4.90999985    2.51999998
   16.66416550  135.63400269    4.90999985    2.48000002
   16.67000008  135.63400269    4.90999985    2.44000006
   16.67416573  125.82299805    4.90999985    2.55999994
   16.67749977  121.88899994    4.90999985    2.59999990
   16.68055534  111.32900238    4.17999983    2.64000010
   16.68361092  114.79399872    0.63000000    2.64000010
   16.68444443  104.61000061    0.61000001    2.64000010
   16.68750000  114.53299713    0.58999997    2.64000010
   16.69083214  109.57499695    0.55000001    2.64000010
   16.69388771  112.29599762    0.51999998    2.64000010
   16.69722176  124.64800262    0.47999999    2.64000010
   16.70055580  114.25599670    0.46000001    2.64000010
   16.70361137  109.38999939    0.47999999    2.61999989
   16.70694542  115.69499969    0.47999999    2.64000010
   16.71305656  115.69499969    0.47999999    2.64000010
   16.71694565  114.40499878    0.47999999    2.64000010
   16.72027779  109.04699707    0.50000000    2.64000010
   16.72361183  123.48799896    0.52999997    2.64000010
   16.72666740  122.86000061    0.51999998    2.64000010
   16.73000145  110.80100250    0.55000001    2.64000010
   16.73333359  117.04100037    0.61000001    2.64000010
   16.73638916  119.28800201    0.92000002    2.64000010
   16.73972321  112.55200195    0.92000002    2.64000010
   16.74277878  122.30799866    0.94000000    2.64000010
   16.74611092  111.22799683    1.00000000    2.61999989
   16.74944496  120.77799988    0.94000000    2.61999989
   16.75027847  128.60699463    0.94000000    2.61999989
   16.77083397  128.60699463    0.51999998    2.64000010
   16.77499962  120.30500031    0.50000000    2.64000010
   16.77833366  117.72699738    0.76999998    2.64000010
   16.78166580  115.76100159    1.03999996    2.64000010
   16.78361130  114.44599915    1.03999996    2.64000010
   16.78527641  112.31999969    1.19000006    2.64000010
   16.78833199  111.04599762    2.82999992    2.64000010
   16.79166603  126.83300018    4.90999985    2.61999989
   16.79472160  116.39099884    4.90999985    2.57999992
   16.79805565  119.47399902    4.90999985    2.55999994
   16.80138779  122.89800262    4.90999985    2.55999994
   16.80444336  113.02899933    4.59999990    2.61999989
   16.80777740  104.99500275    1.44000006    2.61999989
   16.81361008  104.99500275    0.47999999    2.64000010
   16.81777954  112.65399933    0.51999998    2.64000010
   16.82111168  105.79699707    0.51999998    2.64000010
   16.82416725  107.07599640    0.52999997    2.64000010
   16.82750130  116.24500275    0.55000001    2.64000010
   16.83083344  118.61599731    0.55000001    2.64000010
   16.83388901  110.53900146    0.58999997    2.64000010
   16.83722305  113.73799896    0.61000001    2.64000010
   16.84055710  106.32499695    0.63000000    2.64000010
   16.84361267  110.78700256    0.63000000    2.64000010
   16.84694481  109.34100342    0.70999998    2.61999989
   16.85000038  108.55999756    0.63000000    2.61999989
   16.85055542  112.15799713    0.63000000    2.61999989
   16.85666656  112.15799713    0.64999998    2.61999989
   16.86055565  118.83300018    0.67000002    2.61999989
   16.86388969  102.46600342    0.79000002    2.64000010
   16.86722183  112.18900299    0.79000002    2.61999989
   16.87027740  119.86399841    0.79000002    2.64000010
   16.87361145  106.59200287    0.79000002    2.61999989
   16.87666702  114.94599915    0.67000002    2.64000010
   16.88000107  120.58300018    0.64999998    2.61999989
   16.88333321  115.43699646    0.64999998    2.64000010
   16.88388824  110.15100098    0.64999998    2.64000010
   16.88694382  111.65799713    0.64999998    2.64000010
   16.89027786  121.89399719    0.61000001    2.64000010
   16.89333344  114.08399963    0.58999997    2.64000010
   16.89944458  114.08399963    0.56999999    2.64000010
   16.90361023  120.20700073    0.55000001    2.64000010
   16.90666580  125.47399902    0.56999999    2.64000010
   16.90999985  114.52700043    0.63000000    2.64000010
   16.91305542  115.42600250    0.67000002    2.61999989
   16.91638756  110.08999634    0.70999998    2.64000010
   16.91722107  110.53800201    0.70999998    2.64000010
   16.92000008  109.65399933    0.69000000    2.64000010
   16.92333221  110.35099792    0.69000000    2.64000010
   16.92638779  115.59100342    0.67000002    2.61999989
   16.92972183  119.66699982    0.67000002    2.61999989
   16.93277740  113.68499756    0.63000000    2.64000010
   16.93610954  114.34100342    0.63000000    2.64000010
   16.94249916  114.34100342    0.58999997    2.61999989
   16.94666672  108.39399719    0.58999997    2.64000010
   16.94972038  120.25299835    0.56999999    2.64000010
   16.95055580  114.54199982    0.56999999    2.64000010
   16.95333481  120.94599915    0.55000001    2.61999989
   16.95666695  109.97200012    0.55000001    2.61999989
   16.95972252  121.81600189    0.55000001    2.64000010
   16.96305656  105.63300323    0.56999999    2.64000010
   16.96611214  112.29199982    0.58999997    2.64000010
   16.96944427  114.78299713    0.58999997    2.64000010
   16.97277832  111.82900238    0.63000000    2.64000010
   16.97583389  113.80699921    0.69000000    2.64000010
   16.97916794  105.67600250    0.69000000    2.64000010
   16.98500061  105.67600250    1.25000000    2.61999989
   16.98916626  111.19400024    1.34000003    2.61999989
   16.99250031  111.68699646    1.83000004    2.61999989
   16.99555588  113.43499756    2.36999989    2.59999990
   16.99888992  108.88099670    1.89999998    2.59999990
   17.00222206  110.96399689    1.89999998    2.61999989
   17.00527763  106.58200073    1.94000006    2.61999989
   17.00861168  110.61299896    1.94000006    2.61999989
   17.01194382  115.24900055    1.75000000    2.59999990
   17.01499939  114.52700043    1.75000000    2.61999989
   17.01749992  117.53500366    1.78999996    2.61999989
   17.01888847  115.81099701    1.78999996    2.61999989
   17.02194405  114.81400299    1.80999994    2.61999989
   17.02805519  114.81400299    1.38000000    2.61999989
   17.03222275  120.78500366    1.53999996    2.61999989
   17.03527641  125.21800232    1.53999996    2.61999989
   17.03861046  113.24199677    2.03999996    2.61999989
   17.04166603  116.95300293    2.89000010    2.59999990
   17.04500008  125.72899628    2.78999996    2.59999990
   17.04833221  103.36000061    2.59999990    2.59999990
   17.05055428  108.41000366    2.40000010    2.61999989
   17.05194283  108.97200012    2.34999990    2.57999992
   17.05527687  118.57499695    2.66000009    2.61999989
   17.05833244  115.09100342    2.40000010    2.61999989
   17.06166649  117.01899719    2.09999990    2.59999990
   17.06472206  118.80899811    1.80999994    2.61999989
   17.07083511  118.80899811    1.26999998    2.61999989
   17.07500076  113.98100281    1.30999994    2.61999989
   17.07805634  107.57399750    1.09000003    2.61999989
   17.08139038  115.58699799    1.34000003    2.61999989
   17.08388901  108.64700317    1.28999996    2.61999989
   17.08500099  117.27600098    1.19000006    2.61999989
   17.08833313  114.41400146    1.07000005    2.61999989
   17.09138870  106.12699890    1.01999998    2.64000010
   17.09472275  116.80699921    0.79000002    2.61999989
   17.09777832  121.00000000    0.79000002    2.64000010
   17.10111237  113.60199738    0.76999998    2.61999989
   17.10444450  137.52000427    0.73000002    2.61999989
   17.10777855  115.92099762    0.67000002    2.64000010
   17.11361122  115.92099762    0.64999998    2.66000009
   17.11777878  126.88600159    0.64999998    2.61999989
   17.12111092  156.79499817    0.64999998    2.61999989
   17.12416649  151.25900269    1.88000000    2.59999990
   17.12750053  143.28199768    1.85000002    2.64000010
   17.13055611  162.49400330    1.14999998    2.64000010
   17.13388824  155.87399292    1.09000003    2.64000010
   17.13722229  160.89399719    1.01999998    2.64000010
   17.14027786  134.38999939    1.01999998    2.64000010
   17.14361191  143.69200134    1.46000004    2.61999989
   17.14694405  171.19999695    2.19000006    2.61999989
   17.14999962  171.25700378    4.90999985    2.61999989
   17.15055466  144.87899780    4.90999985    2.55999994
   17.15638924  144.87899780    4.90999985    2.51999998
   17.16055489  160.89799500    4.90999985    2.50000000
   17.16388893  181.18499756    4.90999985    2.50000000
   17.16694450  143.82899475    4.90999985    2.48000002
   17.17027664  148.20199585    4.90999985    2.44000006
   17.17361069  171.77999878    4.90999985    2.51999998
   17.17666626  174.62899780    4.90999985    2.50000000
   17.18000031  173.70500183    4.90999985    2.57999992
   17.18333244  166.46200562    4.90999985    2.61999989
   17.18388748  177.56900024    4.90999985    2.61999989
   17.18666649  178.97399902    4.90999985    2.48000002
   17.18999863  152.82800293    4.90999985    2.51999998
   17.19305420  154.68200684    4.90999985    2.51999998
   17.19944382  154.68200684    4.90999985    2.51999998
   17.20333481  134.17199707    4.90999985    2.48000002
   17.20666695  161.79200745    4.90999985    2.42000008
   17.21000099  123.41600037    4.90999985    2.44000006
   17.21305656  152.23500061    4.90999985    2.36999989
   17.21638870  145.01400757    4.90999985    2.30999994
   17.21722221  139.01600647    4.90999985    2.34999990
   17.22000122  145.11500549    4.90999985    2.36999989
   17.22333336  137.23500061    4.90999985    2.46000004
   17.22638893  120.37899780    4.90999985    2.53999996
   17.22972298  131.09500122    4.90999985    2.48000002
   17.23305511  132.44599915    4.90999985    2.39000010
   17.23611069  119.33499908    4.90999985    2.51999998
   17.24222183  119.33499908    4.90999985    2.55999994
   17.24638939  105.61000061    4.90999985    2.59999990
   17.24944496  114.87400055    4.90999985    2.55999994
   17.25055504  184.91299438    4.90999985    2.53999996
   17.25305557  120.61799622    4.90999985    2.55999994
   17.25638962  130.20799255    4.90999985    2.51999998
   17.25944519  120.84999847    4.90999985    2.55999994
   17.26277733  121.43699646    4.90999985    2.61999989
   17.26611137  136.45899963    4.09999990    2.57999992
   17.26916695  124.94499969    3.76999998    2.64000010
   17.27249908  127.43699646    2.82999992    2.61999989
   17.27555466  129.29800415    3.75000000    2.57999992
   17.27888870  118.21800232    4.34999990    2.59999990
   17.28499985  118.21800232    4.90999985    2.53999996
   17.28916550  131.52699280    4.90999985    2.50000000
   17.29249954  189.48399353    4.90999985    2.46000004
   17.29555511  174.77999878    4.90999985    2.46000004
   17.29888916  171.00100708    4.90999985    2.46000004
   17.30194283  175.14100647    4.90999985    2.50000000
   17.30527687  171.73199463    4.90999985    2.53999996
   17.30861092  125.93900299    4.90999985    2.53999996
   17.31166649  140.36199951    4.90999985    2.59999990
   17.31499863  145.51699829    4.90999985    2.59999990
   17.31722260  169.21699524    4.90999985    2.53999996
   17.31861115  149.61099243    4.90999985    2.55999994
   17.32194519  157.74800110    4.90999985    2.53999996
   17.32777786  157.74800110    4.90999985    2.51999998
   17.33194542  153.00500488    4.90999985    2.50000000
   17.33527756  147.25700378    4.90999985    2.51999998
   17.33833313  155.62600708    4.90999985    2.51999998
   17.34166718  158.67399597    4.90999985    2.50000000
   17.34500122  147.22500610    4.90999985    2.53999996
   17.34805679  143.24200439    4.90999985    2.50000000
   17.35055542  142.12699890    4.90999985    2.51999998
   17.35166740  157.55000305    4.90999985    2.53999996
   17.35499954  139.08999634    4.90999985    2.44000006
   17.35805511  136.89599609    4.90999985    2.42000008
   17.36138916  169.38699341    4.90999985    2.34999990
   17.36472321  137.72200012    4.90999985    2.39000010
   17.37083435  137.72200012    4.90999985    2.34999990
   17.37472153  196.85699463    4.90999985    2.32999992
   17.37805557  163.82499695    4.90999985    2.39000010
   17.38138962  180.07800293    4.90999985    2.39000010
   17.38388824  165.17300415    4.90999985    2.44000006
   17.38500023  162.83999634    4.90999985    2.46000004
   17.38833237  171.32000732    4.90999985    2.40000010
   17.39138794  161.69799805    4.90999985    2.34999990
   17.39472198  178.22799683    4.90999985    2.32999992
   17.39805603  153.00199890    4.90999985    2.39000010
   17.40111160  153.48599243    4.90999985    2.39000010
   17.40444374  150.32099915    4.90999985    2.40000010
   17.40749931  155.02900696    4.90999985    2.40000010
   17.41361046  155.02900696    4.90999985    2.42000008
   17.41777802  155.65600586    4.90999985    2.42000008
   17.42083359  134.94700623    4.90999985    2.42000008
   17.42416573  131.96499634    4.90999985    2.40000010
   17.42749977  147.85499573    4.90999985    2.44000006
   17.43055534  162.86900330    4.90999985    2.42000008
   17.43388748  117.56800079    4.90999985    2.50000000
   17.43722153  131.66000366    4.90999985    2.40000010
   17.44027710  124.37799835    4.90999985    2.51999998
   17.44361115  115.89700317    4.90999985    2.50000000
   17.44666672  123.76999664    4.90999985    2.55999994
   17.45000076  113.89099884    4.90999985    2.53999996
   17.45055580  129.97500610    4.90999985    2.46000004
   17.45639038  129.97500610    4.90999985    2.50000000
   17.46055603  116.80799866    4.90999985    2.51999998
   17.46389008  123.42299652    4.90999985    2.61999989
   17.46694565  114.70899963    4.90999985    2.55999994
   17.47027779  150.92300415    4.90999985    2.51999998
   17.47333336  160.02999878    4.90999985    2.50000000
   17.47666740  127.58799744    4.90999985    2.46000004
   17.48000145  198.70100403    4.90999985    2.40000010
   17.48305511  168.29699707    4.90999985    2.30999994
   17.48416710  145.66499329    4.90999985    2.42000008
   17.48666763  132.38400269    4.90999985    2.51999998
   17.48999977  145.55700684    4.90999985    2.50000000
   17.49305534  142.85800171    4.90999985    2.53999996
   17.49916649  142.85800171    4.90999985    2.50000000
   17.50333405  152.73300171    4.90999985    2.44000006
   17.50666618  170.38099670    4.90999985    2.44000006
   17.50972176  158.31900024    4.90999985    2.46000004
   17.51305580  147.44299316    4.90999985    2.51999998
   17.51638794  171.22399902    4.90999985    2.46000004
   17.51749992  177.82200623    4.90999985    2.48000002
   17.51972198  149.46699524    4.90999985    2.53999996
   17.52305603  183.06799316    4.90999985    2.42000008
   17.52611160  178.44500732    4.90999985    2.40000010
   17.52944374  169.40499878    4.90999985    2.44000006
   17.53277779  169.46499634    4.90999985    2.39000010
   17.53583336  212.52999878    4.90999985    2.28999996
   17.54222107  212.52999878    4.90999985    2.39000010
   17.54611015  156.59399414    4.90999985    2.34999990
   17.54944420  172.91200256    4.90999985    2.40000010
   17.55083275  157.92599487    4.90999985    2.42000008
   17.55305481  176.90899658    4.90999985    2.42000008
   17.55638885  136.30000305    4.90999985    2.46000004
   17.55944443  135.79299927    4.90999985    2.46000004
   17.56277657  144.70799255    4.90999985    2.46000004
   17.56611061  160.92500305    4.90999985    2.48000002
   17.56916809  158.06100464    4.90999985    2.50000000
   17.57250023  157.46000671    4.90999985    2.46000004
   17.57583427  118.88400269    4.90999985    2.48000002
   17.57888985  128.25999451    4.90999985    2.53999996
   17.58500099  128.25999451    4.90999985    2.51999998
   17.58916664  110.04900360    4.90999985    2.55999994
   17.59222221  119.12100220    4.90999985    2.51999998
   17.59555626  121.60500336    4.90999985    2.46000004
   17.59889030  112.90399933    4.90999985    2.51999998
   17.60194397  135.36799622    4.90999985    2.53999996
   17.60527802  125.57099915    4.90999985    2.44000006
   17.60861206  121.35500336    4.90999985    2.51999998
   17.61166763  121.52799988    4.90999985    2.51999998
   17.61499977  113.28299713    4.34999990    2.57999992
   17.61750031  115.73400116    3.61999989    2.59999990
   17.61861038  124.69799805    3.39000010    2.59999990
   17.62194443  117.01000214    4.21999979    2.57999992
   17.62777710  117.01000214    4.90999985    2.48000002
   17.63194466  129.50300598    4.90999985    2.13000011
   17.63527679   68.81300354    4.90999985    1.80999994
   17.63833237  144.61099243    4.90999985    1.69000006
   17.64166641  129.15400696    4.90999985    2.40000010
   17.64472198  113.69999695    4.90999985    2.51999998
   17.64805603  122.12200165    4.78000021    2.57999992
   17.65083313  114.89299774    2.98000002    2.59999990
   17.65166664  116.95999908    1.76999998    2.64000010
   17.65499878  123.96099854    1.16999996    2.61999989
   17.65805435  118.25199890    0.76999998    2.64000010
   17.66138840  113.60299683    0.56999999    2.61999989
   17.66472244  117.01499939    0.56999999    2.61999989
   17.67055511  117.01499939    0.55000001    2.64000010
   17.67472076  112.13300323    0.55000001    2.61999989
   17.67805481  112.95300293    0.55000001    2.64000010
   17.68111038  117.82700348    0.55000001    2.64000010
   17.68416595  118.23600006    0.55000001    2.61999989
   17.68472099  121.71399689    0.55000001    2.61999989
   17.68805504  122.81600189    0.55000001    2.59999990
   17.69138718  108.20400238    0.55000001    2.61999989
   17.69444275  121.84799957    0.55000001    2.61999989
   17.69777679  117.95800018    0.55000001    2.59999990
   17.70083427  125.16300201    0.56999999    2.61999989
   17.70416832  106.21299744    0.56999999    2.61999989
   17.70750046  120.58300018    0.55000001    2.61999989
   17.71361160  120.58300018    0.56999999    2.61999989
   17.71750069  131.32800293    0.56999999    2.61999989
   17.72083473  129.69500732    0.56999999    2.61999989
   17.72416687  133.64599609    0.56999999    2.61999989
   17.72722244  117.76599884    0.56999999    2.61999989
   17.73055649  129.99200439    0.56999999    2.61999989
   17.73388863  125.34400177    0.58999997    2.61999989
   17.73694420  127.48799896    0.58999997    2.61999989
   17.74027824  116.23200226    0.58999997    2.61999989
   17.74333382  124.89099884    0.63000000    2.61999989
   17.74666786  118.02500153    0.80000001    2.61999989
   17.75000000  125.09300232    0.86000001    2.61999989
   17.75083351  122.38400269    0.86000001    2.61999989
   17.75638962  122.38400269    0.88000000    2.61999989
   17.76055527  134.38099670    0.89999998    2.61999989
   17.76361084  116.71399689    1.19000006    2.59999990
   17.76694489  111.11299896    1.61000001    2.59999990
   17.78444481  134.89100647    1.14999998    2.64000010
   17.78694344  125.73500061    1.36000001    2.59999990
   17.79027748  122.08300018    1.36000001    2.59999990
   17.79333305  111.31700134    1.33000004    2.59999990
   17.79944420  111.31700134    1.76999998    2.59999990
   17.80333328  129.65299988    1.91999996    2.59999990
   17.80666542  129.14799500    1.96000004    2.59999990
   17.80999947  129.58399963    2.01999998    2.59999990
   17.81305504  127.51999664    2.17000008    2.59999990
   17.81638718  137.59399414    3.78999996    2.51999998
   17.81777954  127.49299622    4.65999985    2.55999994
   17.82000160  123.47100067    4.53999996    2.57999992
   17.82305717  129.54400635    2.86999989    2.57999992
   17.82638931  125.18599701    2.46000004    2.59999990
   17.82944489  137.63800049    2.28999996    2.57999992
   17.83277893  134.30599976    2.26999998    2.57999992
   17.83611107  118.41300201    2.17000008    2.57999992
   17.84222221  118.41300201    2.48000002    2.59999990
   17.84638977  116.82099915    2.89000010    2.57999992
   17.84944534  112.98100281    3.14000010    2.55999994
   17.85111237  122.81300354    3.53999996    2.50000000
   17.85333443  117.66899872    4.26999998    2.57999992
   17.85639000  125.74700165    4.42999983    2.53999996
   17.85972214  117.25700378    4.90999985    2.53999996
   17.86277771  134.08799744    4.90999985    2.51999998
   17.86611176  128.14199829    4.90999985    2.51999998
   17.86944389  107.57399750    4.90999985    2.50000000
   17.87277794  134.31399536    4.90999985    2.51999998
   17.87583351  118.13300323    4.90999985    2.50000000
   17.87916756  127.62899780    4.90999985    2.51999998
   17.88500023  127.62899780    4.90999985    2.51999998
   17.88916588  125.30500031    4.90999985    2.53999996
   17.89249992  132.92300415    4.90999985    2.55999994
   17.89555550  131.40499878    4.19999981    2.55999994
   17.89888954  136.82099915    3.55999994    2.57999992
   17.90194321  112.99199677    2.91000009    2.57999992
   17.90527725  111.24400330    2.84999990    2.57999992
   17.90861130  121.34100342    2.78999996    2.57999992
   17.91166687  133.00399780    2.71000004    2.57999992
   17.91499901  126.55699921    2.71000004    2.59999990
   17.91777802  132.44599915    2.55999994    2.57999992
   17.91860962  126.97100067    2.55999994    2.57999992
   17.92166519  132.99899292    2.84999990    2.57999992
   17.92777634  132.99899292    3.64000010    2.57999992
   17.93194389  124.01499939    4.67999983    2.53999996
   17.93527603  130.15600586    4.90999985    2.53999996
   17.93833160  137.54400635    4.90999985    2.53999996
   17.94166565  127.44599915    4.90999985    2.51999998
   17.94499969  128.25999451    4.90999985    2.51999998
   17.94805527  123.10800171    4.90999985    2.55999994
   17.95111275  117.51999664    4.65999985    2.57999992
   17.95194435  119.66500092    4.42999983    2.57999992
   17.95527840  115.80799866    3.66000009    2.57999992
   17.95833397  117.66000366    3.25000000    2.57999992
   17.96166801  116.99600220    2.71000004    2.59999990
   17.96472359  127.24900055    2.25000000    2.59999990
   17.97083473  127.24900055    1.98000002    2.59999990
   17.97472191  120.44599915    1.48000002    2.59999990
   17.97805595  115.74800110    1.01999998    2.61999989
   17.98139000  119.97100067    0.80000001    2.59999990
   17.98444557  109.62799835    0.76999998    2.59999990
   17.98500061  108.52999878    0.75000000    2.59999990
   17.98805618  121.30799866    0.95999998    2.59999990
   17.99138832  127.38899994    1.44000006    2.59999990
   17.99444389  112.56500244    1.60000002    2.59999990
   17.99777794  112.12000275    3.51999998    2.57999992
   18.00111198  115.45099640    3.99000001    2.57999992
   18.00416756  120.00099945    3.91000009    2.57999992
   18.00749969  119.48100281    3.59999990    2.59999990
   18.01361084  119.48100281    2.64000010    2.59999990
   18.01777840  115.83999634    0.95999998    2.59999990
   18.01805496  118.69300079    0.95999998    2.59999990
   18.02138901  120.13999939    0.76999998    2.59999990
   18.02472115  121.51399994    0.56999999    2.61999989
   18.02777672  114.95700073    0.56999999    2.61999989
   18.03111076  135.07400513    0.56999999    2.61999989
   18.03444481  135.16799927    0.56999999    2.59999990
   18.03777695  147.10099792    0.56999999    2.59999990
   18.04083252  156.35099792    0.56999999    2.59999990
   18.04416656  142.73300171    0.55000001    2.59999990
   18.04722214  159.65499878    0.56999999    2.59999990
   18.05055428  141.86199951    0.56999999    2.59999990
   18.05138779  120.28099823    0.56999999    2.59999990
   18.05638885  120.28099823    0.56999999    2.59999990
   18.06055450  131.99400330    0.61000001    2.59999990
   18.06388855  138.04899597    0.63000000    2.59999990
   18.06694603  132.39199829    0.63000000    2.59999990
   18.07027817  120.75499725    0.63000000    2.59999990
   18.07361221  121.12000275    0.61000001    2.59999990
   18.07666779  125.16699982    0.56999999    2.59999990
   18.08000183  121.36699677    0.56999999    2.61999989
   18.08305550  127.04499817    0.56999999    2.59999990
   18.08472252  135.53300476    0.56999999    2.59999990
   18.08666801  137.26600647    0.56999999    2.59999990
   18.09000015  115.74299622    0.58999997    2.59999990
   18.09305573  128.42700195    0.58999997    2.59999990
   18.09916687  128.42700195    0.55000001    2.61999989
   18.10333443  132.54100037    0.55000001    2.61999989
   18.10666656  131.33599854    0.55000001    2.61999989
   18.10972214  121.70600128    0.55000001    2.61999989
   18.11305618  117.02100372    0.52999997    2.61999989
   18.11638832  125.57800293    0.55000001    2.61999989
   18.11833382  119.88300323    0.55000001    2.61999989
   18.11972237  118.75199890    0.55000001    2.61999989
   18.12305641  116.08599854    0.52999997    2.59999990
   18.12611198  124.62300110    0.52999997    2.61999989
   18.12944412  139.35499573    0.52999997    2.59999990
   18.13277817  120.72000122    0.51999998    2.59999990
   18.13583374  122.39399719    0.51999998    2.59999990
   18.14222145  122.39399719    0.51999998    2.59999990
   18.14611053  122.56700134    0.51999998    2.59999990
   18.14944458  110.91899872    0.52999997    2.59999990
   18.15166664  122.16000366    0.52999997    2.59999990
   18.15305519  122.31500244    0.51999998    2.59999990
   18.15638924  119.27200317    0.52999997    2.61999989
   18.15944481  117.79699707    0.52999997    2.61999989
   18.16277695  115.91999817    0.51999998    2.59999990
   18.16611099  115.75499725    0.52999997    2.59999990
   18.16916656  113.55999756    0.55000001    2.59999990
   18.17249870  119.91600037    0.58999997    2.59999990
   18.17583275  122.05300140    0.81999999    2.59999990
   18.17888832  128.94999695    0.98000002    2.59999990
   18.18499947  128.94999695    1.01999998    2.59999990
   18.18916512  116.78700256    1.09000003    2.59999990
   18.19222069  125.25700378    2.84999990    2.51999998
   18.19555473  124.86199951    4.09999990    2.51999998
   18.19888878  118.86299896    4.78000021    2.55999994
   18.20194435  123.12100220    4.84999990    2.48000002
   18.20527840  116.44899750    4.90999985    2.53999996
   18.20861244  124.62300110    4.90999985    2.51999998
   18.21166801  121.61000061    4.90999985    2.51999998
   18.21500015  137.36000061    4.90999985    2.51999998
   18.21833420  132.21000671    4.90999985    2.51999998
   18.21861076  118.94699860    4.90999985    2.53999996
   18.22194481  126.69100189    4.90999985    2.55999994
   18.22777748  126.69100189    4.90999985    2.51999998
   18.23194504  142.28900146    4.90999985    2.50000000
   18.23500061  163.68800354    4.90999985    2.50000000
   18.23833275  143.61399841    4.90999985    2.42000008
   18.24166679  140.50300598    4.90999985    2.44000006
   18.24472237  158.18800354    4.90999985    2.30999994
   18.24805641  143.35800171    4.90999985    2.34999990
   18.25138855  190.21400452    4.90999985    2.21000004
   18.25166702  192.57400513    4.90999985    2.21000004
   18.25499916  267.11599731    4.90999985    2.23000002
   18.25833321  216.64199829    4.90999985    2.00000000
   18.26138878  211.75100708    4.90999985    1.91999996
   18.26472282  175.78999329    4.90999985    2.15000010
   18.27055550  175.78999329    4.90999985    2.09999990
   18.27472115  242.45300293    4.90999985    1.83000004
   18.27805519   -1.00000000    4.90999985    1.80999994
   18.28111076   -1.00000000    4.90999985    1.66999996
   18.28444481  345.31600952    4.90999985    1.58000004
   18.28638840  145.34399414    4.90999985    1.75000000
   18.28638840   -1.00000000    4.90999985    1.80999994
   18.28666687   -1.00000000    4.90999985    1.66999996
   18.28666687  345.31600952    4.90999985    1.58000004
   18.28666687  190.21400452    4.90999985    2.21000004
   18.28666687  267.11599731    4.90999985    2.23000002
   18.28666687  216.64199829    4.90999985    2.00000000
   18.28694344  211.75100708    4.90999985    1.91999996
   18.28694344  175.78999329    4.90999985    2.15000010
   18.28694344  242.45300293    4.90999985    1.83000004
   18.29500008  235.54299927    4.90999985    1.91999996
   18.29805565  203.71800232    4.90999985    1.98000002
   18.30138779  141.43099976    4.90999985    2.15000010
   18.30472183  148.19599915    4.90999985    2.17000008
   18.30777740  192.84100342    4.90999985    2.11999989
   18.31110954  168.14900208    4.90999985    2.19000006
   18.31527710  168.14900208    4.90999985    2.25000000
   18.31944466  164.68299866    4.90999985    2.30999994
   18.32250023  136.39999390    4.90999985    2.32999992
   18.32583427  127.44899750    4.90999985    2.36999989
   18.32805634  136.05900574    4.90999985    2.40000010
   18.32944489  128.70599365    4.90999985    2.40000010
   18.33277893  114.58999634    4.90999985    2.50000000
   18.33583450  123.83300018    3.75000000    2.55999994
   18.33916664  141.24899292    2.86999989    2.57999992
   18.34250069  132.60099792    2.84999990    2.59999990
   18.34555626  155.08999634    3.01999998    2.59999990
   18.34889030  122.05400085    3.46000004    2.53999996
   18.35194397  140.91700745    4.26000023    2.55999994
   18.35805511  140.91700745    4.19999981    2.53999996
   18.36222267  130.98599243    3.36999989    2.53999996
   18.36527824  126.61299896    3.73000002    2.55999994
   18.36861038  121.35199738    4.09999990    2.53999996
   18.37194443  124.29000092    4.82999992    2.48000002
   18.37500000  125.79799652    4.90999985    2.50000000
   18.37833405  125.21199799    4.90999985    2.53999996
   18.38166618  117.37200165    4.90999985    2.55999994
   18.38472176  123.40299988    4.84999990    2.55999994
   18.38805580  123.87599945    4.90999985    2.46000004
   18.39111137  118.90599823    4.90999985    2.46000004
   18.39444351  119.35099792    4.90999985    2.46000004
   18.39500046  109.52500153    4.90999985    2.51999998
   18.40083313  109.52500153    4.55999994    2.51999998
   18.40499878  115.52400208    4.84999990    2.51999998
   18.40833282  126.94100189    4.90999985    2.50000000
   18.41138840  135.08799744    4.90999985    2.44000006
   18.41472244  118.94899750    4.90999985    2.40000010
   18.41805458  122.12500000    4.90999985    2.34999990
   18.42111015  125.15100098    4.90999985    2.25000000
   18.42444420  150.30900574    4.90999985    2.23000002
   18.42749977  130.17399597    4.90999985    2.23000002
   18.42833328  135.15400696    4.90999985    2.23000002
   18.43138885  122.61000061    4.90999985    2.44000006
   18.43444443  129.10000610    4.90999985    2.50000000
   18.43777657  129.98100281    4.90999985    2.48000002
   18.44361115  129.98100281    4.90999985    2.46000004
   18.44777679  133.08799744    4.90999985    2.40000010
   18.45111275  135.16799927    4.90999985    2.39000010
   18.45444489  139.02400208    4.90999985    2.34999990
   18.45750046  124.93900299    4.90999985    2.42000008
   18.46083450  139.89500427    4.90999985    2.34999990
   18.46166801  135.69200134    4.90999985    2.26999998
   18.46444511  137.21899414    4.90999985    2.34999990
   18.46750069  119.02999878    4.90999985    2.39000010
   18.47083473  136.49000549    4.90999985    2.32999992
   18.47389030  143.73899841    4.90999985    2.34999990
   18.47722244  155.47099304    4.90999985    2.28999996
   18.48055649  136.69900513    4.90999985    2.32999992
   18.48666763  136.69900513    4.90999985    2.28999996
   18.49083328  113.47299957    4.90999985    2.15000010
   18.49388885  109.36900330    4.90999985    2.15000010
   18.49500084  149.58599854    4.90999985    2.13000011
   18.49777794  183.38400269    4.90999985    2.07999992
   18.50083351  179.93800354    4.90999985    2.09999990
   18.50416756  161.19700623    4.90999985    2.13000011
   18.50722313  202.84100342    4.90999985    2.15000010
   18.51055527  215.03799438    4.90999985    1.94000006
   18.51388931  263.52301025    4.90999985    1.88000000
   18.51694489   51.33020020    4.90999985    1.75000000
   18.52027702   -1.00000000    4.90999985    1.64999998
   18.52361107   -1.00000000    4.90999985    1.36000001
   18.52944374   -1.00000000    4.90999985    1.41999996
   18.53361130   -1.00000000    4.90999985    1.48000002
   18.53666687   -1.00000000    4.90999985    1.38000000
   18.53999901   -1.00000000    4.90999985    1.33000004
   18.54333305   -1.00000000    4.90999985    1.50000000
   18.54638863   -1.00000000    4.90999985    1.33000004
   18.54972076   -1.00000000    4.90999985    1.39999998
   18.55305481   -1.00000000    4.90999985    1.41999996
   18.55611038   -1.00000000    4.90999985    1.60000002
   18.55944443   -1.00000000    4.90999985    1.60000002
   18.56277657   -1.00000000    4.90999985    1.63000000
   18.56611061   -1.00000000    4.90999985    1.55999994
   18.57222366   -1.00000000    4.90999985    1.66999996
   18.57638931   -1.00000000    4.90999985    1.36000001
   18.57972336   -1.00000000    4.90999985    1.33000004
   18.58277893   -1.00000000    4.90999985    1.19000006
   18.58611107   -1.00000000    4.90999985    1.41999996
   18.58944511   28.04089928    4.90999985    1.50000000
   18.59250069   -1.00000000    4.90999985    1.69000006
   18.59611130   -1.00000000    4.90999985    1.66999996
   18.59944534   -1.00000000    4.90999985    1.58000004
   18.60277748   -1.00000000    4.90999985    1.53999996
   18.60583305   -1.00000000    4.90999985    1.60000002
   18.60916710  187.58099365    4.90999985    1.63000000
   18.61499977  187.58099365    4.90999985    1.75000000
   18.61916733   -1.00000000    4.90999985    1.39999998
   18.62249947   -1.00000000    4.90999985    1.51999998
   18.62583351   23.57019997    4.90999985    1.69000006
   18.62916756   -1.00000000    4.90999985    1.58000004
   18.63249969   -1.00000000    4.90999985    1.46000004
   18.63583374   -1.00000000    4.90999985    1.44000006
   18.63888931   -1.00000000    4.90999985    1.50000000
   18.64222145   -1.00000000    4.90999985    1.46000004
   18.64555550   -1.00000000    4.90999985    1.61000001
   18.64861107   61.23049927    4.90999985    1.64999998
   18.65194321  288.42098999    4.90999985    1.66999996
   18.65805435  288.42098999    4.90999985    1.85000002
   18.66222191  205.71000671    4.90999985    2.00000000
   18.66527748  128.37600708    4.90999985    2.07999992
   18.66860962  143.28399658    4.90999985    2.11999989
   18.67166519  147.26400757    4.90999985    2.15000010
   18.67499924  140.71499634    4.90999985    2.17000008
   18.67833328  142.16600037    4.90999985    2.25000000
   18.68138885  126.80699921    4.90999985    2.32999992
   18.68472099  127.49900055    4.90999985    2.36999989
   18.68805504  117.74800110    4.90999985    2.39000010
   18.69111061  124.58799744    4.90999985    2.39000010
   18.69444275  119.35299683    4.90999985    2.40000010
   18.69499969  114.36599731    4.90999985    2.42000008
   18.70083427  114.36599731    4.90999985    2.46000004
   18.70499992  115.13099670    4.90999985    2.48000002
   18.70805550  119.66899872    4.19999981    2.51999998
   18.71138954  117.20600128    3.50000000    2.51999998
   18.71472359  113.16999817    3.07999992    2.53999996
   18.71777916  112.15699768    2.84999990    2.53999996
   18.72111130  118.15899658    2.91000009    2.51999998
   18.72444534  111.15100098    3.09999990    2.51999998
   18.72750092  108.38099670    3.03999996    2.51999998
   18.72833443  112.87200165    3.00000000    2.51999998
   18.73111153  118.97899628    2.93000007    2.51999998
   18.73416710  114.37999725    2.64000010    2.53999996
   18.73750114  113.53500366    2.42000008    2.53999996
   18.74361229  113.53500366    2.05999994    2.53999996
   18.74777794  108.53600311    2.11999989    2.53999996
   18.75111198  112.35900116    2.34999990    2.55999994
   18.75416756  118.19999695    2.64000010    2.51999998
   18.75749969  111.01599884    3.11999989    2.51999998
   18.76083374  123.58100128    3.45000005    2.53999996
   18.76166725  120.46800232    3.59999990    2.51999998
   18.76444435  111.90699768    4.00000000    2.51999998
   18.76749992  120.59100342    4.90999985    2.50000000
   18.77083397  114.07499695    4.90999985    2.51999998
   18.77416611  109.07499695    4.90999985    2.51999998
   18.77722168  110.58999634    4.90999985    2.51999998
   18.78055573  114.38099670    4.90999985    2.51999998
   18.78638840  114.38099670    4.90999985    2.51999998
   18.79055595  122.08499908    4.90999985    2.51999998
   18.79388809  121.70700073    4.90999985    2.48000002
   18.79500008  119.53600311    4.90999985    2.48000002
   18.79749870  113.83100128    4.90999985    2.48000002
   18.80055428  120.01399994    4.90999985    2.46000004
   18.80388832  119.77100372    4.90999985    2.46000004
   18.80722237  120.32299805    4.90999985    2.42000008
   18.81027794  120.50399780    4.90999985    2.39000010
   18.81361008  118.51000214    4.90999985    2.39000010
   18.81666756  123.61599731    4.90999985    2.36999989
   18.82000160  115.14600372    4.90999985    2.40000010
   18.82333374  133.18400574    4.90999985    2.36999989
   18.82944489  133.18400574    4.90999985    2.30999994
   18.83361244  135.51699829    4.90999985    2.34999990
   18.83666801  135.04800415    4.90999985    2.34999990
   18.84000015  129.90400696    4.90999985    2.36999989
   18.84305573  129.63600159    4.90999985    2.30999994
   18.84638977  128.90100098    4.90999985    2.30999994
   18.84972191  129.06100464    4.90999985    2.36999989
   18.85277748  122.26100159    4.90999985    2.34999990
   18.85611153  133.80400085    4.90999985    2.32999992
   18.85944557  125.78800201    4.90999985    2.30999994
   18.86166763  132.19299316    4.90999985    2.28999996
   18.86305618  127.58100128    4.90999985    2.26999998
   18.86611176  108.37799835    4.90999985    2.30999994
   18.87222290  108.37799835    4.90999985    2.21000004
   18.87638855  142.27799988    4.90999985    2.25000000
   18.87944412  229.97999573    4.90999985    2.11999989
   18.88277817  208.80299377    4.90999985    2.09999990
   18.88611031  232.86399841    4.90999985    1.98000002
   18.88916588  275.34500122    4.90999985    1.88000000
   18.89249992   -1.00000000    4.90999985    1.73000002
   18.89583397   -1.00000000    4.90999985    1.41999996
   18.89916611   -1.00000000    4.90999985    1.26999998
   18.90250015   -1.00000000    4.90999985    1.39999998
   18.90555573   -1.00000000    4.90999985    1.48000002
   18.90888786   -1.00000000    4.90999985    1.41999996
   18.91499901   -1.00000000    4.90999985    1.41999996
   18.91916656   31.08609962    4.90999985    1.64999998
   18.92249870   -1.00000000    4.90999985    1.75000000
   18.92555428   -1.00000000    4.90999985    1.66999996
   18.92916679   -1.00000000    4.90999985    1.64999998
   18.93249893   -1.00000000    4.90999985    1.58000004
   18.93583298   -1.00000000    4.90999985    1.61000001
   18.93888855   -1.00000000    4.90999985    1.55999994
   18.94222069   -1.00000000    4.90999985    1.41999996
   18.94555473   -1.00000000    4.90999985    1.25000000
   18.94861031  351.41299438    4.90999985    1.50000000
   18.95194435  170.04800415    4.90999985    1.83000004
   18.95777893  170.04800415    4.90999985    1.98000002
   18.96194458  216.52799988    4.90999985    1.94000006
   18.96527863  138.53900146    4.90999985    2.07999992
   18.96861076  133.06500244    4.90999985    2.09999990
   18.97166634  162.54200745    4.90999985    2.07999992
   18.97500038  141.55900574    4.90999985    2.09999990
   18.97833443  139.93699646    4.90999985    2.15000010
   18.98139000  147.25199890    4.90999985    2.00000000
   18.98472214  231.66200256    4.90999985    2.00000000
   18.98805618  269.38699341    4.90999985    1.91999996
   18.99111176   -1.00000000    4.90999985    1.76999998
   18.99444389   -1.00000000    4.90999985    1.60000002
   19.00083351   -1.00000000    4.90999985    1.23000002
   19.00472260   -1.00000000    4.90999985    1.38000000
   19.00805473   -1.00000000    4.90999985    1.25000000
   19.01138878   -1.00000000    4.90999985    0.94000000
   19.01444435   -1.00000000    4.90999985    0.86000001
   19.01777840   -1.00000000    4.90999985    0.94000000
   19.02111053   -1.00000000    4.90999985    1.05999994
   19.02416611   -1.00000000    4.90999985    1.13000000
   19.02750015   -1.00000000    4.90999985    1.00000000
   19.03083229   -1.00000000    4.90999985    0.94000000
   19.03416634  411.08499146    4.90999985    1.30999994
   19.03610992  339.46398926    4.90999985    1.73000002
   19.03750038  221.25399780    4.90999985    1.85000002
   19.03750038   -1.00000000    4.90999985    0.94000000
   19.03750038  411.08499146    4.90999985    1.30999994
   19.03777695   -1.00000000    4.90999985    1.25000000
   19.03777695   -1.00000000    4.90999985    0.94000000
   19.03777695   -1.00000000    4.90999985    0.86000001
   19.03777695   -1.00000000    4.90999985    0.94000000
   19.03805542   -1.00000000    4.90999985    1.05999994
   19.03805542   -1.00000000    4.90999985    1.13000000
   19.03805542   -1.00000000    4.90999985    1.00000000
   19.03916550  169.17599487    4.90999985    1.89999998
   19.04249954  168.37800598    4.90999985    2.00000000
   19.04555511  159.25599670    4.90999985    2.05999994
   19.04888916  144.99800110    4.90999985    2.09999990
   19.05222130  147.05099487    4.90999985    2.09999990
   19.05833244  147.05099487    4.90999985    2.05999994
   19.06250000  156.98800659    4.90999985    1.94000006
   19.06555557  184.19200134    4.90999985    1.91999996
   19.06888962  223.91400146    4.90999985    1.94000006
   19.07139015  246.20599365    4.90999985    1.86000001
   19.07222366  227.39100647    4.90999985    1.86000001
   19.07555580  280.39801025    4.90999985    1.83000004
   19.07888985   -1.00000000   -1.00000000   -1.00000000
   19.08194542   -1.00000000    4.90999985    1.63000000
   19.08527756   -1.00000000    4.90999985    1.48000002
   19.08833313   -1.00000000    4.90999985    1.38000000
   19.09166718   -1.00000000    4.90999985    1.36000001
   19.09500122   -1.00000000    4.90999985    1.44000006
   19.10111237   -1.00000000    4.90999985    1.64999998
   19.10527802  322.49899292    4.90999985    1.73000002
   19.10861206  287.21301270    4.90999985    1.76999998
   19.11166763  214.16999817    4.90999985    1.80999994
   19.11499977  111.92600250    4.90999985    1.78999996
   19.11805534  160.81100464    4.90999985    1.73000002
   19.12138939  351.34600830    4.90999985    1.80999994
   19.12500000  366.95498657    4.90999985    1.83000004
   19.12805557  320.32598877    4.90999985    1.88000000
   19.13138962  247.16900635    4.90999985    1.88000000
   19.13472176  297.51199341    4.90999985    1.96000004
   19.13777733   -1.00000000    4.90999985    1.88000000
   19.14388847   -1.00000000    4.90999985    1.46000004
   19.14805603   -1.00000000   -1.00000000   -1.00000000
   19.15138817  377.64999390    4.90999985    1.69000006
   19.15444374  392.00799561    4.90999985    1.91999996
   19.15777779  207.29200745    4.90999985    2.00000000
   19.16110992  155.23899841    4.90999985    2.09999990
   19.16416550  172.38299561    4.90999985    2.23000002
   19.16749954  158.78799438    4.90999985    2.25000000
   19.17055511  139.53199768    4.90999985    2.23000002
   19.17166519  129.47900391    4.90999985    2.26999998
   19.17444420  148.72399902    4.90999985    2.30999994
   19.17749977  125.47100067    4.90999985    2.34999990
   19.18083191  127.24199677    4.90999985    2.42000008
   19.18694305  127.24199677    4.90999985    2.44000006
   19.19083214  107.29199982    4.90999985    2.48000002
   19.19416618  120.01499939    4.90999985    2.44000006
   19.19749832  122.09999847    4.90999985    2.32999992
   19.20055580  167.18400574    4.90999985    2.17000008
   19.20388985  167.89799500    4.90999985    2.03999996
   19.20499992  134.83500671    4.90999985    2.13000011
   19.20750046  131.59700012    4.90999985    2.40000010
   19.21055603  184.34399414    4.90999985    2.17000008
   19.21389008  163.10600281    4.90999985    2.07999992
   19.21722221  175.33399963    4.90999985    2.09999990
   19.22027779  196.35800171    4.90999985    2.07999992
   19.22361183  419.16699219    4.90999985    1.91999996
   19.22555542  209.35699463    4.90999985    1.78999996
   19.22555542  163.10600281    4.90999985    2.07999992
   19.22555542  175.33399963    4.90999985    2.09999990
   19.22583389  196.35800171    4.90999985    2.07999992
   19.22583389  419.16699219    4.90999985    1.91999996
   19.22583389  122.09999847    4.90999985    2.32999992
   19.22583389  167.18400574    4.90999985    2.17000008
   19.22583389  167.89799500    4.90999985    2.03999996
   19.22611237  131.59700012    4.90999985    2.40000010
   19.22611237  184.34399414    4.90999985    2.17000008
   19.23027802  184.34399414    4.90999985    1.51999998
   19.23444557   -1.00000000    4.90999985    1.36000001
   19.23750114   -1.00000000    4.90999985    1.30999994
   19.24083328   -1.00000000    4.90999985    1.28999996
   19.24416733   -1.00000000    4.90999985    0.92000002
   19.24722290   -1.00000000    4.90999985    0.83999997
   19.25055504   -1.00000000    4.90999985    0.79000002
   19.25388908   -1.00000000    4.90999985    0.64999998
   19.25694466   -1.00000000    4.90999985    0.52999997
   19.26055527   -1.00000000    4.90999985    0.63000000
   19.26388931   -1.00000000    4.90999985    0.55000001
   19.26722145   -1.00000000    4.90999985    0.44000000
   19.27722168   -1.00000000    4.90999985    0.44000000
   19.28027725   -1.00000000    4.90999985    0.44000000
   19.28361130   -1.00000000    4.90999985    0.44000000
   19.28666687   -1.00000000    4.90999985    0.61000001
   19.28999901  206.80000305    4.90999985    1.53999996
   19.29277802  147.00799561    4.90999985    2.17000008
   19.29388809  129.15899658    4.90999985    2.25000000
   19.31611061  129.15899658    4.90999985    1.76999998
   19.32027817   -1.00000000    4.90999985    1.39999998
   19.32333374   -1.00000000    4.90999985    1.14999998
   19.32722282   -1.00000000    4.90999985    1.07000005
   19.33027840   -1.00000000    4.90999985    0.89999998
   19.33361244   -1.00000000    4.90999985    0.61000001
   19.33666801   -1.00000000    4.90999985    0.46000001
   19.34000015   -1.00000000    4.90999985    0.38000000
   19.34333420   -1.00000000    4.90999985    0.41999999
   19.34638977   -1.00000000    4.90999985    0.46000001
   19.34972191   -1.00000000    4.90999985    0.52999997
   19.35305595   -1.00000000    4.90999985    0.89999998
   19.35888863   -1.00000000    4.90999985    1.66999996
   19.36305618  278.08200073    4.90999985    1.98000002
   19.36611176  217.88000488    4.90999985    2.01999998
   19.36944389  212.28500366    4.90999985    2.21000004
   19.37277794  207.23100281    4.90999985    2.23000002
   19.37583351  195.77000427    4.90999985    2.19000006
   19.37916756  304.69299316    4.90999985    2.03999996
   19.38249969   70.00920105    4.90999985    1.78999996
   19.38555527   90.19869995    4.90999985    1.58000004
   19.38888931   -1.00000000    4.90999985    1.61000001
   19.39194489   -1.00000000    4.90999985    1.51999998
   19.39555550   -1.00000000    4.90999985    1.50000000
   19.40166664   -1.00000000    4.90999985    1.25000000
   19.40583229   55.44960022    4.90999985    1.39999998
   19.40916634  158.12199402    4.90999985    1.73000002
   19.41222191  466.70901489    4.90999985    1.75000000
   19.41416550  381.66101074    4.90999985    1.80999994
   19.41555595  293.46798706    4.90999985    1.85000002
   19.41555595   -1.00000000    4.90999985    1.61000001
   19.41583252   -1.00000000    4.90999985    1.51999998
   19.41583252   -1.00000000    4.90999985    1.50000000
   19.41583252   55.44960022    4.90999985    1.39999998
   19.41583252  158.12199402    4.90999985    1.73000002
   19.41583252  466.70901489    4.90999985    1.75000000
   19.41611099  304.69299316    4.90999985    2.03999996
   19.41611099   70.00920105    4.90999985    1.78999996
   19.41611099   90.19869995    4.90999985    1.58000004
   19.41722107  249.60099792    4.90999985    1.89999998
   19.42055511  181.65499878    4.90999985    2.13000011
   19.42361069  172.62699890    4.90999985    2.03999996
   19.42694473  145.85699463    4.90999985    2.17000008
   19.43027687  163.94000244    4.90999985    2.07999992
   19.43638802  163.94000244    4.90999985    2.42000008
   19.44055557  137.33900452    4.90999985    2.44000006
   19.44361115  150.34700012    4.90999985    2.39000010
   19.44694328  134.33399963    4.90999985    2.09999990
   19.44944382  136.15600586    4.90999985    2.25000000
   19.45055580  399.26998901    4.90999985    2.21000004
   19.45361137  132.51600647    4.90999985    2.09999990
   19.45694542  128.89900208    4.90999985    2.15000010
   19.46000099  172.55099487    4.90999985    2.26999998
   19.46333504  225.93200684    4.90999985    2.15000010
   19.46666718  154.55099487    4.90999985    2.11999989
   19.46972275  165.12699890    4.90999985    1.96000004
   19.47305679   -1.00000000    4.90999985    1.64999998
   19.48333359   -1.00000000    4.90999985    0.55000001
   19.48666763   -1.00000000    4.90999985    0.44000000
   19.48972321   -1.00000000    4.90999985    0.46000001
   19.49305534   -1.00000000    4.90999985    0.58999997
   19.49611092   -1.00000000    4.90999985    0.75000000
   19.49944496   -1.00000000    4.90999985    0.63000000
   19.50277710   -1.00000000    4.90999985    1.11000001
   19.50583267  438.86401367    4.90999985    1.63000000
   19.50777817  184.40800476    4.90999985    1.85000002
   19.50805473   -1.00000000    4.90999985    0.46000001
   19.50805473   -1.00000000    4.90999985    0.58999997
   19.50805473   -1.00000000    4.90999985    0.75000000
   19.50805473   -1.00000000    4.90999985    0.63000000
   19.50833321   -1.00000000    4.90999985    1.11000001
   19.50833321  438.86401367    4.90999985    1.63000000
   19.50833321   -1.00000000    4.90999985    1.64999998
   19.50833321   -1.00000000    4.90999985    0.55000001
   19.50833321   -1.00000000    4.90999985    0.44000000
   19.51027870  169.40499878    4.90999985    2.15000010
   19.51361084  148.32400513    4.90999985    2.30999994
   19.51694489  131.88200378    4.90999985    2.51999998
   19.52000046  122.39299774    4.90999985    2.48000002
   19.52333260  127.85800171    4.90999985    2.46000004
   19.52861023  127.85800171    4.90999985    2.26999998
   19.53277779  135.96499634    4.90999985    2.30999994
   19.53610992  130.66799927    4.90999985    2.30999994
   19.53916550  173.71299744    4.90999985    2.17000008
   19.54166603  172.50599670    4.90999985    2.00000000
   19.54277802  232.73100281    4.90999985    2.00000000
   19.54611015  131.54499817    4.90999985    2.30999994
   19.54916573  120.61499786    4.90999985    2.46000004
   19.55249977  133.58200073    4.90999985    2.46000004
   19.55555534  116.18499756    4.90999985    2.50000000
   19.55888748  113.16300201    4.90999985    2.48000002
   19.56222153  145.87899780    4.90999985    2.30999994
   19.56527710  266.99200439    4.90999985    1.94000006
   19.57166672  266.99200439    4.90999985    2.17000008
   19.57555580  138.68099976    4.90999985    2.34999990
   19.57888985  126.16300201    4.90999985    2.40000010
   19.58222389  127.69300079    4.90999985    2.46000004
   19.58527756  116.29900360    4.90999985    2.46000004
   19.58861160  121.25900269    4.90999985    2.40000010
   19.59166718  113.80400085    4.90999985    2.44000006
   19.59500122  124.83599854    4.90999985    2.42000008
   19.59833336  111.31300354    4.90999985    2.39000010
   19.60138893  134.75300598    4.90999985    2.36999989
   19.60472298  125.44499969    4.90999985    2.32999992
   19.60805511  118.72799683    4.90999985    2.39000010
   19.60833359  118.73400116    4.90999985    2.39000010
   19.61444473  118.73400116    4.90999985    2.30999994
   19.61861038  137.83299255    4.90999985    2.25000000
   19.62166595  130.86799622    4.90999985    2.25000000
   19.62500000  132.13999939    4.90999985    2.23000002
   19.62833405  154.37699890    4.90999985    2.15000010
   19.63138962  185.31799316    4.90999985    2.11999989
   19.63472176  385.33700562    4.90999985    1.91999996
   19.63777733  377.23599243    4.90999985    1.85000002
   19.64111137  255.85699463    4.90999985    1.86000001
   19.64166641  354.84201050    4.90999985    1.86000001
   19.64472198  194.58399963    4.90999985    1.94000006
   19.64805603  208.47799683    4.90999985    1.94000006
   19.65111160  144.41000366    4.90999985    2.01999998
   19.65722275  144.41000366    4.90999985    1.91999996
   19.66138840  157.07600403    4.90999985    1.85000002
   19.66472244   87.91239929    4.90999985    1.71000004
   19.66777802   -1.00000000    4.90999985    1.58000004
   19.67111015  129.30400085    4.90999985    1.55999994
   19.67444420  240.16499329    4.90999985    1.76999998
   19.67499924  174.63699341    4.90999985    1.83000004
   19.67805481  145.43800354    4.90999985    2.07999992
   19.68138885  130.69799805    4.90999985    2.28999996
   19.68444443  129.50799561    4.90999985    2.28999996
   19.68777657  150.53999329    4.90999985    2.21000004
   19.69111061  151.91999817    4.90999985    2.13000011
   19.69416618  133.36799622    4.90999985    2.23000002
   19.70000076  133.36799622    4.90999985    2.30999994
   19.70416832  132.66299438    4.90999985    2.19000006
   19.70750046  132.88999939    4.90999985    2.13000011
   19.70833397  156.80499268    4.90999985    2.11999989
   19.71111107  137.51499939    4.90999985    2.07999992
   19.71444511  140.71600342    4.90999985    2.11999989
   19.71750069  141.03100586    4.90999985    2.21000004
   19.72083473  124.34999847    4.90999985    2.26999998
   19.72416687  130.35400391    4.90999985    2.30999994
   19.72722244  144.10000610    4.90999985    2.36999989
   19.73055649  126.41300201    4.90999985    2.39000010
   19.73361206  122.15699768    4.90999985    2.39000010
   19.73694420  125.42199707    4.84999990    2.40000010
   19.74277878  125.42199707    3.48000002    2.42000008
   19.74694443  118.04399872    2.75000000    2.42000008
   19.75027847  137.49200439    2.61999989    2.42000008
   19.75361061  120.09600067    2.55999994    2.42000008
   19.75666618  128.38000488    2.55999994    2.44000006
   19.76000023  123.21399689    2.51999998    2.44000006
   19.76305580  131.63000488    2.51999998    2.42000008
   19.76638794  122.59300232    2.66000009    2.40000010
   19.76972198  125.88500214    2.66000009    2.42000008
   19.77277756  122.08599854    2.59999990    2.42000008
   19.77499962  114.88800049    2.57999992    2.42000008
   19.77638817  122.91100311    2.59999990    2.42000008
   19.77972221  119.87899780    2.67000008    2.39000010
   19.78583336  119.87899780    2.46000004    2.42000008
   19.78999901  127.97399902    1.85000002    2.42000008
   19.79305458  116.70099640    1.58000004    2.42000008
   19.79638863  116.83200073    1.36000001    2.40000010
   19.79972076  123.95500183    1.30999994    2.42000008
   19.80277634  121.44400024    1.30999994    2.44000006
   19.80611038  104.15200043    1.00000000    2.44000006
   19.80861092  111.90799713    0.88000000    2.44000006
   19.80972099  107.06999969    0.88000000    2.46000004
   19.81305504  108.17600250    0.88000000    2.44000006
   19.81611061  124.74900055    0.88000000    2.44000006
   19.81944466  130.96899414    0.86000001    2.44000006
   19.82277870  133.46000671    0.86000001    2.44000006
   19.82861137  133.46000671    0.88000000    2.44000006
   19.83277893  163.51100159    0.89999998    2.44000006
   19.83583450  191.14500427    0.95999998    2.44000006
   19.83916664  288.46301270    1.09000003    2.44000006
   19.84166718  328.94500732    1.09000003    2.44000006
   19.84277916  228.50599670    1.19000006    2.42000008
   19.84611130   -1.00000000    1.19000006    2.42000008
   19.84916687   -1.00000000    1.50000000    2.44000006
   19.85250092   -1.00000000    1.66999996    2.42000008
   19.85583305   -1.00000000    1.76999998    2.42000008
   19.85888863   -1.00000000    2.59999990    2.40000010
   19.86222267   -1.00000000    3.43000007    2.40000010
   19.86527824   -1.00000000    4.11999989    2.42000008
   19.87555504   -1.00000000    4.90999985    2.26999998
   19.87888908   -1.00000000    4.90999985    2.23000002
   19.88194466   -1.00000000    4.90999985    2.26999998
   19.88527679   -1.00000000    4.90999985    2.34999990
   19.88833237   -1.00000000    4.90999985    2.32999992
   19.89166641   -1.00000000    4.90999985    2.26999998
   19.89500046   -1.00000000    4.90999985    2.19000006
   19.89805603   -1.00000000    4.90999985    2.23000002
   19.90138817   -1.00000000    4.90999985    2.25000000
   19.90472221   -1.00000000    4.90999985    2.32999992
   19.90777779   -1.00000000    4.90999985    2.30999994
   19.91833305   -1.00000000    4.90999985    2.13000011
   19.92166519   -1.00000000    4.90999985    2.03999996
   19.92472076   -1.00000000    4.90999985    2.17000008
   19.92805481   -1.00000000    4.90999985    2.19000006
   19.93138885   -1.00000000    4.90999985    2.15000010
   19.93444443   -1.00000000    4.90999985    2.03999996
   19.93777657   -1.00000000    4.90999985    1.89999998
   19.94111061   -1.00000000    4.90999985    2.01999998
   19.94444275   -1.00000000    4.90999985    1.98000002
   19.94777679   -1.00000000    4.90999985    1.73000002
   19.95083427   -1.00000000    4.90999985    1.66999996
   19.96111107   -1.00000000    4.90999985    2.13000011
   19.96444511   -1.00000000    4.90999985    2.21000004
   19.96777916   -1.00000000    4.90999985    2.21000004
   19.97083473   -1.00000000    4.90999985    2.21000004
   19.97416687   -1.00000000    4.90999985    2.13000011
   19.97777748   -1.00000000    4.90999985    2.13000011
   19.98111153   -1.00000000    4.90999985    2.11999989
   19.98416710   -1.00000000    4.90999985    1.94000006
   19.98750114   -1.00000000    4.90999985    1.86000001
   19.99055672   -1.00000000    4.90999985    1.78999996
   19.99388885   -1.00000000    4.90999985    1.80999994
   20.00416756   -1.00000000    4.90999985    1.86000001
   20.00722313   -1.00000000    4.90999985    1.94000006
   20.01083374   -1.00000000    4.90999985    2.05999994
   20.01416588   -1.00000000    4.90999985    2.11999989
   20.01722145   -1.00000000    4.90999985    2.11999989
   20.02055550   -1.00000000    4.90999985    2.03999996
   20.02361107   -1.00000000    4.90999985    2.07999992
   20.02694511   -1.00000000    4.90999985    2.07999992
   20.03027725   -1.00000000    4.90999985    2.09999990
   20.03333282   -1.00000000    4.90999985    2.17000008
   20.03666687   -1.00000000    4.90999985    2.17000008
   20.04694366   -1.00000000    4.90999985    2.11999989
   20.04999924   -1.00000000    4.90999985    2.15000010
   20.05333328   -1.00000000    4.90999985    2.28999996
   20.05666542   -1.00000000    4.90999985    2.34999990
   20.05972099   -1.00000000    4.90999985    2.32999992
   20.06305504   -1.00000000    4.76000023    2.32999992
   20.06638718   -1.00000000    4.17999983    2.36999989
   20.06944466   -1.00000000    3.84999990    2.34999990
   20.07277870   -1.00000000    3.70000005    2.36999989
   20.07638931   -1.00000000    3.57999992    2.34999990
   20.07972336   -1.00000000    3.48000002    2.34999990
   20.08972359   -1.00000000    2.61999989    2.39000010
   20.09305573   -1.00000000    2.51999998    2.36999989
   20.09611130   -1.00000000    2.57999992    2.36999989
   20.09944534   -1.00000000    2.66000009    2.39000010
   20.10277748   -1.00000000    2.66000009    2.39000010
   20.10583305   -1.00000000    2.32999992    2.39000010
   20.10944557   -1.00000000    2.53999996    2.36999989
   20.11277771   -1.00000000    3.00000000    2.36999989
   20.11583328   -1.00000000    3.41000009    2.39000010
   20.11916733   -1.00000000    3.34999990    2.36999989
   20.12222290   -1.00000000    3.28999996    2.39000010
