    HOUR (UT)   FLARE FACTOR    SKY TESTER    SUN TESTER
   11.87888908   -1.00000000   -1.00000000   -1.00000000
   11.90194416   95.23339844    0.00000000    0.00000000
   11.90527725   94.86679840    0.00000000    0.00000000
   11.90833282  103.18800354    0.00000000    0.00000000
   11.91166592  100.83300018    0.00000000    0.00000000
   11.91499996  108.56600189    0.00000000    0.00000000
   11.91805553  115.49800110    0.00000000    0.00000000
   11.92222214  115.49800110    0.00000000    0.00000000
   11.92638874  124.08000183    0.00000000    0.00000000
   11.92972279  125.55100250    0.00000000    0.00000000
   11.93277836  117.95099640    1.55999994    1.98000002
   11.93500042  120.12899780    1.55999994    1.98000002
   11.93638897  119.14199829    1.55999994    1.98000002
   11.93972206  119.89199829    1.55999994    1.98000002
   11.94305515  119.01300049    1.55999994    1.98000002
   11.94611073  113.36399841    1.55999994    1.98000002
   11.94944477  115.52100372    1.55999994    1.98000002
   11.95277786  113.13899994    1.55999994    1.98000002
   11.95583344  114.32700348    1.55999994    1.98000002
   11.95916653  123.96099854    1.55999994    1.98000002
   11.96500015  123.96099854    1.55999994    1.98000002
   11.96916580  122.57399750    1.55999994    1.98000002
   11.97249985  127.46299744    1.55999994    1.98000002
   11.97555542  131.91900635    1.55999994    1.98000002
   11.97888851  121.81500244    1.55999994    1.98000002
   11.98222160  124.59799957    1.55999994    1.98000002
   11.98555565  123.00099945    1.55999994    1.98000002
   11.98888874  138.77299500    1.55999994    1.98000002
   11.99194431  135.57699585    1.55999994    1.98000002
   11.99527836  144.55700684    1.55999994    1.98000002
   11.99833393  135.21899414    1.55999994    1.98000002
   12.00166702  137.92399597    1.55999994    1.98000002
   12.00194454  147.14500427    1.55999994    1.98000002
   12.00805569  147.14500427    1.55999994    1.98000002
   12.01194477  142.66999817    1.55999994    1.98000002
   12.01527786  143.75199890    1.55999994    1.98000002
   12.01861095  144.68899536    1.55999994    1.98000002
   12.02166653  140.05799866    1.55999994    1.98000002
   12.02499962  147.67399597    1.55999994    1.98000002
   12.02833271  138.80099487    1.55999994    1.98000002
   12.03138828  143.72799683    1.55999994    1.98000002
   12.03472233  142.06900024    1.55999994    1.98000002
   12.03527832  139.15800476    1.55999994    1.98000002
   12.03833389  136.86999512    1.55999994    1.98000002
   12.04166698  140.29400635    1.55999994    1.98000002
   12.04472256  130.59100342    1.55999994    1.98000002
   12.05083370  130.59100342    1.55999994    1.98000002
   12.05500031  134.31199646    1.55999994    1.98000002
   12.05805588  149.80499268    1.55999994    1.98000002
   12.06138897  154.78500366    1.55999994    1.98000002
   12.06472206  143.65699768    1.55999994    1.98000002
   12.06777763  144.89900208    1.55999994    1.98000002
   12.06861115  144.71200562    1.55999994    1.98000002
   12.07138920  146.57000732    1.55999994    1.98000002
   12.07472229  141.06100464    1.55999994    1.98000002
   12.07777786  136.34899902    1.55999994    1.98000002
   12.08111095  135.66900635    1.55999994    1.98000002
   12.08444405  136.61999512    1.55999994    1.98000002
   12.08749962  142.68600464    1.55999994    1.98000002
   12.09361076  142.68600464    1.55999994    1.98000002
   12.09777737  139.61900330    1.55999994    1.98000002
   12.10111141  145.26699829    1.55999994    1.98000002
   12.10194492  144.72599792    1.55999994    1.98000002
   12.10444450  146.54499817    1.55999994    1.98000002
   12.10777855  139.32200623    1.55999994    1.98000002
   12.11111164  151.17999268    1.55999994    1.98000002
   12.11416721  140.56100464    1.55999994    1.98000002
   12.11750031  146.38200378    1.55999994    1.98000002
   12.12055588  161.65299988    1.55999994    1.98000002
   12.12388897  145.14300537    1.55999994    1.98000002
   12.12722206  135.15199280    1.55999994    1.98000002
   12.13027763  141.26600647    1.55999994    1.98000002
   12.13638878  141.26600647    1.55999994    1.98000002
   12.14055538  140.83399963    1.55999994    1.98000002
   12.14388847  145.07000732    1.55999994    1.98000002
   12.14694405  134.44099426    1.55999994    1.98000002
   12.15027714  141.33599854    1.55999994    1.98000002
   12.15361118  142.04299927    1.55999994    1.98000002
   12.15666676  139.55999756    1.55999994    1.98000002
   12.16027737  140.14900208    1.55999994    1.98000002
   12.16333294  148.47300720    1.55999994    1.98000002
   12.16666698  147.76300049    1.55999994    1.98000002
   12.16861153  147.84700012    1.55999994    1.98000002
   12.17000008  146.24200439    1.55999994    1.98000002
   12.17333412  142.08900452    1.55999994    1.98000002
   12.17944431  142.08900452    1.55999994    1.98000002
   12.18333340  145.53700256    1.55999994    1.98000002
   12.18666649  141.02799988    1.55999994    1.98000002
   12.19000053  145.32299805    1.55999994    1.98000002
   12.19305515  147.93499756    1.55999994    1.98000002
   12.19638920  136.21099854    1.55999994    1.98000002
   12.19972229  135.02600098    1.55999994    1.98000002
   12.20194435  136.97500610    1.55999994    1.98000002
   12.20305538  146.11199951    1.55999994    1.98000002
   12.20638847  146.17999268    1.55999994    1.98000002
   12.20972157  151.16000366    1.55999994    1.98000002
   12.21277714  147.37399292    1.55999994    1.98000002
   12.21611118  134.15499878    1.55999994    1.98000002
   12.22222137  134.15499878    1.55999994    1.98000002
   12.22638798  136.75100708    1.55999994    1.98000002
   12.22944355  132.53300476    1.55999994    1.98000002
   12.23277760  147.75399780    1.55999994    1.98000002
   12.23527813  150.80099487    1.55999994    1.98000002
   12.23638916  145.75300598    1.55999994    1.98000002
   12.23972225  139.36999512    1.55999994    1.98000002
   12.24305534  140.58500671    1.55999994    1.98000002
   12.24611092  138.77900696    1.55999994    1.98000002
   12.24944496  130.27299500    1.55999994    1.98000002
   12.25249958  134.67199707    1.55999994    1.98000002
   12.25583363  141.48300171    1.55999994    1.98000002
   12.25916672  140.98100281    1.55999994    1.98000002
   12.26500034  140.98100281    1.55999994    1.98000002
   12.26944447  130.52200317    1.55999994    1.98000002
   12.27277756  133.80000305    1.55999994    1.98000002
   12.27583313  139.74800110    1.55999994    1.98000002
   12.27916622  135.20700073    1.55999994    1.98000002
   12.28249931  128.85299683    1.55999994    1.98000002
   12.28555584  137.06399536    1.55999994    1.98000002
   12.28888893  132.70399475    1.55999994    1.98000002
   12.29222298  138.71099854    1.55999994    1.98000002
   12.29527855  137.17999268    1.55999994    1.98000002
   12.29861164  134.08200073    1.55999994    1.98000002
   12.30166721  143.68600464    1.55999994    1.98000002
   12.30222225  132.05599976    1.55999994    1.98000002
   12.30777836  132.05599976    1.55999994    1.98000002
   12.31194496  141.28799438    1.55999994    1.98000002
   12.31527805  133.04200745    1.55999994    1.98000002
   12.31861115  137.16200256    1.55999994    1.98000002
   12.32166672  136.84300232    1.55999994    1.98000002
   12.32499981  132.03100586    1.55999994    1.98000002
   12.32833290  131.52099609    1.55999994    1.98000002
   12.33138847  132.69500732    1.55999994    1.98000002
   12.33472157  136.48100281    1.55999994    1.98000002
   12.33555508  130.95899963    1.55999994    1.98000002
   12.33833313  131.41900635    1.55999994    1.98000002
   12.34138870  125.82099915    1.55999994    1.98000002
   12.34472179  137.10200500    1.55999994    1.98000002
   12.35083389  137.10200500    1.55999994    1.98000002
   12.35472298  135.87100220    1.55999994    1.98000002
   12.35805607  131.08599854    1.55999994    1.98000002
   12.36138916  129.84399414    1.55999994    1.98000002
   12.36444473  134.23800659    1.55999994    1.98000002
   12.36777782  132.80799866    1.55999994    1.98000002
   12.36888885  128.36999512    1.55999994    1.98000002
   12.37138939  143.56199646    1.55999994    1.98000002
   12.37472248  139.34300232    1.55999994    1.98000002
   12.37777805  144.34700012    1.55999994    1.98000002
   12.38111115  133.87199402    1.55999994    1.98000002
   12.38416672  129.14999390    1.55999994    1.98000002
   12.38749981  131.19599915    1.55999994    1.98000002
   12.39361095  131.19599915    1.55999994    1.98000002
   12.39777756  138.96600342    1.55999994    1.98000002
   12.40111065  133.11900330    1.55999994    1.98000002
   12.40222168  127.94699860    1.55999994    1.98000002
   12.40472221  132.79100037    1.55999994    1.98000002
   12.40805531  139.42799377    1.55999994    1.98000002
   12.41111088  133.98100281    1.55999994    1.98000002
   12.41444397  124.92700195    1.55999994    1.98000002
   12.41750050  129.75000000    1.55999994    1.98000002
   12.42083359  124.09500122    1.55999994    1.98000002
   12.42416668  125.83100128    1.55999994    1.98000002
   12.42722225  119.25299835    1.55999994    1.98000002
   12.43055630  132.27999878    1.55999994    1.98000002
   12.43638897  132.27999878    1.55999994    1.98000002
   12.44055557  118.89600372    1.55999994    1.98000002
   12.44388866  124.72499847    1.55999994    1.98000002
   12.44694424  121.90100098    1.55999994    1.98000002
   12.45027733  117.84600067    1.55999994    1.98000002
   12.45361137  127.05000305    1.55999994    1.98000002
   12.45694447  125.81700134    1.55999994    1.98000002
   12.46000004  124.88200378    1.55999994    1.98000002
   12.46333313  131.46099854    1.55999994    1.98000002
   12.46666622  127.97299957    1.55999994    1.98000002
   12.46888828  128.21299744    1.55999994    1.98000002
   12.47027779  125.93900299    1.55999994    1.98000002
   12.47361088  141.03500366    1.55999994    1.98000002
   12.47916603  141.03500366    1.55999994    1.98000002
   12.48333359  132.21200562    1.55999994    1.98000002
   12.48666668  131.52799988    1.55999994    1.98000002
   12.49000072  127.08899689    1.55999994    1.98000002
   12.49305534  127.99900055    1.55999994    1.98000002
   12.49638939  127.50499725    1.55999994    1.98000002
   12.49972248  120.01699829    1.55999994    1.98000002
   12.50222206  133.08799744    1.55999994    1.98000002
   12.50333309  130.83799744    1.55999994    1.98000002
   12.50666714  126.68599701    1.55999994    1.98000002
   12.50972176  127.38400269    1.55999994    1.98000002
   12.51305580  132.14199829    1.55999994    1.98000002
   12.51638889  124.38700104    1.55999994    1.98000002
   12.52222157  124.38700104    1.55999994    1.98000002
   12.52611065  127.69100189    1.55999994    1.98000002
   12.52944374  123.80100250    1.55999994    1.98000002
   12.53277779  123.00000000    1.55999994    1.98000002
   12.53555584  124.20200348    1.55999994    1.98000002
   12.53638935  131.14300537    1.55999994    1.98000002
   12.53972244  131.42199707    1.55999994    1.98000002
   12.54277802  125.07199860    1.55999994    1.98000002
   12.54611111  127.89099884    1.55999994    1.98000002
   12.54916668  119.45300293    1.55999994    1.98000002
   12.55249977  129.49299622    1.55999994    1.98000002
   12.55583382  124.46900177    1.55999994    1.98000002
   12.55888939  131.13800049    1.55999994    1.98000002
   12.56500053  131.13800049    1.55999994    1.98000002
   12.56916618  120.98200226    1.55999994    1.98000002
   12.57222176  126.29199982    1.55999994    1.98000002
   12.57555580  127.87500000    1.55999994    1.98000002
   12.57888889  119.46299744    1.55999994    1.98000002
   12.58194447  121.57499695    1.55999994    1.98000002
   12.58527756  125.45400238    1.55999994    1.98000002
   12.58833313  127.76200104    1.55999994    1.98000002
   12.59166622  121.42299652    1.55999994    1.98000002
   12.59499931  126.66200256    1.55999994    1.98000002
   12.59805489  128.10400391    1.55999994    1.98000002
   12.60138893  130.92399597    1.55999994    1.98000002
   12.60222244  126.26899719    1.55999994    1.98000002
   12.60777855  126.26899719    1.55999994    1.98000002
   12.61194515  125.93000031    1.55999994    1.98000002
   12.61527824  124.97799683    1.55999994    1.98000002
   12.61861134  126.10299683    1.55999994    1.98000002
   12.62166691  128.72200012    1.55999994    1.98000002
   12.62500000  123.64800262    1.55999994    1.98000002
   12.62805557  127.89099884    1.55999994    1.98000002
   12.63138866  130.51199341    1.55999994    1.98000002
   12.63472176  123.30799866    1.55999994    1.98000002
   12.63555527  124.06500244    1.55999994    1.98000002
   12.63833332  117.50399780    1.55999994    1.98000002
   12.64166641  113.19200134    1.55999994    1.98000002
   12.64472198  113.97499847    1.55999994    1.98000002
   12.65055561  113.97499847    1.55999994    1.98000002
   12.65472221  118.67600250    1.55999994    1.98000002
   12.65805531  114.46099854    1.55999994    1.98000002
   12.66111088  121.93000031    1.55999994    1.98000002
   12.66444397  120.35099792    1.55999994    1.98000002
   12.66777802  130.23199463    1.55999994    1.98000002
   12.66888905  123.79799652    1.55999994    1.98000002
   12.67111111  120.05999756    1.55999994    1.98000002
   12.67444515  119.91799927    1.55999994    1.98000002
   12.67750072  125.72200012    1.55999994    1.98000002
   12.68083382  120.96299744    1.55999994    1.98000002
   12.68416691  120.92299652    1.55999994    1.98000002
   12.68722248  121.97799683    1.55999994    1.98000002
   12.69333363  121.97799683    1.55999994    1.98000002
   12.69750023  119.47399902    1.55999994    1.98000002
   12.70083332  114.47799683    1.55999994    1.98000002
   12.70222187  127.22599792    1.55999994    1.98000002
   12.70444393  117.06999969    1.55999994    1.98000002
   12.70777798  111.69899750    1.55999994    1.98000002
   12.71083355  119.41100311    1.55999994    1.98000002
   12.71416664  115.52100372    1.55999994    1.98000002
   12.71749973  119.86399841    1.55999994    1.98000002
   12.72055531  119.22299957    1.55999994    1.98000002
   12.72388840  120.41799927    1.55999994    1.98000002
   12.72722149  128.64999390    1.55999994    1.98000002
   12.73027706  122.70899963    1.55999994    1.98000002
   12.73638916  122.70899963    1.55999994    1.98000002
   12.74055576  124.72899628    1.55999994    1.98000002
   12.74361134  123.41600037    1.55999994    1.98000002
   12.74694443  117.61100006    1.55999994    1.98000002
   12.75027752  129.07099915    1.55999994    1.98000002
   12.75333309  123.60399628    1.55999994    1.98000002
   12.75666714  130.46899414    1.55999994    1.98000002
   12.76000023  117.22899628    1.55999994    1.98000002
   12.76305580  124.49299622    1.55999994    1.98000002
   12.76638889  125.68800354    1.55999994    1.98000002
   12.76888847  129.45100403    1.55999994    1.98000002
   12.76999950  120.49199677    1.55999994    1.98000002
   12.77333355  124.82700348    1.55999994    1.98000002
   12.77916622  124.82700348    1.55999994    1.98000002
   12.78333378  117.99900055    1.55999994    1.98000002
   12.78638935  114.95600128    1.55999994    1.98000002
   12.78972244  124.27200317    1.55999994    1.98000002
   12.79305553  114.62100220    1.55999994    1.98000002
   12.79611111  118.00499725    1.55999994    1.98000002
   12.79944515  119.36100006    1.55999994    1.98000002
   12.80222225  117.94000244    1.55999994    1.98000002
   12.80305576  123.92700195    1.55999994    1.98000002
   12.80638885  126.75199890    1.55999994    1.98000002
   12.80944443  125.58899689    1.55999994    1.98000002
   12.81277752  124.48400116    1.55999994    1.98000002
   12.81611156  124.27899933    1.55999994    1.98000002
   12.82194424  124.27899933    1.55999994    1.98000002
   12.82611084  126.22599792    1.55999994    1.98000002
   12.82944393  125.47399902    1.55999994    1.98000002
   12.83249950  115.35500336    1.55999994    1.98000002
   12.83555508  115.88700104    1.55999994    1.98000002
   12.83611107  122.52899933    1.55999994    1.98000002
   12.83944416  117.15899658    1.55999994    1.98000002
   12.84249973  111.66200256    1.55999994    1.98000002
   12.84583282  118.02799988    1.55999994    1.98000002
   12.84916592  117.36399841    1.55999994    1.98000002
   12.85222244  113.10099792    1.55999994    1.98000002
   12.85555553  117.45300293    1.55999994    1.98000002
   12.85888958  109.98999786    1.55999994    1.98000002
   12.86500072  109.98999786    1.55999994    1.98000002
   12.86888885  108.16699982    1.55999994    1.98000002
   12.86944485  112.81300354    1.55999994    1.98000002
   12.87277794  113.73600006    1.55999994    1.98000002
   12.87583351  108.78900146    1.55999994    1.98000002
   12.87916660  119.58999634    1.55999994    1.98000002
   12.88249969  109.18000031    1.55999994    1.98000002
   12.88555527  115.62100220    1.55999994    1.98000002
   12.88888836  114.61100006    1.55999994    1.98000002
   12.89194393  113.06600189    1.55999994    1.98000002
   12.89527798  116.33399963    1.55999994    1.98000002
   12.89861107  116.92600250    1.55999994    1.98000002
   12.90166664  111.08799744    1.55999994    1.98000002
   12.91888905  118.83000183    1.55999994    1.98000002
   12.92305565  118.83000183    1.55999994    1.98000002
   12.92722225  119.78700256    1.55999994    1.98000002
   12.93027782  115.65200043    1.55999994    1.98000002
   12.93361092  111.76300049    1.55999994    1.98000002
   12.93694496  117.84899902    1.55999994    1.98000002
   12.94000053  115.08399963    1.55999994    1.98000002
   12.94333363  110.89600372    1.55999994    1.98000002
   12.94638920  106.65699768    1.55999994    1.98000002
   12.94972229  113.63800049    1.55999994    1.98000002
   12.95222187  107.08599854    1.55999994    1.98000002
   12.95333290  105.20999908    1.55999994    1.98000002
   12.95666695  113.63099670    1.55999994    1.98000002
   12.96000004  109.37200165    1.55999994    1.98000002
   12.96583271  109.37200165    1.55999994    1.98000002
   12.96999931  106.87100220    1.55999994    1.98000002
   12.97333336  107.36299896    1.55999994    1.98000002
   12.97638798  119.90599823    1.55999994    1.98000002
   12.97972202  113.64099884    1.55999994    1.98000002
   12.98277760  114.25399780    1.55999994    1.98000002
   12.98555565  102.75000000    1.55999994    1.98000002
   12.98638916  107.65200043    1.55999994    1.98000002
   12.98972225  108.56099701    1.55999994    1.98000002
   12.99305534  105.64900208    1.55999994    1.98000002
   12.99611092  107.03900146    1.55999994    1.98000002
   12.99944496  110.32299805    1.55999994    1.98000002
   13.00277805  109.77200317    1.55999994    1.98000002
   13.00861073  109.77200317    1.55999994    1.98000002
   13.01277733  110.93900299    1.55999994    1.98000002
   13.01611137  106.90799713    1.55999994    1.98000002
   13.01888847  113.36499786    1.55999994    1.98000002
   13.01944447  110.93199921    1.55999994    1.98000002
   13.02277756  107.87000275    1.55999994    1.98000002
   13.02611065  109.11199951    1.55999994    1.98000002
   13.02916622  111.36799622    1.55999994    1.98000002
   13.03249931  113.08899689    1.55999994    1.98000002
   13.03583336  105.54900360    1.55999994    1.98000002
   13.03916740  111.54599762    1.55999994    1.98000002
   13.04222298  110.86499786    1.55999994    1.98000002
   13.04555607  109.94200134    1.55999994    1.98000002
   13.05166721  109.94200134    1.55999994    1.98000002
   13.05555534  107.05699921    1.55999994    1.98000002
   13.05888939  114.15499878    1.55999994    1.98000002
   13.06222248  108.32900238    1.55999994    1.98000002
   13.06527805  104.62200165    1.55999994    1.98000002
   13.06861115  105.25900269    1.55999994    1.98000002
   13.07194424  103.78199768    1.55999994    1.98000002
   13.07499981  104.54699707    1.55999994    1.98000002
   13.07833290  103.25299835    1.55999994    1.98000002
   13.08166695  114.49500275    1.55999994    1.98000002
   13.08472157  109.05999756    1.55999994    1.98000002
   13.08666611  109.44799805    1.55999994    1.98000002
   13.08861065  113.50900269    1.55999994    1.98000002
   13.09444427  113.50900269    1.55999994    1.98000002
   13.09861088  106.99500275    1.55999994    1.98000002
   13.10166740  109.42600250    1.55999994    1.98000002
   13.10500050   98.92600250    1.55999994    1.98000002
   13.10805607  106.16999817    1.55999994    1.98000002
   13.11138916  110.73799896    1.55999994    1.98000002
   13.11472225  114.42700195    1.55999994    1.98000002
   13.11805534  105.84999847    1.55999994    1.98000002
   13.11999989  107.22000122    1.55999994    1.98000002
   13.12138939  111.14700317    1.55999994    1.98000002
   13.12472248  107.45300293    1.55999994    1.98000002
   13.12805557  108.38500214    1.55999994    1.98000002
   13.13111115  109.57299805    1.55999994    1.98000002
   13.13722229  109.57299805    1.55999994    1.98000002
   13.14138889  109.91200256    1.55999994    1.98000002
   13.14472198  103.29799652    1.55999994    1.98000002
   13.14777756  117.72599792    1.55999994    1.98000002
   13.15111065  106.80699921    1.55999994    1.98000002
   13.15333271  104.68900299    1.55999994    1.98000002
   13.15472221  110.35299683    1.55999994    1.98000002
   13.15805531  109.95899963    1.55999994    1.98000002
   13.16111088  113.93800354    1.55999994    1.98000002
   13.16444397  105.11399841    1.55999994    1.98000002
   13.16777802  111.81099701    1.55999994    1.98000002
   13.17083359  112.81099701    1.55999994    1.98000002
   13.17416668  108.01599884    1.55999994    1.98000002
   13.18000031  108.01599884    1.55999994    1.98000002
   13.18416691  116.88300323    1.55999994    1.98000002
   13.18666649  115.49299622    1.55999994    1.98000002
   13.18777752  115.46600342    1.55999994    1.98000002
   13.19111156  115.87799835    1.55999994    1.98000002
   13.19416714  114.01899719    1.55999994    1.98000002
   13.19750023  112.92400360    1.55999994    1.98000002
   13.20083332  108.32499695    1.55999994    1.98000002
   13.20388889  115.76000214    1.55999994    1.98000002
   13.20722198  114.10399628    1.55999994    1.98000002
   13.21055508  114.19300079    1.55999994    1.98000002
   13.21361065  114.66100311    1.55999994    1.98000002
   13.21694374  112.88300323    1.55999994    1.98000002
   13.22305489  112.88300323    1.55999994    1.98000002
   13.22694397  110.41999817    1.55999994    1.98000002
   13.23027706  115.36399841    1.55999994    1.98000002
   13.23361111  111.11499786    1.55999994    1.98000002
   13.23666668  110.17600250    1.55999994    1.98000002
   13.24000072  107.06199646    1.55999994    1.98000002
   13.24333382  106.61299896    1.55999994    1.98000002
   13.24638939  106.69000244    1.55999994    1.98000002
   13.24972248  109.25399780    1.55999994    1.98000002
   13.25277805  112.44899750    1.55999994    1.98000002
   13.25388908  103.01200104    1.55999994    1.98000002
   13.25666714  110.42099762    1.55999994    1.98000002
   13.25972176  113.87300110    1.55999994    1.98000002
   13.26583290  113.87300110    1.55999994    1.98000002
   13.26999950  106.01799774    1.55999994    1.98000002
   13.27305508  107.62999725    1.55999994    1.98000002
   13.27638817  115.32399750    1.55999994    1.98000002
   13.27944374  113.77200317    1.55999994    1.98000002
   13.28277779  106.43900299    1.55999994    1.98000002
   13.28611183  114.43299866    1.55999994    1.98000002
   13.28722286  119.84400177    1.55999994    1.98000002
   13.28944492  120.89600372    1.55999994    1.98000002
   13.29277802  115.14099884    1.55999994    1.98000002
   13.29611111  114.27700043    1.55999994    1.98000002
   13.29916668  113.17600250    1.55999994    1.98000002
   13.30249977  111.63400269    1.55999994    1.98000002
   13.30861092  111.63400269    1.55999994    1.98000002
   13.31277752  112.06099701    1.55999994    1.98000002
   13.31611156  111.39499664    1.55999994    1.98000002
   13.31916618  115.13400269    1.55999994    1.98000002
   13.32055569  107.01399994    1.55999994    1.98000002
   13.32277775  121.13999939    1.55999994    1.98000002
   13.32611084  108.35399628    1.55999994    1.98000002
   13.32916641  111.57399750    1.55999994    1.98000002
   13.33249950  117.07499695    1.55999994    1.98000002
   13.33583260  121.82900238    1.55999994    1.98000002
   13.33888817  113.01599884    1.55999994    1.98000002
   13.34222221  121.51499939    1.55999994    1.98000002
   13.34555531  111.66899872    1.55999994    1.98000002
   13.35138893  111.66899872    1.55999994    1.98000002
   13.35555553  114.74700165    1.55999994    1.98000002
   13.35888958  112.79100037    1.55999994    1.98000002
   13.36194515  119.11000061    1.55999994    1.98000002
   13.36527824  118.13600159    1.55999994    1.98000002
   13.36861134  124.11499786    1.55999994    1.98000002
   13.37166691  118.33200073    1.55999994    1.98000002
   13.37500000  114.51100159    1.55999994    1.98000002
   13.37833309  110.96800232    1.55999994    1.98000002
   13.38138866  117.67400360    1.55999994    1.98000002
   13.38472176  118.96099854    1.55999994    1.98000002
   13.38749981  113.46900177    1.55999994    1.98000002
   13.38833332  110.67700195    1.55999994    1.98000002
   13.39444447  110.67700195    1.55999994    1.98000002
   13.39833355  110.41000366    1.55999994    1.98000002
   13.40166664  111.27300262    1.55999994    1.98000002
   13.40499973  117.90599823    1.55999994    1.98000002
   13.40805531  104.81800079    1.55999994    1.98000002
   13.41138840  115.34999847    1.55999994    1.98000002
   13.41472149  116.11599731    1.55999994    1.98000002
   13.41777802  103.31300354    1.55999994    1.98000002
   13.42083359  116.63400269    1.55999994    1.98000002
   13.42138958  108.66799927    1.55999994    1.98000002
   13.42472267  117.74500275    1.55999994    1.98000002
   13.42805576  106.33000183    1.55999994    1.98000002
   13.43111134  114.57099915    1.55999994    1.98000002
   13.43722248  114.57099915    1.55999994    1.98000002
   13.44138908  111.63999939    1.55999994    1.98000002
   13.44444466  109.46099854    1.55999994    1.98000002
   13.44777775  117.72699738    1.55999994    1.98000002
   13.45083332  120.65000153    1.55999994    1.98000002
   13.45416641  111.78800201    1.55999994    1.98000002
   13.45444393  114.26000214    1.55999994    1.98000002
   13.45777798  115.65299988    1.55999994    1.98000002
   13.46111107  116.59799957    1.55999994    1.98000002
   13.46416664  109.49199677    1.55999994    1.98000002
   13.46749973  115.27799988    1.55999994    1.98000002
   13.47055531  116.74400330    1.55999994    1.98000002
   13.47388840  110.73500061    1.55999994    1.98000002
   13.47999954  110.73500061    1.55999994    1.98000002
   13.48416710  112.34899902    1.55999994    1.98000002
   13.48750019  116.00700378    1.55999994    1.98000002
   13.48777771  116.14800262    1.55999994    1.98000002
   13.49111176  110.66000366    1.55999994    1.98000002
   13.49444485  118.98000336    1.55999994    1.98000002
   13.49777794  120.18900299    1.55999994    1.98000002
   13.50083351  108.07599640    1.55999994    1.98000002
   13.50416660  112.03900146    1.55999994    1.98000002
   13.50749969  116.68499756    1.55999994    1.98000002
   13.51055527  115.23500061    1.55999994    1.98000002
   13.51388931  105.39199829    1.55999994    1.98000002
   13.51694393  113.98500061    1.55999994    1.98000002
   13.52277756  113.98500061    1.55999994    1.98000002
   13.52694416  115.81400299    1.55999994    1.98000002
   13.53027725  104.36499786    1.55999994    1.98000002
   13.53333378  108.99299622    1.55999994    1.98000002
   13.53666687  116.10099792    1.55999994    1.98000002
   13.54000092  110.50900269    1.55999994    1.98000002
   13.54305553  107.61000061    1.55999994    1.98000002
   13.54638958  109.73600006    1.55999994    1.98000002
   13.54972267  116.71900177    1.55999994    1.98000002
   13.55277824  111.31300354    1.55999994    1.98000002
   13.55416679  119.62599945    1.55999994    1.98000002
   13.55638885  110.27999878    1.55999994    1.98000002
   13.55972195  112.05899811    1.55999994    1.98000002
   13.56583309  112.05899811    1.55999994    1.98000002
   13.56972218  110.38600159    1.55999994    1.98000002
   13.57305527  118.63400269    1.55999994    1.98000002
   13.57638836  111.73200226    1.55999994    1.98000002
   13.57944393  104.94200134    1.55999994    1.98000002
   13.58277798  105.04499817    1.55999994    1.98000002
   13.58583260  116.06999969    1.55999994    1.98000002
   13.58749962  106.01799774    1.55999994    1.98000002
   13.58944416  110.58599854    1.55999994    1.98000002
   13.59277725  113.59100342    1.55999994    1.98000002
   13.59611034  109.23899841    1.55999994    1.98000002
   13.59916592  108.88400269    1.55999994    1.98000002
   13.60249996  114.73100281    1.55999994    1.98000002
   13.60861111  114.73100281    1.55999994    1.98000002
   13.61277771  100.98400116    1.55999994    1.98000002
   13.61583328  115.51899719    1.55999994    1.98000002
   13.61916637  112.66899872    1.55999994    1.98000002
   13.62083340  112.24099731    1.55999994    1.98000002
   13.62277794  110.73899841    1.55999994    1.98000002
   13.62611103  102.66100311    1.55999994    1.98000002
   13.62916660  112.00900269    1.55999994    1.98000002
   13.63249969  122.90299988    1.55999994    1.98000002
   13.63583279  113.90599823    1.55999994    1.98000002
   13.63888836  114.43599701    1.55999994    1.98000002
   13.64222240  102.13899994    1.55999994    1.98000002
   13.64555550  104.60399628    1.55999994    1.98000002
   13.65138817  104.60399628    1.55999994    1.98000002
   13.65555477  113.23300171    1.55999994    1.98000002
   13.65888882  110.32700348    1.55999994    1.98000002
   13.66194439  116.46900177    1.55999994    1.98000002
   13.66527748  116.03900146    1.55999994    1.98000002
   13.66833401  111.66899872    1.55999994    1.98000002
   13.67166710  118.60800171    1.55999994    1.98000002
   13.67500019  106.40499878    1.55999994    1.98000002
   13.67805576  114.08599854    1.55999994    1.98000002
   13.68138885  111.70999908    1.55999994    1.98000002
   13.68472195  102.84899902    1.55999994    1.98000002
   13.68777752  106.00299835    1.55999994    1.98000002
   13.68805599  115.64800262    1.55999994    1.98000002
   13.69416714  115.64800262    1.55999994    1.98000002
   13.69833374  109.42099762    1.55999994    1.98000002
   13.70166683  109.60800171    1.55999994    1.98000002
   13.70472240  103.05599976    1.55999994    1.98000002
   13.70805550  108.00599670    1.55999994    1.98000002
   13.71138859  105.72699738    1.55999994    1.98000002
   13.71444416  113.15699768    1.55999994    1.98000002
   13.71777725  106.81700134    1.55999994    1.98000002
   13.72111034  111.55300140    1.55999994    1.98000002
   13.72138882  110.91999817    1.55999994    1.98000002
   13.72472191  110.74600220    1.55999994    1.98000002
   13.72777748  114.48400116    1.55999994    1.98000002
   13.73111057  115.78099823    1.55999994    1.98000002
   13.73722267  115.78099823    1.55999994    1.98000002
   13.74111176  106.41400146    1.55999994    1.98000002
   13.74444485  114.05999756    1.55999994    1.98000002
   13.74777794  107.33100128    1.55999994    1.98000002
   13.75083351  107.93599701    1.55999994    1.98000002
   13.75416660  110.49700165    1.55999994    1.98000002
   13.75472260  110.02400208    1.55999994    1.98000002
   13.75777817  113.00900269    1.55999994    1.98000002
   13.76111126  112.19400024    1.55999994    1.98000002
   13.76444435  116.67700195    1.55999994    1.98000002
   13.76749992  112.70800018    1.55999994    1.98000002
   13.77083302   99.45339966    1.55999994    1.98000002
   13.77416611  109.92299652    1.55999994    1.98000002
   13.77999973  109.92299652    1.55999994    1.98000002
   13.78416729  115.04799652    1.55999994    1.98000002
   13.78722286  110.42500305    1.55999994    1.98000002
   13.78805637  109.54100037    1.55999994    1.98000002
   13.79083347  114.46399689    1.55999994    1.98000002
   13.79416752   97.96640015    1.55999994    1.98000002
   13.79750061  111.84200287    1.55999994    1.98000002
   13.80055618  104.19599915    1.55999994    1.98000002
   13.80388927  109.97000122    1.55999994    1.98000002
   13.80694485  114.60399628    1.55999994    1.98000002
   13.81027794  115.71499634    1.55999994    1.98000002
   13.81361103  113.75399780    1.55999994    1.98000002
   13.81666660  115.37699890    1.55999994    1.98000002
   13.82277775  115.37699890    1.55999994    1.98000002
   13.82694435  114.24700165    1.55999994    1.98000002
   13.82999992  113.17700195    1.55999994    1.98000002
   13.83333302  116.01499939    1.55999994    1.98000002
   13.83666611  116.81500244    1.55999994    1.98000002
   13.83972168  119.62200165    1.55999994    1.98000002
   13.84305477  111.88999939    1.55999994    1.98000002
   13.84638882  115.63200378    1.55999994    1.98000002
   13.84944439  120.01100159    1.55999994    1.98000002
   13.85277843  117.66799927    1.55999994    1.98000002
   13.85472298  109.55999756    1.55999994    1.98000002
   13.85638905  110.09700012    1.55999994    1.98000002
   13.85972214  115.45899963    1.55999994    1.98000002
   13.86555576  115.45899963    1.55999994    1.98000002
   13.86972237  103.61100006    1.55999994    1.98000002
   13.87305546  108.61699677    1.55999994    1.98000002
   13.87611103  109.85800171    1.55999994    1.98000002
   13.87944412  106.75199890    1.55999994    1.98000002
   13.88277817  105.73799896    1.55999994    1.98000002
   13.88583279  104.23600006    1.55999994    1.98000002
   13.88805580  108.72799683    1.55999994    1.98000002
   13.88944435  116.89099884    1.55999994    1.98000002
   13.89277744  111.78900146    1.55999994    1.98000002
   13.89611053  109.93800354    1.55999994    1.98000002
   13.89916611  101.65799713    1.55999994    1.98000002
   13.90249920  113.12899780    1.55999994    1.98000002
   13.90833282  113.12899780    1.55999994    1.98000002
   13.91249943  106.00099945    1.55999994    1.98000002
   13.91583252  104.85600281    1.55999994    1.98000002
   13.91916656  109.71600342    1.55999994    1.98000002
   13.93611145  100.94699860    1.55999994    1.98000002
   13.93916702  102.53900146    1.55999994    1.98000002
   13.94222260  105.88400269    1.55999994    1.98000002
   13.94555569  114.08200073    1.55999994    1.98000002
   13.95583344  114.08200073    1.55999994    1.98000002
   13.96000004  107.24600220    1.55999994    1.98000002
   13.96305561  109.45099640    1.55999994    1.98000002
   13.96638870  102.88999939    1.55999994    1.98000002
   13.96972179  111.86599731    1.55999994    1.98000002
   13.97138882  102.29699707    1.55999994    1.98000002
   13.97333336  122.29100037    1.55999994    1.98000002
   13.97638798  115.83000183    1.55999994    1.98000002
   13.97972202  107.20999908    1.55999994    1.98000002
   13.98305511  114.50599670    1.55999994    1.98000002
   13.98611164  117.48000336    1.55999994    1.98000002
   13.98944473  111.49900055    1.55999994    1.98000002
   13.99444485  111.49900055    1.55999994    1.98000002
   13.99861145  114.96600342    1.55999994    1.98000002
   14.00166702  116.93599701    1.55999994    1.98000002
   14.00472260  108.75599670    1.55999994    1.98000002
   14.00527763  108.59999847    1.55999994    1.98000002
   14.00833321  113.51699829    1.55999994    1.98000002
   14.01166630  107.34400177    1.55999994    1.98000002
   14.01472187  112.90499878    1.55999994    1.98000002
   14.01805496  108.86100006    1.55999994    1.98000002
   14.02138901  106.98400116    1.55999994    1.98000002
   14.02444458  108.51399994    1.55999994    1.98000002
   14.02777767  107.96700287    1.55999994    1.98000002
   14.03111076  108.65699768    1.55999994    1.98000002
   14.03722286  108.65699768    1.55999994    1.98000002
   14.04138947  108.99400330    1.55999994    1.98000002
   14.04444504  107.69999695    1.55999994    1.98000002
   14.04777813   99.59670258    1.55999994    1.98000002
   14.05111122  104.77999878    1.55999994    1.98000002
   14.05416679  103.44300079    1.55999994    1.98000002
   14.05749989   97.10299683    1.55999994    1.98000002
   14.06055546  108.67099762    1.55999994    1.98000002
   14.06388950   96.22290039    1.55999994    1.98000002
   14.06722260  101.14600372    1.55999994    1.98000002
   14.07027817  100.19200134    1.55999994    1.98000002
   14.07222176  105.24600220    1.55999994    1.98000002
   14.07416630  106.62599945    1.55999994    1.98000002
   14.07999992  106.62599945    1.55999994    1.98000002
   14.08416653  107.02899933    1.55999994    1.98000002
   14.08749962  106.29499817    1.55999994    1.98000002
   14.09055519   98.69280243    1.55999994    1.98000002
   14.09388828  100.29199982    1.55999994    1.98000002
   14.09694386  107.70999908    1.55999994    1.98000002
   14.10027790  105.82800293    1.55999994    1.98000002
   14.10361195  108.23100281    1.55999994    1.98000002
   14.10555553  103.42199707    1.55999994    1.98000002
   14.10722256  105.07599640    1.55999994    1.98000002
   14.11055565   98.56040192    1.55999994    1.98000002
   14.11361122  110.44899750    1.55999994    1.98000002
   14.11694431  112.79399872    1.55999994    1.98000002
   14.12277794  112.79399872    1.55999994    1.98000002
   14.12694454  103.12799835    1.55999994    1.98000002
   14.13027763  108.44300079    1.55999994    1.98000002
   14.13333321  113.99500275    1.55999994    1.98000002
   14.13666630  104.44100189    1.55999994    1.98000002
   14.13916683  115.72799683    1.55999994    1.98000002
   14.14027786  100.45899963    1.55999994    1.98000002
   14.14361095  105.15899658    1.55999994    1.98000002
   14.14694405   95.63120270    1.55999994    1.98000002
   14.14999962  110.94000244    1.55999994    1.98000002
   14.15333271   99.03279877    1.55999994    1.98000002
   14.15638828  105.19799805    1.55999994    1.98000002
   14.15972137  108.90599823    1.55999994    1.98000002
   14.16583252  108.90599823    1.55999994    1.98000002
   14.16972256  110.88300323    1.55999994    1.98000002
   14.17250061  108.20600128    1.55999994    1.98000002
   14.17333412  103.57700348    1.55999994    1.98000002
   14.17666721   99.35489655    1.55999994    1.98000002
   14.18000031   96.90509796    1.55999994    1.98000002
   14.18305588   99.01480103    1.55999994    1.98000002
   14.18638897  106.70300293    1.55999994    1.98000002
   14.18944454   97.95200348    1.55999994    1.98000002
   14.19277763  100.51499939    1.55999994    1.98000002
   14.19611073  111.68000031    1.55999994    1.98000002
   14.19916630   98.97470093    1.55999994    1.98000002
   14.20249939  108.88800049    1.55999994    1.98000002
   14.20861053  108.88800049    1.55999994    1.98000002
   14.21277714  108.02600098    1.55999994    1.98000002
   14.21583271  100.45800018    1.55999994    1.98000002
   14.21916580  113.41899872    1.55999994    1.98000002
   14.22249985  101.78700256    1.55999994    1.98000002
   14.22555542  109.19699860    1.55999994    1.98000002
   14.22888851   96.33300018    1.55999994    1.98000002
   14.23222160  101.18599701    1.55999994    1.98000002
   14.23527813  108.40299988    1.55999994    1.98000002
   14.23861122  108.31999969    1.55999994    1.98000002
   14.23944473  104.67600250    1.55999994    1.98000002
   14.24222279  108.13700104    1.55999994    1.98000002
   14.24527836   98.52500153    1.55999994    1.98000002
   14.25138855   98.52500153    1.55999994    1.98000002
   14.25555515  103.75599670    1.55999994    1.98000002
   14.25888920   99.64320374    1.55999994    1.98000002
   14.26194477   98.62419891    1.55999994    1.98000002
   14.26527786   97.77950287    1.55999994    1.98000002
   14.26833344  109.52799988    1.55999994    1.98000002
   14.27166653  103.81199646    1.55999994    1.98000002
   14.27277756  103.65000153    1.55999994    1.98000002
   14.27527714  102.16799927    1.55999994    1.98000002
   14.27833271  106.00199890    1.55999994    1.98000002
   14.28166676  103.95899963    1.55999994    1.98000002
   14.28500080  105.60700226    1.55999994    1.98000002
   14.28805637  105.90299988    1.55999994    1.98000002
   14.29416752  105.90299988    1.55999994    1.98000002
   14.29833412  100.11699677    1.55999994    1.98000002
   14.30166721  104.27999878    1.55999994    1.98000002
   14.30472279  103.87999725    1.55999994    1.98000002
   14.30638885  107.59999847    1.55999994    1.98000002
   14.30833340   97.66919708    1.55999994    1.98000002
   14.31166649  107.99199677    1.55999994    1.98000002
   14.31500053  112.04699707    1.55999994    1.98000002
   14.31805515  103.43399811    1.55999994    1.98000002
   14.32138920   99.72779846    1.55999994    1.98000002
   14.32472229  100.46800232    1.55999994    1.98000002
   14.32777786  105.93900299    1.55999994    1.98000002
   14.33111095   91.86389923    1.55999994    1.98000002
   14.33722210   91.86389923    1.55999994    1.98000002
   14.34138870  101.77400208    1.55999994    1.98000002
   14.34444427  105.77100372    1.55999994    1.98000002
   14.34777737  108.34600067    1.55999994    1.98000002
   14.35083389  100.19999695    1.55999994    1.98000002
   14.35416698  107.41699982    1.55999994    1.98000002
   14.35750008  113.21800232    1.55999994    1.98000002
   14.36055565  108.65000153    1.55999994    1.98000002
   14.36388969  109.84100342    1.55999994    1.98000002
   14.36722279  103.53900146    1.55999994    1.98000002
   14.37027836  102.98200226    1.55999994    1.98000002
   14.37305546   90.21050262    1.55999994    1.98000002
   14.37416649  110.16799927    1.55999994    1.98000002
   14.38000011  110.16799927    1.55999994    1.98000002
   14.38416672  115.58100128    1.55999994    1.98000002
   14.38722229  114.58499908    1.55999994    1.98000002
   14.39055538  113.24800110    1.55999994    1.98000002
   14.39388847  103.47499847    1.55999994    1.98000002
   14.39694405  110.22399902    1.55999994    1.98000002
   14.40027714  114.44699860    1.55999994    1.98000002
   14.40333271  102.48600006    1.55999994    1.98000002
   14.40638828  106.53800201    1.55999994    1.98000002
   14.40722179  111.43900299    1.55999994    1.98000002
   14.41027737  104.59500122    1.55999994    1.98000002
   14.41361046  106.06300354    1.55999994    1.98000002
   14.41666698  108.87200165    1.55999994    1.98000002
   14.42277813  108.87200165    1.55999994    1.98000002
   14.42694473  109.78099823    1.55999994    1.98000002
   14.43027782   96.53959656    1.55999994    1.98000002
   14.43333340  105.25399780    1.55999994    1.98000002
   14.43666649  102.76999664    1.55999994    1.98000002
   14.43972206  116.82099915    1.55999994    1.98000002
   14.44027805  108.01599884    1.55999994    1.98000002
   14.44333363  110.03500366    1.55999994    1.98000002
   14.44666672  115.83000183    1.55999994    1.98000002
   14.44972229  118.18699646    1.55999994    1.98000002
   14.45305538  111.23300171    1.55999994    1.98000002
   14.45638847  106.47100067    1.55999994    1.98000002
   14.45944405  112.34799957    1.55999994    1.98000002
   14.46555519  112.34799957    1.55999994    1.98000002
   14.46972179  104.90699768    1.55999994    1.98000002
   14.47305489  110.31500244    1.55999994    1.98000002
   14.47361088  115.08799744    1.55999994    1.98000002
   14.47666645  106.37999725    1.55999994    1.98000002
   14.47999954  107.40699768    1.55999994    1.98000002
   14.48305511  110.19799805    1.55999994    1.98000002
   14.48638916  102.17400360    1.55999994    1.98000002
   14.48972225  113.86199951    1.55999994    1.98000002
   14.49277782  107.20700073    1.55999994    1.98000002
   14.49611092  104.61100006    1.55999994    1.98000002
   14.49944496  107.26200104    1.55999994    1.98000002
   14.50249958  118.94699860    1.55999994    1.98000002
   14.50861073  118.94699860    1.55999994    1.98000002
   14.51249981  103.85099792    1.55999994    1.98000002
   14.51583290  109.01200104    1.55999994    1.98000002
   14.51916599  111.28199768    1.55999994    1.98000002
   14.52222157  110.78299713    1.55999994    1.98000002
   14.52555561  112.61699677    1.55999994    1.98000002
   14.52888870  104.66799927    1.55999994    1.98000002
   14.53222179  105.60099792    1.55999994    1.98000002
   14.53527832  111.23699951    1.55999994    1.98000002
   14.53861141  112.21499634    1.55999994    1.98000002
   14.53972244  118.46299744    1.55999994    1.98000002
   14.54222298  110.93499756    1.55999994    1.98000002
   14.54527855  101.52799988    1.55999994    1.98000002
   14.55138874  101.52799988    1.55999994    1.98000002
   14.55555534  110.31900024    1.55999994    1.98000002
   14.55861092  101.11499786    1.55999994    1.98000002
   14.56194496  105.66799927    1.55999994    1.98000002
   14.56527805   96.28299713    1.55999994    1.98000002
   14.56833363  117.63800049    1.55999994    1.98000002
   14.57166672  114.05799866    1.55999994    1.98000002
   14.57305527  113.29599762    1.55999994    1.98000002
   14.57527733  106.34400177    1.55999994    1.98000002
   14.57833290  118.45200348    1.55999994    1.98000002
   14.58166695  121.14700317    1.55999994    1.98000002
   14.58500004  115.53399658    1.55999994    1.98000002
   14.58805561  120.60399628    1.55999994    1.98000002
   14.59416676  120.60399628    1.55999994    1.98000002
   14.59833336  116.23799896    1.55999994    1.98000002
   14.60166740  107.04199982    1.55999994    1.98000002
   14.60472298  112.12100220    1.55999994    1.98000002
   14.60666752  106.51499939    1.55999994    1.98000002
   14.60833359  109.46700287    1.55999994    1.98000002
   14.61166668  104.73300171    1.55999994    1.98000002
   14.61500072  109.72499847    1.55999994    1.98000002
   14.61805534  110.07299805    1.55999994    1.98000002
   14.62138939  103.15799713    1.55999994    1.98000002
   14.62472248  110.84999847    1.55999994    1.98000002
   14.62777805  109.65899658    1.55999994    1.98000002
   14.63111115  118.02500153    1.55999994    1.98000002
   14.63694477  118.02500153    1.55999994    1.98000002
   14.64111137  105.38300323    1.55999994    1.98000002
   14.64444447  114.41400146    1.55999994    1.98000002
   14.64777756  115.78900146    1.55999994    1.98000002
   14.65083313  111.49500275    1.55999994    1.98000002
   14.65416622  113.00399780    1.55999994    1.98000002
   14.65722179  107.79799652    1.55999994    1.98000002
   14.66055489  110.94000244    1.55999994    1.98000002
   14.66388893  110.13600159    1.55999994    1.98000002
   14.66694450  101.65299988    1.55999994    1.98000002
   14.67027855  112.01699829    1.55999994    1.98000002
   14.67333412  119.78299713    1.55999994    1.98000002
   14.67388916  103.48300171    1.55999994    1.98000002
   14.68000031  103.48300171    1.55999994    1.98000002
   14.68388939  105.76100159    1.55999994    1.98000002
   14.68722248  106.94000244    1.55999994    1.98000002
   14.69055557  114.78500366    1.55999994    1.98000002
   14.69361115  106.08300018    1.55999994    1.98000002
   14.69694424  107.39099884    1.55999994    1.98000002
   14.70027733  106.32499695    1.55999994    1.98000002
   14.70333290  109.48799896    1.55999994    1.98000002
   14.70666695  111.19400024    1.55999994    1.98000002
   14.70694447  106.60900116    1.55999994    1.98000002
   14.71027756  105.61399841    1.55999994    1.98000002
   14.71361065  104.91500092    1.55999994    1.98000002
   14.71666622   95.64800262    1.55999994    1.98000002
   14.72277737   95.64800262    1.55999994    1.98000002
   14.72694397  110.47899628    1.55999994    1.98000002
   14.72999954  105.21900177    1.55999994    1.98000002
   14.73333359  108.55500031    1.55999994    1.98000002
   14.73666668  113.55400085    1.55999994    1.98000002
   14.73972225  109.49700165    1.55999994    1.98000002
   14.74027824  101.38300323    1.55999994    1.98000002
   14.84333324   -1.00000000   -1.00000000   -1.00000000
   14.93611145   -1.00000000   -1.00000000   -1.00000000
   15.07444477   -1.00000000   -1.00000000   -1.00000000
   15.17444515   -1.00000000   -1.00000000   -1.00000000
   15.20972157  107.64800262    1.55999994    1.98000002
   15.21305561  102.27899933    1.55999994    1.98000002
   15.21611118  112.28500366    1.55999994    1.98000002
   15.21944427  109.67800140    1.55999994    1.98000002
   15.22277737  109.81099701    1.55999994    1.98000002
   15.22583294   99.38469696    1.55999994    1.98000002
   15.22999954   99.38469696    1.55999994    1.98000002
   15.23416710  100.16899872    1.55999994    1.98000002
   15.23722267  108.86499786    1.55999994    1.98000002
   15.24055576  115.23000336    1.55999994    1.98000002
   15.24305534   99.39980316    1.55999994    1.98000002
   15.24416733  102.29399872    1.55999994    1.98000002
   15.24722290  109.81300354    1.55999994    1.98000002
   15.25055599  106.95400238    1.55999994    1.98000002
   15.25388908  106.87799835    1.55999994    1.98000002
   15.25694466  108.22599792    1.55999994    1.98000002
   15.26027775  112.82299805    1.55999994    1.98000002
   15.26333332  110.65599823    1.55999994    1.98000002
   15.26666641  117.27300262    1.55999994    1.98000002
   15.27277756  117.27300262    1.55999994    1.98000002
   15.27694416  115.43399811    1.55999994    1.98000002
   15.28027725  109.33699799    1.55999994    1.98000002
   15.28333378  107.91699982    1.55999994    1.98000002
   15.28666687  116.70099640    1.55999994    1.98000002
   15.29000092  108.24099731    1.55999994    1.98000002
   15.29333401  108.56099701    1.55999994    1.98000002
   15.29638958  104.90699768    1.55999994    1.98000002
   15.29972267   99.54250336    1.55999994    1.98000002
   15.30277824  109.38500214    1.55999994    1.98000002
   15.30611134  112.76499939    1.55999994    1.98000002
   15.30944443  109.64299774    1.55999994    1.98000002
   15.30972195  109.65499878    1.55999994    1.98000002
   15.31555557  109.65499878    1.55999994    1.98000002
   15.31972218  103.99400330    1.55999994    1.98000002
   15.32305527  107.76699829    1.55999994    1.98000002
   15.32638836  113.29900360    1.55999994    1.98000002
   15.32944393  108.73000336    1.55999994    1.98000002
   15.33277798  108.11299896    1.55999994    1.98000002
   15.33611107  106.16200256    1.55999994    1.98000002
   15.33916664  111.09100342    1.55999994    1.98000002
   15.34249973  107.84100342    1.55999994    1.98000002
   15.34305477  108.21099854    1.55999994    1.98000002
   15.34611034  115.85800171    1.55999994    1.98000002
   15.34944439  113.08499908    1.55999994    1.98000002
   15.35249996  105.67800140    1.55999994    1.98000002
   15.35861111  105.67800140    1.55999994    1.98000002
   15.36277771  104.00900269    1.55999994    1.98000002
   15.36583328  107.06800079    1.55999994    1.98000002
   15.36916637  104.62599945    1.55999994    1.98000002
   15.37222195  107.60399628    1.55999994    1.98000002
   15.37555599  107.14199829    1.55999994    1.98000002
   15.37638855  102.13899994    1.55999994    1.98000002
   15.37916660  102.65499878    1.55999994    1.98000002
   15.38249969  108.68699646    1.55999994    1.98000002
   15.38555527  102.13600159    1.55999994    1.98000002
   15.38888836  101.47899628    1.55999994    1.98000002
   15.39222240  105.61100006    1.55999994    1.98000002
   15.39527798  102.22699738    1.55999994    1.98000002
   15.40138817  102.22699738    1.55999994    1.98000002
   15.40555477   92.41480255    1.55999994    1.98000002
   15.40861034  104.55699921    1.55999994    1.98000002
   15.41333294  106.88600159    1.55999994    1.98000002
   15.41583252   99.50700378    1.55999994    1.98000002
   15.41916656   99.09860229    1.55999994    1.98000002
   15.42222214  107.25900269    1.55999994    1.98000002
   15.42555618  109.92700195    1.55999994    1.98000002
   15.42861176  110.11399841    1.55999994    1.98000002
   15.43194485  111.69499969    1.55999994    1.98000002
   15.43527794  104.46199799    1.55999994    1.98000002
   15.43833351  112.48200226    1.55999994    1.98000002
   15.44416714  112.48200226    1.55999994    1.98000002
   15.44833374  112.21199799    1.55999994    1.98000002
   15.45166683  110.48699951    1.55999994    1.98000002
   15.45499992  101.02200317    1.55999994    1.98000002
   15.45805550  106.06600189    1.55999994    1.98000002
   15.46138859  104.56300354    1.55999994    1.98000002
   15.46444416   98.94660187    1.55999994    1.98000002
   15.46777725  112.89299774    1.55999994    1.98000002
   15.47111034   95.34480286    1.55999994    1.98000002
   15.47416592  108.91100311    1.55999994    1.98000002
   15.47666645  108.51699829    1.55999994    1.98000002
   15.47777748  112.47100067    1.55999994    1.98000002
   15.48111057   95.68360138    1.55999994    1.98000002
   15.48694515   95.68360138    1.55999994    1.98000002
   15.49111176  108.05599976    1.55999994    1.98000002
   15.49444485  106.69400024    1.55999994    1.98000002
   15.49777794  100.47699738    1.55999994    1.98000002
   15.50083351  103.14099884    1.55999994    1.98000002
   15.50416660   99.40059662    1.55999994    1.98000002
   15.50722218  106.75499725    1.55999994    1.98000002
   15.51000023  105.86499786    1.55999994    1.98000002
   15.51083374  112.85199738    1.55999994    1.98000002
   15.51416683  114.46099854    1.55999994    1.98000002
   15.51722240  103.48699951    1.55999994    1.98000002
   15.52055550  115.73500061    1.55999994    1.98000002
   15.52388859  103.68299866    1.55999994    1.98000002
   15.52999973  103.68299866    1.55999994    1.98000002
   15.53416729  104.31800079    1.55999994    1.98000002
   15.53722286  106.79399872    1.55999994    1.98000002
   15.54055595   99.06330109    1.55999994    1.98000002
   15.54333401  102.77200317    1.55999994    1.98000002
   15.54416752   98.45619965    1.55999994    1.98000002
   15.54750061   98.90129852    1.55999994    1.98000002
   15.55055618  108.59200287    1.55999994    1.98000002
   15.55388927  101.27600098    1.55999994    1.98000002
   15.55722237   98.35849762    1.55999994    1.98000002
   15.56027794  106.85299683    1.55999994    1.98000002
   15.56361103  103.60600281    1.55999994    1.98000002
   15.56694412  105.15000153    1.55999994    1.98000002
   15.57277775  105.15000153    1.55999994    1.98000002
   15.57694435  107.04199982    1.55999994    1.98000002
   15.57999992  117.43800354    1.55999994    1.98000002
   15.58333302  101.33300018    1.55999994    1.98000002
   15.58666611  115.26999664    1.55999994    1.98000002
   15.59000015   99.67700195    1.55999994    1.98000002
   15.59305477  109.58000183    1.55999994    1.98000002
   15.59638882  103.03199768    1.55999994    1.98000002
   15.59972191  112.96900177    1.55999994    1.98000002
   15.60277843   99.94080353    1.55999994    1.98000002
   15.60611153  104.34300232    1.55999994    1.98000002
   15.60916710  106.57599640    1.55999994    1.98000002
   15.61000061  116.18800354    1.55999994    1.98000002
   15.61555576  116.18800354    1.55999994    1.98000002
   15.61972237   99.99109650    1.55999994    1.98000002
   15.62305546  106.08399963    1.55999994    1.98000002
   15.62611103  109.77200317    1.55999994    1.98000002
   15.62944412  104.27200317    1.55999994    1.98000002
   15.63277817  103.67800140    1.55999994    1.98000002
   15.63583279  100.30999756    1.55999994    1.98000002
   15.63916683  106.83100128    1.55999994    1.98000002
   15.64222240  106.84500122    1.55999994    1.98000002
   15.64333344  103.48600006    1.55999994    1.98000002
   15.64583302  103.04100037    1.55999994    1.98000002
   15.64916611  104.43099976    1.55999994    1.98000002
   15.65249920  109.76999664    1.55999994    1.98000002
   15.65833282  109.76999664    1.55999994    1.98000002
   15.66249943  102.90499878    1.55999994    1.98000002
   15.66583252  105.17099762    1.55999994    1.98000002
   15.66916656  101.34700012    1.55999994    1.98000002
   15.67222214  103.74800110    1.55999994    1.98000002
   15.67555618  101.21199799    1.55999994    1.98000002
   15.67666721   94.04730225    1.55999994    1.98000002
   15.67888927   99.85749817    1.55999994    1.98000002
   15.68222237  100.39900208    1.55999994    1.98000002
   15.68555546  100.37999725    1.55999994    1.98000002
   15.68861103  109.62899780    1.55999994    1.98000002
   15.69194412  100.99099731    1.55999994    1.98000002
   15.69499969  104.95999908    1.55999994    1.98000002
   15.70138836  104.95999908    1.55999994    1.98000002
   15.70555496  106.59700012    1.55999994    1.98000002
   15.70861053  101.58799744    1.55999994    1.98000002
   15.71000004  100.76200104    1.55999994    1.98000002
   15.71222210  104.64499664    1.55999994    1.98000002
   15.71555519  109.86100006    1.55999994    1.98000002
   15.71888828  103.40599823    1.55999994    1.98000002
   15.72194386  104.72200012    1.55999994    1.98000002
   15.72527695  101.33699799    1.55999994    1.98000002
   15.72833252  104.22799683    1.55999994    1.98000002
   15.73166656   99.65850067    1.55999994    1.98000002
   15.73500061  105.06800079    1.55999994    1.98000002
   15.73805618  100.95600128    1.55999994    1.98000002
   15.74416733  100.95600128    1.55999994    1.98000002
   15.74833393   93.95480347    1.55999994    1.98000002
   15.75166702  102.37100220    1.55999994    1.98000002
   15.75472260  102.37699890    1.55999994    1.98000002
   15.75805569  101.82099915    1.55999994    1.98000002
   15.76138878  100.90200043    1.55999994    1.98000002
   15.76444435  101.85299683    1.55999994    1.98000002
   15.76777744  106.55500031    1.55999994    1.98000002
   15.77111053   97.70429993    1.55999994    1.98000002
   15.77416611  100.35900116    1.55999994    1.98000002
   15.77666664   96.80750275    1.55999994    1.98000002
   15.77777767  102.63899994    1.55999994    1.98000002
   15.78111076  105.10800171    1.55999994    1.98000002
   15.78694534  105.10800171    1.55999994    1.98000002
   15.79111195  105.84100342    1.55999994    1.98000002
   15.79444504  104.66899872    1.55999994    1.98000002
   15.79750061  102.34999847    1.55999994    1.98000002
   15.80083370  108.66400146    1.55999994    1.98000002
   15.80416679  107.74700165    1.55999994    1.98000002
   15.80722237  105.69699860    1.55999994    1.98000002
   15.81000042  100.07299805    1.55999994    1.98000002
   15.81083393  100.14700317    1.55999994    1.98000002
   15.81416702   98.29519653    1.55999994    1.98000002
   15.81750011   99.10260010    1.55999994    1.98000002
   15.82055569  100.57199860    1.55999994    1.98000002
   15.82388878   92.32820129    1.55999994    1.98000002
   15.82972240   92.32820129    1.55999994    1.98000002
   15.83388901  104.70300293    1.55999994    1.98000002
   15.83722210   98.87789917    1.55999994    1.98000002
   15.84055519   96.13400269    1.55999994    1.98000002
   15.84333324  109.69999695    1.55999994    1.98000002
   15.84388828  101.63200378    1.55999994    1.98000002
   15.84722233   94.95960236    1.55999994    1.98000002
   15.85055637  102.06700134    1.55999994    1.98000002
   15.85361195  101.61599731    1.55999994    1.98000002
   15.85694504   99.79599762    1.55999994    1.98000002
   15.86000061  104.39700317    1.55999994    1.98000002
   15.86333370  104.39199829    1.55999994    1.98000002
   15.86666679   93.62310028    1.55999994    1.98000002
   15.87277794   93.62310028    1.55999994    1.98000002
   15.87694454  103.19699860    1.55999994    1.98000002
   15.88000011  104.26200104    1.55999994    1.98000002
   15.88333321   97.62329865    1.55999994    1.98000002
   15.88638878   98.52960205    1.55999994    1.98000002
   15.88972187   98.79299927    1.55999994    1.98000002
   15.89305496  103.33300018    1.55999994    1.98000002
   15.89611053   98.15350342    1.55999994    1.98000002
   15.89944458   98.91970062    1.55999994    1.98000002
   15.90277767  100.98300171    1.55999994    1.98000002
   15.90583324  102.92400360    1.55999994    1.98000002
   15.90916634   99.52719879    1.55999994    1.98000002
   15.90999985  102.45899963    1.55999994    1.98000002
   15.91555500  102.45899963    1.55999994    1.98000002
   15.91972256  105.93699646    1.55999994    1.98000002
   15.92277813   99.11930084    1.55999994    1.98000002
   15.92611122  102.37799835    1.55999994    1.98000002
   15.92944431  100.92500305    1.55999994    1.98000002
   15.93249989  109.36199951    1.55999994    1.98000002
   15.93583298  105.20099640    1.55999994    1.98000002
   15.93916702  104.88300323    1.55999994    1.98000002
   15.94222260  103.33000183    1.55999994    1.98000002
   15.94333363  105.29199982    1.55999994    1.98000002
   15.94916630  104.65299988    1.55999994    1.98000002
   15.95222187  100.93199921    1.55999994    1.98000002
   15.95833302  100.93199921    1.55999994    1.98000002
   15.96249962  105.14299774    1.55999994    1.98000002
   15.96583271  103.63700104    1.55999994    1.98000002
   15.96916580  106.19599915    1.55999994    1.98000002
   15.97222137  104.62000275    1.55999994    1.98000002
   15.97555542  104.67800140    1.55999994    1.98000002
   15.97666645   96.09600067    1.55999994    1.98000002
   15.97888851  100.32299805    1.55999994    1.98000002
   15.98222160  109.48699951    1.55999994    1.98000002
   15.98555565  101.54199982    1.55999994    1.98000002
   15.98861122  101.53199768    1.55999994    1.98000002
   15.99194431  106.31099701    1.55999994    1.98000002
   15.99527836  101.73000336    1.55999994    1.98000002
   16.00138855  101.73000336    1.55999994    1.98000002
   16.00555611  104.07599640    1.55999994    1.98000002
   16.00861168   97.59230042    1.55999994    1.98000002
   16.01000023  106.97299957    1.55999994    1.98000002
   16.01222229  102.11499786    1.55999994    1.98000002
   16.01555634  103.90100098    1.55999994    1.98000002
   16.01888847  101.86499786    1.55999994    1.98000002
   16.02194405  104.71900177    1.55999994    1.98000002
   16.02527809   99.71209717    1.55999994    1.98000002
   16.02861023   98.39029694    1.55999994    1.98000002
   16.03166580   98.55010223    1.55999994    1.98000002
   16.03499985   94.99829865    1.55999994    1.98000002
   16.03805542  103.62500000    1.55999994    1.98000002
   16.04416656  103.62500000    1.55999994    1.98000002
   16.04833221   95.02719879    1.55999994    1.98000002
   16.05166626   89.53929901    1.55999994    1.98000002
   16.05472183   90.97219849    1.55999994    1.98000002
   16.05805397  105.55400085    1.55999994    1.98000002
   16.06110954   88.72679901    1.55999994    1.98000002
   16.06444359   98.30829620    1.55999994    1.98000002
   16.06777954   98.52369690    1.55999994    1.98000002
   16.07083511   94.81900024    1.55999994    1.98000002
   16.07416725   91.87419891    1.55999994    1.98000002
   16.07666779   97.38629913    1.55999994    1.98000002
   16.07777786   93.84210205    1.55999994    1.98000002
   16.08111191  101.79799652    1.55999994    1.98000002
   16.08694458  101.79799652    1.55999994    1.98000002
   16.09111214   96.53060150    1.55999994    1.98000002
   16.09444427  102.67600250    1.55999994    1.98000002
   16.09749985  108.30000305    1.55999994    1.98000002
   16.10083389  100.73000336    1.55999994    1.98000002
   16.10416794  100.93099976    1.55999994    1.98000002
   16.10750008   99.47139740    1.55999994    1.98000002
   16.11000061   96.99389648    1.55999994    1.98000002
   16.11111069   94.84639740    1.55999994    1.98000002
   16.11416626   99.01820374    1.55999994    1.98000002
   16.11750031   96.68930054    1.55999994    1.98000002
   16.12055588   92.31620026    1.55999994    1.98000002
   16.12388992   96.30729675    1.55999994    1.98000002
   16.12972260   96.30729675    1.55999994    1.98000002
   16.13388824   96.06890106    1.55999994    1.98000002
   16.13722229   91.69779968    1.55999994    1.98000002
   16.14055634   92.68470001    1.55999994    1.98000002
   16.14333344   97.44309998    1.55999994    1.98000002
   16.14416695   94.81939697    1.55999994    1.98000002
   16.14722252   96.27269745    1.55999994    1.98000002
   16.15055466   92.32710266    1.55999994    1.98000002
   16.15361023   99.61650085    1.55999994    1.98000002
   16.15694427   94.98120117    1.55999994    1.98000002
   16.16027832   92.26899719    1.55999994    1.98000002
   16.16333389   98.05719757    1.55999994    1.98000002
   16.16666603   98.42489624    1.55999994    1.98000002
   16.17277718   98.42489624    1.55999994    1.98000002
   16.17694473   99.09839630    1.55999994    1.98000002
   16.18000031   89.90599823    1.55999994    1.98000002
   16.18333244   93.68509674    1.55999994    1.98000002
   16.18638802   89.81800079    1.55999994    1.98000002
   16.18972206   97.52639771    1.55999994    1.98000002
   16.19305420   98.39839935    1.55999994    1.98000002
   16.19638824   94.95400238    1.55999994    1.98000002
   16.19944382   87.70020294    1.55999994    1.98000002
   16.20277786   91.13130188    1.55999994    1.98000002
   16.20611191  100.35500336    1.55999994    1.98000002
   16.20916748   89.96569824    1.55999994    1.98000002
   16.21000099   87.47650146    1.55999994    1.98000002
   16.23055649   87.47650146    1.55999994    1.98000002
   16.23472214   89.57260132    1.55999994    1.98000002
   16.23805618   94.66290283    1.55999994    1.98000002
   16.24111176   98.45719910    1.55999994    1.98000002
   16.24333382   94.14800262    1.55999994    1.98000002
   16.24500084   96.85410309    1.55999994    1.98000002
   16.24805641   90.94589996    1.55999994    1.98000002
   16.25138855   91.55390167    1.55999994    1.98000002
   16.25472260  102.68000031    1.55999994    1.98000002
   16.25777817   96.53150177    1.55999994    1.98000002
   16.26111031   88.92819977    1.55999994    1.98000002
   16.26416588   91.56980133    1.55999994    1.98000002
   16.26749992   94.50450134    1.55999994    1.98000002
   16.27333260   94.50450134    1.55999994    1.98000002
   16.27750015   96.62770081    1.55999994    1.98000002
   16.28055573   86.15699768    1.55999994    1.98000002
   16.28388786  101.47200012    1.55999994    1.98000002
   16.28722191   91.96379852    1.55999994    1.98000002
   16.29027748   93.19480133    1.55999994    1.98000002
   16.29361153   92.89469910    1.55999994    1.98000002
   16.29694366  103.09500122    1.55999994    1.98000002
   16.29999924   95.41529846    1.55999994    1.98000002
   16.30333328   86.98359680    1.55999994    1.98000002
   16.30638885   93.09719849    1.55999994    1.98000002
   16.30972099   89.66179657    1.55999994    1.98000002
   16.31027794   90.99909973    1.55999994    1.98000002
   16.31611061   90.99909973    1.55999994    1.98000002
   16.32027817   94.26699829    1.55999994    1.98000002
   16.32361221   95.78919983    1.55999994    1.98000002
   16.32666779   96.87079620    1.55999994    1.98000002
   16.33000183   97.94699860    1.55999994    1.98000002
   16.33333397   92.56950378    1.55999994    1.98000002
   16.33638954   91.28389740    1.55999994    1.98000002
   16.33972359   98.87960052    1.55999994    1.98000002
   16.34277916  101.91799927    1.55999994    1.98000002
   16.34361267   94.09680176    1.55999994    1.98000002
   16.34638977   92.11219788    1.55999994    1.98000002
   16.34972191  101.47899628    1.55999994    1.98000002
   16.35305595   90.76709747    1.55999994    1.98000002
   16.35888863   90.76709747    1.55999994    1.98000002
   16.36305618   93.59780121    1.55999994    1.98000002
   16.36638832   93.73860168    1.55999994    1.98000002
   16.36972237   96.67179871    1.55999994    1.98000002
   16.37277794   99.54160309    1.55999994    1.98000002
   16.37611198   98.97119904    1.55999994    1.98000002
   16.37694550   98.73519897    1.55999994    1.98000002
   16.37944412   97.06179810    1.55999994    1.98000002
   16.38277817   92.16259766    1.55999994    1.98000002
   16.38611031   96.31960297    1.55999994    1.98000002
   16.38916588   92.76200104    1.55999994    1.98000002
   16.39249992   97.31809998    1.55999994    1.98000002
   16.39583397  101.68900299    1.55999994    1.98000002
   16.40194321  101.68900299    1.55999994    1.98000002
   16.40611076   91.40679932    1.55999994    1.98000002
   16.40916634   98.30529785    1.55999994    1.98000002
   16.41027832   95.09850311    1.55999994    1.98000002
   16.41305542   98.05310059    1.55999994    1.98000002
   16.41611099  102.54900360    1.55999994    1.98000002
   16.41944313   93.42489624    1.55999994    1.98000002
   16.42249870   99.32299805    1.55999994    1.98000002
   16.42583275  100.08699799    1.55999994    1.98000002
   16.42916679   96.10549927    1.55999994    1.98000002
   16.43222237   92.69400024    1.55999994    1.98000002
   16.43555450   93.06500244    1.55999994    1.98000002
   16.44333267  105.44400024    1.55999994    1.98000002
   16.44749832  105.44400024    1.55999994    1.98000002
   16.45166779   93.48600006    1.55999994    1.98000002
   16.45499992   91.76490021    1.55999994    1.98000002
   16.45805550   90.70919800    1.55999994    1.98000002
   16.46138954   98.22859955    1.55999994    1.98000002
   16.46472359   88.78710175    1.55999994    1.98000002
   16.46805573   95.35780334    1.55999994    1.98000002
   16.47111130   96.46759796    1.55999994    1.98000002
   16.47444534   94.12249756    1.55999994    1.98000002
   16.47777748   97.15560150    1.55999994    1.98000002
   16.47833443   97.33350372    1.55999994    1.98000002
   16.48111153  102.12799835    1.55999994    1.98000002
   16.48444557   97.25810242    1.55999994    1.98000002
   16.49027824   97.25810242    1.55999994    1.98000002
   16.49444389   92.23819733    1.55999994    1.98000002
   16.49777794   94.23390198    1.55999994    1.98000002
   16.50111198   98.04489899    1.55999994    1.98000002
   16.50416756  105.05400085    1.55999994    1.98000002
   16.50749969   86.93849945    1.55999994    1.98000002
   16.51055527  100.10399628    1.55999994    1.98000002
   16.51166725   94.37640381    1.55999994    1.98000002
   16.51416588   94.02860260    1.55999994    1.98000002
   16.51749992   95.46659851    1.55999994    1.98000002
   16.52055550   89.66690063    1.55999994    1.98000002
   16.52388954   90.87830353    1.55999994    1.98000002
   16.52722168   98.26889801    1.55999994    1.98000002
   16.53333282   98.26889801    1.55999994    1.98000002
   16.53750038   91.26740265    1.55999994    1.98000002
   16.54055595   96.35600281    1.55999994    1.98000002
   16.54388809   91.17250061    1.55999994    1.98000002
   16.54527664   95.19850159    1.55999994    1.98000002
   16.54749870   94.70200348    1.55999994    1.98000002
   16.55083275   93.92089844    1.55999994    1.98000002
   16.55388832   97.22720337    1.55999994    1.98000002
   16.55722237   98.56349945    1.55999994    1.98000002
   16.56055450   91.20780182    1.55999994    1.98000002
   16.56361008   96.75099945    1.55999994    1.98000002
   16.56694603   93.02649689    1.55999994    1.98000002
   16.57027817   96.09040070    1.55999994    1.98000002
   16.57611275   96.09040070    1.55999994    1.98000002
   16.58027840   95.75209808    1.55999994    1.98000002
   16.58333397   95.56770325    1.55999994    1.98000002
   16.58666801   94.19460297    1.55999994    1.98000002
   16.59000015  102.77799988    1.55999994    1.98000002
   16.59305573   98.13169861    1.55999994    1.98000002
   16.59638977   98.80069733    1.55999994    1.98000002
   16.59972191  105.90399933    1.55999994    1.98000002
   16.60277748   95.04540253    1.55999994    1.98000002
   16.60611153   94.92800140    1.55999994    1.98000002
   16.60944557   90.83489990    1.55999994    1.98000002
   16.61194420   97.41670227    1.55999994    1.98000002
   16.61305618   97.74019623    1.55999994    1.98000002
   16.61888885   97.74019623    1.55999994    1.98000002
   16.62305641  101.86299896    1.55999994    1.98000002
   16.62638855   98.56520081    1.55999994    1.98000002
   16.62944412  103.23000336    1.55999994    1.98000002
   16.63277817   92.70020294    1.55999994    1.98000002
   16.63611031   96.20529938    1.55999994    1.98000002
   16.63916588   89.94210052    1.55999994    1.98000002
   16.64249992   91.26110077    1.55999994    1.98000002
   16.64527702   98.40650177    1.55999994    1.98000002
   16.64611053   89.63249969    1.55999994    1.98000002
   16.64916611  100.08200073    1.55999994    1.98000002
   16.65250015   95.96730042    1.55999994    1.98000002
   16.65583229   95.15720367    1.55999994    1.98000002
   16.66166687   95.15720367    1.55999994    1.98000002
   16.66583252   95.61530304    1.55999994    1.98000002
   16.66916656  100.95099640    1.55999994    1.98000002
   16.67249870  103.23000336    1.55999994    1.98000002
   16.67555428  100.28199768    1.55999994    1.98000002
   16.67860985   91.60060120    1.55999994    1.98000002
   16.67916679  103.12500000    1.55999994    1.98000002
   16.68249893  100.04299927    1.55999994    1.98000002
   16.68555450   89.75260162    1.55999994    1.98000002
   16.68888855   90.80190277    1.55999994    1.98000002
   16.69194412   88.94699860    1.55999994    1.98000002
   16.69527626   88.86940002    1.55999994    1.98000002
   16.69861031   95.89379883    1.55999994    1.98000002
   16.70472336   95.89379883    1.55999994    1.98000002
   16.70888901   90.23819733    1.55999994    1.98000002
   16.71194458   93.80989838    1.55999994    1.98000002
   16.71250153   97.25080109    1.55999994    1.98000002
   16.71583366   95.43009949    1.55999994    1.98000002
   16.71888924   94.68129730    1.55999994    1.98000002
   16.72222328   95.71430206    1.55999994    1.98000002
   16.72555542   96.07479858    1.55999994    1.98000002
   16.72861099  104.57700348    1.55999994    1.98000002
   16.73194504  101.57299805    1.55999994    1.98000002
   16.73500061   97.74849701    1.55999994    1.98000002
   16.73833275  101.23799896    1.55999994    1.98000002
   16.74166679   92.30359650    1.55999994    1.98000002
   16.74749947   92.30359650    1.55999994    1.98000002
   16.75166702   95.90480042    1.55999994    1.98000002
   16.75499916   96.37120056    1.55999994    1.98000002
   16.75805473   98.30159760    1.55999994    1.98000002
   16.76138878   92.17649841    1.55999994    1.98000002
   16.76444435   97.96440125    1.55999994    1.98000002
   16.76777840   97.59300232    1.55999994    1.98000002
   16.77111053   96.85820007    1.55999994    1.98000002
   16.77416611   89.19750214    1.55999994    1.98000002
   16.77750015   95.69860077    1.55999994    1.98000002
   16.77888870   95.68499756    1.55999994    1.98000002
   16.78111076   97.09880066    1.55999994    1.98000002
   16.78444481   96.30370331    1.55999994    1.98000002
   16.79027748   96.30370331    1.55999994    1.98000002
   16.79444313  100.10800171    1.55999994    1.98000002
   16.79777718   95.30410004    1.55999994    1.98000002
   16.80111122   96.14040375    1.55999994    1.98000002
   16.80416679   95.92369843    1.55999994    1.98000002
   16.80749893   97.27950287    1.55999994    1.98000002
   16.81055450  103.01200104    1.55999994    1.98000002
   16.81222153   89.03919983    1.55999994    1.98000002
   16.81416512   92.56970215    1.55999994    1.98000002
   16.81750107   91.40399933    1.55999994    1.98000002
   16.82055664   98.85160065    1.55999994    1.98000002
   16.82389069   96.92890167    1.55999994    1.98000002
   16.82722282  101.66300201    1.55999994    1.98000002
   16.83305550  101.66300201    1.55999994    1.98000002
   16.83722305   99.44029999    1.55999994    1.98000002
   16.84055710   94.06009674    1.55999994    1.98000002
   16.84388924   98.83740234    1.55999994    1.98000002
   16.84555626   93.95189667    1.55999994    1.98000002
   16.84749985   94.59380341    1.55999994    1.98000002
   16.85083389   93.01989746    1.55999994    1.98000002
   16.85388947  100.68900299    1.55999994    1.98000002
   16.85722351   93.73290253    1.55999994    1.98000002
   16.86027908  100.79900360    1.55999994    1.98000002
   16.86361122   95.36270142    1.55999994    1.98000002
   16.86694527   95.44699860    1.55999994    1.98000002
   16.87000084   95.89679718    1.55999994    1.98000002
   16.87611198   95.89679718    1.55999994    1.98000002
   16.88027763   91.86799622    1.55999994    1.98000002
   16.88333321   95.63719940    1.55999994    1.98000002
   16.88666725   99.84049988    1.55999994    1.98000002
   16.88972282   98.04679871    1.55999994    1.98000002
   16.89305496   97.70749664    1.55999994    1.98000002
   16.89638901   97.42440033    1.55999994    1.98000002
   16.89944458  100.00800323    1.55999994    1.98000002
   16.90277672   99.41719818    1.55999994    1.98000002
   16.90583229   95.90820313    1.55999994    1.98000002
   16.90916634   96.05989838    1.55999994    1.98000002
   16.91222191   91.70510101    1.55999994    1.98000002
   16.91277695   97.59500122    1.55999994    1.98000002
   16.91888809   97.59500122    1.55999994    1.98000002
   16.92305565   96.26409912    1.55999994    1.98000002
   16.92611122  105.84600067    1.55999994    1.98000002
   16.92944336   96.30889893    1.55999994    1.98000002
   16.93277740  110.43399811    1.55999994    1.98000002
   16.93583298   97.51319885    1.55999994    1.98000002
   16.93916512  102.41500092    1.55999994    1.98000002
   16.94249916   99.98149872    1.55999994    1.98000002
   16.94555473  106.83200073    1.55999994    1.98000002
   16.94610977  105.30500031    1.55999994    1.98000002
   16.94916534   94.25250244    1.55999994    1.98000002
   16.95250130  100.88300323    1.55999994    1.98000002
   16.95583344  103.26100159    1.55999994    1.98000002
   16.96166801  103.26100159    1.55999994    1.98000002
   16.96583366  101.06099701    1.55999994    1.98000002
   16.96916771  100.44400024    1.55999994    1.98000002
   16.97222328  100.17700195    1.55999994    1.98000002
   16.97555542   96.54209900    1.55999994    1.98000002
   16.97861099  101.56800079    1.55999994    1.98000002
   16.97916794  100.46700287    1.55999994    1.98000002
   16.98250008   94.73509979    1.55999994    1.98000002
   16.98555565  100.11799622    1.55999994    1.98000002
   16.98888969  104.85299683    1.55999994    1.98000002
   16.99222183   97.61219788    1.55999994    1.98000002
   16.99527740  105.93800354    1.55999994    1.98000002
   16.99861145   96.01190186    1.55999994    1.98000002
   17.00444412   96.01190186    1.55999994    1.98000002
   17.00861168  107.97399902    1.55999994    1.98000002
   17.01194382   99.31980133    1.55999994    1.98000002
   17.01250076   94.80960083    1.55999994    1.98000002
   17.01555634  102.57099915    1.55999994    1.98000002
   17.01888847   91.06289673    1.55999994    1.98000002
   17.02194405   98.66629791    1.55999994    1.98000002
   17.02527809  103.91999817    1.55999994    1.98000002
   17.02861023   98.08609772    1.55999994    1.98000002
   17.03166580  101.63899994    1.55999994    1.98000002
   17.03499985   96.14710236    1.55999994    1.98000002
   17.03805542  101.76999664    1.55999994    1.98000002
   17.04138756  101.69400024    1.55999994    1.98000002
   17.04749870  101.69400024    1.55999994    1.98000002
   17.05138779  102.71299744    1.55999994    1.98000002
   17.05472183  102.12400055    1.55999994    1.98000002
   17.05805397   97.63520050    1.55999994    1.98000002
   17.06138802   98.88179779    1.55999994    1.98000002
   17.06444359  103.22699738    1.55999994    1.98000002
   17.06777954   98.70279694    1.55999994    1.98000002
   17.07083511  100.91200256    1.55999994    1.98000002
   17.07416725   98.56770325    1.55999994    1.98000002
   17.07750130   98.04389954    1.55999994    1.98000002
   17.07916832   97.11869812    1.55999994    1.98000002
   17.08111191  103.06900024    1.55999994    1.98000002
   17.08444595   98.61889648    1.55999994    1.98000002
   17.09027863   98.61889648    1.55999994    1.98000002
   17.09444427  100.66699982    1.55999994    1.98000002
   17.09749985   99.00759888    1.55999994    1.98000002
   17.10083389  102.78099823    1.55999994    1.98000002
   17.10416794  102.41999817    1.55999994    1.98000002
   17.10722351  103.48400116    1.55999994    1.98000002
   17.11055565  101.48999786    1.55999994    1.98000002
   17.11250114   95.22239685    1.55999994    1.98000002
   17.11416626   95.15489960    1.55999994    1.98000002
   17.11750031   95.06900024    1.55999994    1.98000002
   17.12055588   96.23970032    1.55999994    1.98000002
   17.12388992  103.66999817    1.55999994    1.98000002
   17.12722206  101.39299774    1.55999994    1.98000002
   17.13305473  101.39299774    1.55999994    1.98000002
   17.13722229   96.06379700    1.55999994    1.98000002
   17.14055634   96.39019775    1.55999994    1.98000002
   17.14361191  102.15200043    1.55999994    1.98000002
   17.14583397   99.60449982    1.55999994    1.98000002
   17.14722252  101.34100342    1.55999994    1.98000002
   17.15055466   98.06759644    1.55999994    1.98000002
   17.15361023   99.94960022    1.55999994    1.98000002
   17.15694427  104.86000061    1.55999994    1.98000002
   17.16027832  100.53900146    1.55999994    1.98000002
   17.16333389  104.40899658    1.55999994    1.98000002
   17.16666603  106.12100220    1.55999994    1.98000002
   17.17000008   97.81739807    1.55999994    1.98000002
   17.17583275   97.81739807    1.55999994    1.98000002
   17.18000031   99.28589630    1.55999994    1.98000002
   17.18333244   94.65540314    1.55999994    1.98000002
   17.18638802   94.54100037    1.55999994    1.98000002
   17.18972206   91.76789856    1.55999994    1.98000002
   17.19305420  100.57700348    1.55999994    1.98000002
   17.19610977   95.06590271    1.55999994    1.98000002
   17.19944382  100.98600006    1.55999994    1.98000002
   17.20277786  101.29799652    1.55999994    1.98000002
   17.20583344   94.01360321    1.55999994    1.98000002
   17.20916748   96.22799683    1.55999994    1.98000002
   17.21222305   96.83889771    1.55999994    1.98000002
   17.21277809  100.00900269    1.55999994    1.98000002
   17.21888924  100.00900269    1.55999994    1.98000002
   17.22305679   96.74250031    1.55999994    1.98000002
   17.22611237   93.86640167    1.55999994    1.98000002
   17.24583435   98.17189789    1.55999994    1.98000002
   17.24638939  100.98899841    1.55999994    1.98000002
   17.24944496   99.28269958    1.55999994    1.98000002
   17.25277710  102.21800232    1.55999994    1.98000002
   17.25583267  104.15799713    1.55999994    1.98000002
   17.26166725  104.15799713    1.55999994    1.98000002
   17.26583290  102.62999725    1.55999994    1.98000002
   17.26888847  104.80599976    1.55999994    1.98000002
   17.27222252  101.83599854    1.55999994    1.98000002
   17.27555466  100.43499756    1.55999994    1.98000002
   17.27861023  102.59700012    1.55999994    1.98000002
   17.27972221  105.48799896    1.55999994    1.98000002
   17.28222275  103.09999847    1.55999994    1.98000002
   17.28610992  101.15200043    1.55999994    1.98000002
   17.28944397  104.00499725    1.55999994    1.98000002
   17.29277802   95.52010345    1.55999994    1.98000002
   17.29583359   96.33969879    1.55999994    1.98000002
   17.29916573   97.77239990    1.55999994    1.98000002
   17.30444336   97.77239990    1.55999994    1.98000002
   17.30861092   94.70950317    1.55999994    1.98000002
   17.31194305  103.43599701    1.55999994    1.98000002
   17.31305504  101.08000183    1.55999994    1.98000002
   17.31555557  104.19200134    1.55999994    1.98000002
   17.31861115  101.98799896    1.55999994    1.98000002
   17.32194519   93.40170288    1.55999994    1.98000002
   17.32527924   99.99089813    1.55999994    1.98000002
   17.32833481  103.35900116    1.55999994    1.98000002
   17.33166695   94.62259674    1.55999994    1.98000002
   17.33500099  101.84999847    1.55999994    1.98000002
   17.33805656   99.48840332    1.55999994    1.98000002
   17.34138870   99.66580200    1.55999994    1.98000002
   17.34749985   99.66580200    1.55999994    1.98000002
   17.35138893  100.68399811    1.55999994    1.98000002
   17.35472298   99.91120148    1.55999994    1.98000002
   17.35805511  104.69599915    1.55999994    1.98000002
   17.36111069  102.42299652    1.55999994    1.98000002
   17.36444473   94.88639832    1.55999994    1.98000002
   17.36750031   98.61000061    1.55999994    1.98000002
   17.37083435  100.00800323    1.55999994    1.98000002
   17.37416649  104.34300232    1.55999994    1.98000002
   17.37722206  102.76799774    1.55999994    1.98000002
   17.37972260  107.29299927    1.55999994    1.98000002
   17.38083267  101.62500000    1.55999994    1.98000002
   17.38416672   97.37380219    1.55999994    1.98000002
   17.39027786   97.37380219    1.55999994    1.98000002
   17.39444351  101.70899963    1.55999994    1.98000002
   17.39749908   99.87750244    1.55999994    1.98000002
   17.40083313   97.46880341    1.55999994    1.98000002
   17.40388870   99.11740112    1.55999994    1.98000002
   17.40722275   99.32360077    1.55999994    1.98000002
   17.41055489   98.08809662    1.55999994    1.98000002
   17.41305542  101.12200165    1.55999994    1.98000002
   17.41416550  105.26799774    1.55999994    1.98000002
   17.41749954   98.95429993    1.55999994    1.98000002
   17.42055511   96.33940125    1.55999994    1.98000002
   17.42388916   98.80220032    1.55999994    1.98000002
   17.42722130  104.09799957    1.55999994    1.98000002
   17.43305397  104.09799957    1.55999994    1.98000002
   17.43722153   95.76210022    1.55999994    1.98000002
   17.44027710   94.34290314    1.55999994    1.98000002
   17.44361115   89.72730255    1.55999994    1.98000002
   17.44638824   93.49359894    1.55999994    1.98000002
   17.44722176  100.78299713    1.55999994    1.98000002
   17.45027924   95.17749786    1.55999994    1.98000002
   17.45361137   93.36669922    1.55999994    1.98000002
   17.45694542   97.79080200    1.55999994    1.98000002
   17.46000099  103.65799713    1.55999994    1.98000002
   17.46333504   90.16280365    1.55999994    1.98000002
   17.46666718   93.79149628    1.55999994    1.98000002
   17.46972275   97.58640289    1.55999994    1.98000002
   17.47583389   97.58640289    1.55999994    1.98000002
   17.48000145   96.24900055    1.55999994    1.98000002
   17.48333359   94.58670044    1.55999994    1.98000002
   17.48638916  101.42500305    1.55999994    1.98000002
   17.48972321  101.64700317    1.55999994    1.98000002
   17.49305534  100.58100128    1.55999994    1.98000002
   17.49638939   94.83039856    1.55999994    1.98000002
   17.49944496   92.84010315    1.55999994    1.98000002
   17.50277710   92.58769989    1.55999994    1.98000002
   17.50583267   93.07420349    1.55999994    1.98000002
   17.50916672  100.36100006    1.55999994    1.98000002
   17.51250076   96.81890106    1.55999994    1.98000002
   17.51305580   98.40270233    1.55999994    1.98000002
   17.51861000   98.40270233    1.55999994    1.98000002
   17.52277756   93.94999695    1.55999994    1.98000002
   17.52611160   94.18499756    1.55999994    1.98000002
   17.52944374   91.50270081    1.55999994    1.98000002
   17.53249931   98.13719940    1.55999994    1.98000002
   17.53583336   93.12709808    1.55999994    1.98000002
   17.53888893   91.63420105    1.55999994    1.98000002
   17.54222107   93.73139954    1.55999994    1.98000002
   17.54555511   94.24330139    1.55999994    1.98000002
   17.54638863   92.28669739    1.55999994    1.98000002
   17.54916573   95.07579803    1.55999994    1.98000002
   17.55249977   96.42769623    1.55999994    1.98000002
   17.55555534   86.57849884    1.55999994    1.98000002
   17.56166649   86.57849884    1.55999994    1.98000002
   17.56583214  100.07399750    1.55999994    1.98000002
   17.56888962   96.68939972    1.55999994    1.98000002
   17.57222366   91.38420105    1.55999994    1.98000002
   17.57555580   94.64550018    1.55999994    1.98000002
   17.57861137   99.87519836    1.55999994    1.98000002
   17.57972336   94.59400177    1.55999994    1.98000002
   17.58222389   96.70480347    1.55999994    1.98000002
   17.58555603  103.40699768    1.55999994    1.98000002
   17.58889008   95.04180145    1.55999994    1.98000002
   17.59194565   95.64749908    1.55999994    1.98000002
   17.59527779   98.18280029    1.55999994    1.98000002
   17.59861183   95.46700287    1.55999994    1.98000002
   17.60444450   95.46700287    1.55999994    1.98000002
   17.60861206   89.49960327    1.55999994    1.98000002
   17.61166763   88.41609955    1.55999994    1.98000002
   17.61305618   93.92279816    1.55999994    1.98000002
   17.61527824   91.58820343    1.55999994    1.98000002
   17.61861038   97.64679718    1.55999994    1.98000002
   17.62166595   90.39640045    1.55999994    1.98000002
   17.62500000   90.44380188    1.55999994    1.98000002
   17.62833405   97.11360168    1.55999994    1.98000002
   17.63138962   93.45189667    1.55999994    1.98000002
   17.63472176   94.10500336    1.55999994    1.98000002
   17.63805580   94.41809845    1.55999994    1.98000002
   17.64111137   89.44599915    1.55999994    1.98000002
   17.64722252   89.44599915    1.55999994    1.98000002
   17.65138817   92.29989624    1.55999994    1.98000002
   17.65472221   90.86239624    1.55999994    1.98000002
   17.65777779   93.34980011    1.55999994    1.98000002
   17.66110992   90.73829651    1.55999994    1.98000002
   17.66444397   95.82839966    1.55999994    1.98000002
   17.66749954   92.33360291    1.55999994    1.98000002
   17.67083359   93.00530243    1.55999994    1.98000002
   17.67416573   93.06269836    1.55999994    1.98000002
   17.67722130   93.41000366    1.55999994    1.98000002
   17.67972183   99.12689972    1.55999994    1.98000002
   17.68083191   87.92900085    1.55999994    1.98000002
   17.68416595   91.00160217    1.55999994    1.98000002
   17.69027710   91.00160217    1.55999994    1.98000002
   17.69416618   86.44120026    1.55999994    1.98000002
   17.69749832   95.81600189    1.55999994    1.98000002
   17.70083427   97.85839844    1.55999994    1.98000002
   17.70388985   96.77899933    1.55999994    1.98000002
   17.70722389   88.38069916    1.55999994    1.98000002
   17.71027946   93.11910248    1.55999994    1.98000002
   17.71333504   97.82920074    1.55999994    1.98000002
   17.71389008  103.58399963    1.55999994    1.98000002
   17.71722221   90.14630127    1.55999994    1.98000002
   17.72027779   99.97599792    1.55999994    1.98000002
   17.72361183   97.15930176    1.55999994    1.98000002
   17.72694588   91.12149811    1.55999994    1.98000002
   17.73305511   91.12149811    1.55999994    1.98000002
   17.73722267   91.25550079    1.55999994    1.98000002
   17.74027824  103.78900146    1.55999994    1.98000002
   17.74361229   99.33930206    1.55999994    1.98000002
   17.74666786   98.12770081    1.55999994    1.98000002
   17.74722290   96.83470154    1.55999994    1.98000002
   17.75055504   99.73000336    1.55999994    1.98000002
   17.75361061  102.04499817    1.55999994    1.98000002
   17.75694466  102.20700073    1.55999994    1.98000002
   17.76027870   95.24939728    1.55999994    1.98000002
   17.76333427   99.65409851    1.55999994    1.98000002
   17.76666641   96.63939667    1.55999994    1.98000002
   17.76972198  102.33300018    1.55999994    1.98000002
   17.77583313  102.33300018    1.55999994    1.98000002
   17.78027725  102.87400055    1.55999994    1.98000002
   17.78361130  103.98699951    1.55999994    1.98000002
   17.78666687   94.93859863    1.55999994    1.98000002
   17.78999901   96.91709900    1.55999994    1.98000002
   17.79333305   93.85410309    1.55999994    1.98000002
   17.79638863   97.08480072    1.55999994    1.98000002
   17.79972076   90.46369934    1.55999994    1.98000002
   17.80277634   97.72940063    1.55999994    1.98000002
   17.80611038   95.51239777    1.55999994    1.98000002
   17.80944443   93.78410339    1.55999994    1.98000002
   17.81250000   95.08650208    1.55999994    1.98000002
   17.81305504   92.68810272    1.55999994    1.98000002
   17.81861115   92.68810272    1.55999994    1.98000002
   17.82277870   99.21150208    1.55999994    1.98000002
   17.82611275  106.61399841    1.55999994    1.98000002
   17.82916832   91.15670013    1.55999994    1.98000002
   17.83250046   93.49340057    1.55999994    1.98000002
   17.83583450   89.80130005    1.55999994    1.98000002
   17.83889008   82.58529663    1.55999994    1.98000002
   17.84222221   89.26249695    1.55999994    1.98000002
   17.84555626   95.81849670    1.55999994    1.98000002
   17.84638977   84.89910126    1.55999994    1.98000002
   17.84889030   92.31479645    1.55999994    1.98000002
   17.85222244   95.31690216    1.55999994    1.98000002
   17.85527802   92.71440125    1.55999994    1.98000002
   17.86138916   92.71440125    1.55999994    1.98000002
   17.86555672   89.26869965    1.55999994    1.98000002
   17.86888885   83.07070160    1.55999994    1.98000002
   17.87222290   87.12750244    1.55999994    1.98000002
   17.87527847   90.54550171    1.55999994    1.98000002
   17.87861061   94.75540161    1.55999994    1.98000002
   17.87972260   94.41780090    1.55999994    1.98000002
   17.88222313   88.64929962    1.55999994    1.98000002
   17.88555527   95.12670135    1.55999994    1.98000002
   17.88861084   96.35859680    1.55999994    1.98000002
   17.89194489   88.72669983    1.55999994    1.98000002
   17.89527702   90.38629913    1.55999994    1.98000002
   17.89833260   95.29679871    1.55999994    1.98000002
   17.90444374   95.29679871    1.55999994    1.98000002
   17.90861130   91.23899841    1.55999994    1.98000002
   17.91166687   92.01640320    1.55999994    1.98000002
   17.91333389   92.60489655    1.55999994    1.98000002
   17.91527748   85.69280243    1.55999994    1.98000002
   17.91860962   86.96009827    1.55999994    1.98000002
   17.92194366   90.39089966    1.55999994    1.98000002
   17.92499924   93.16799927    1.55999994    1.98000002
   17.92833328   90.21119690    1.55999994    1.98000002
   17.93166542   96.50630188    1.55999994    1.98000002
   17.93472099   88.70749664    1.55999994    1.98000002
   17.93805504   91.64790344    1.55999994    1.98000002
   17.94111061   96.74690247    1.55999994    1.98000002
   17.94722176   96.74690247    1.55999994    1.98000002
   17.95138931   95.37709808    1.55999994    1.98000002
   17.95472336   99.98729706    1.55999994    1.98000002
   17.95777893   95.61019897    1.55999994    1.98000002
   17.96111107   97.47850037    1.55999994    1.98000002
   17.96416664   81.79550171    1.55999994    1.98000002
   17.96750069   98.90879822    1.55999994    1.98000002
   17.97083473   99.41609955    1.55999994    1.98000002
   17.97389030  102.18800354    1.55999994    1.98000002
   17.97722244   91.79080200    1.55999994    1.98000002
   17.98000145   86.40409851    1.55999994    1.98000002
   17.98083305   87.73580170    1.55999994    1.98000002
   17.98416710   96.78450012    1.55999994    1.98000002
   17.98999977   96.78450012    1.55999994    1.98000002
   17.99416733   91.85919952    1.55999994    1.98000002
   17.99749947   92.55030060    1.55999994    1.98000002
   18.00055504   93.04769897    1.55999994    1.98000002
   18.00388908   91.12619781    1.55999994    1.98000002
   18.00722313   91.65360260    1.55999994    1.98000002
   18.01027870   88.06770325    1.55999994    1.98000002
   18.01333427   95.23100281    1.55999994    1.98000002
   18.01388931   93.80410004    1.55999994    1.98000002
   18.01722145   92.27349854    1.55999994    1.98000002
   18.02055550   88.58689880    1.55999994    1.98000002
   18.02361107   95.22499847    1.55999994    1.98000002
   18.02694511   94.44290161    1.55999994    1.98000002
   18.03277779   94.44290161    1.55999994    1.98000002
   18.03694344   91.24539948    1.55999994    1.98000002
   18.04027748   95.45300293    1.55999994    1.98000002
   18.04361153   93.12449646    1.55999994    1.98000002
   18.04666710  100.13300323    1.55999994    1.98000002
   18.04694366   92.46099854    1.55999994    1.98000002
   18.05027771   88.24729919    1.55999994    1.98000002
   18.05360985   89.20899963    1.55999994    1.98000002
   18.05666542   90.05729675    1.55999994    1.98000002
   18.05999947   90.67700195    1.55999994    1.98000002
   18.06305504   85.72429657    1.55999994    1.98000002
   18.06638718   87.33339691    1.55999994    1.98000002
   18.06972313   86.72100067    1.55999994    1.98000002
   18.07583427   86.72100067    1.55999994    1.98000002
   18.08000183   89.77929688    1.55999994    1.98000002
   18.08027840   87.80680084    1.55999994    1.98000002
   18.08361244   90.08509827    1.55999994    1.98000002
   18.08694458   94.27880096    1.55999994    1.98000002
   18.09000015   95.09159851    1.55999994    1.98000002
   18.09333420   90.99069977    1.55999994    1.98000002
   18.09638977   90.28060150    1.55999994    1.98000002
   18.09972191   88.07900238    1.55999994    1.98000002
   18.10305595   84.00569916    1.55999994    1.98000002
   18.10611153   88.91290283    1.55999994    1.98000002
   18.10944557   87.07620239    1.55999994    1.98000002
   18.11277771   88.38130188    1.55999994    1.98000002
   18.11333466   83.97810364    1.55999994    1.98000002
   18.11861038   83.97810364    1.55999994    1.98000002
   18.12277794   92.36139679    1.55999994    1.98000002
   18.12583351   93.88110352    1.55999994    1.98000002
   18.12916756   89.35130310    1.55999994    1.98000002
   18.13249969   90.97450256    1.55999994    1.98000002
   18.13555527   86.47899628    1.55999994    1.98000002
   18.13888931   87.66539764    1.55999994    1.98000002
   18.14222145   91.43389893    1.55999994    1.98000002
   18.14527702   83.70510101    1.55999994    1.98000002
   18.14666748   88.72389984    1.55999994    1.98000002
   18.14888954   85.87979889    1.55999994    1.98000002
   18.15222168   85.56030273    1.55999994    1.98000002
   18.15555573   92.06289673    1.55999994    1.98000002
   18.16138840   92.06289673    1.55999994    1.98000002
   18.16555595   92.81749725    1.55999994    1.98000002
   18.16888809   90.96209717    1.55999994    1.98000002
   18.17194366   88.72530365    1.55999994    1.98000002
   18.17527771   85.47760010    1.55999994    1.98000002
   18.17860985   85.39019775    1.55999994    1.98000002
   18.18027687   88.53050232    1.55999994    1.98000002
   18.18249893   84.91010284    1.55999994    1.98000002
   18.18555450   86.31020355    1.55999994    1.98000002
   18.18888855   84.39579773    1.55999994    1.98000002
   18.19194412   93.22519684    1.55999994    1.98000002
   18.19527626   86.96730042    1.55999994    1.98000002
   18.19861031   89.19110107    1.55999994    1.98000002
   18.20416832   89.19110107    1.55999994    1.98000002
   18.20833397   90.50540161    1.55999994    1.98000002
   18.21166801   95.78019714    1.55999994    1.98000002
   18.21333504   87.80490112    1.55999994    1.98000002
   18.21500015   88.82150269    1.55999994    1.98000002
   18.21833420   94.45860291    1.55999994    1.98000002
   18.22166634   86.37660217    1.55999994    1.98000002
   18.22472191   84.51460266    1.55999994    1.98000002
   18.22805595   92.14469910    1.55999994    1.98000002
   18.23139000   87.62249756    1.55999994    1.98000002
   18.23444557   92.26349640    1.55999994    1.98000002
   18.23777771   90.95159912    1.55999994    1.98000002
   18.24083328   89.90350342    1.55999994    1.98000002
   18.26138878   69.70559692    1.55999994    1.98000002
   18.26166725   70.33560181    1.55999994    1.98000002
   18.26499939   87.37809753    1.55999994    1.98000002
   18.26833344   85.15679932    1.55999994    1.98000002
   18.27138901   87.21189880    1.55999994    1.98000002
   18.27472115   89.78250122    1.55999994    1.98000002
   18.28111076   85.04530334    1.55999994    1.98000002
   18.28416634   88.14089966    1.55999994    1.98000002
   18.29055595   88.14089966    1.55999994    1.98000002
   18.29444313   84.99449921    1.55999994    1.98000002
   18.29666710   92.55470276    1.55999994    1.98000002
   18.29833221   95.46040344    1.55999994    1.98000002
   18.30138779   87.21189880    1.55999994    1.98000002
   18.30472183   92.34259796    1.55999994    1.98000002
   18.30805397   88.86289978    1.55999994    1.98000002
   18.31110954   84.61340332    1.55999994    1.98000002
   18.31444359   85.71189880    1.55999994    1.98000002
   18.31777954   88.70149994    1.55999994    1.98000002
   18.32083511   83.62550354    1.55999994    1.98000002
   18.32416725   85.64849854    1.55999994    1.98000002
   18.32750130   88.84999847    1.55999994    1.98000002
   18.33333397   88.84999847    1.55999994    1.98000002
   18.33750153   87.11419678    1.55999994    1.98000002
   18.34055710   90.47080231    1.55999994    1.98000002
   18.34388924   92.39459991    1.55999994    1.98000002
   18.34722328   84.22100067    1.55999994    1.98000002
   18.35027885   87.37039948    1.55999994    1.98000002
   18.35361099   84.63320160    1.55999994    1.98000002
   18.35666656   86.72149658    1.55999994    1.98000002
   18.36000061   93.27929688    1.55999994    1.98000002
   18.36333466   85.12950134    1.55999994    1.98000002
   18.36416626   84.84269714    1.55999994    1.98000002
   18.36694527   89.08209991    1.55999994    1.98000002
   18.37000084   90.62419891    1.55999994    1.98000002
   18.37611198   90.62419891    1.55999994    1.98000002
   18.38027763   88.03669739    1.55999994    1.98000002
   18.38361168   87.01020050    1.55999994    1.98000002
   18.38666725   85.74299622    1.55999994    1.98000002
   18.38999939   87.35910034    1.55999994    1.98000002
   18.39305496   89.56400299    1.55999994    1.98000002
   18.39638901   83.12709808    1.55999994    1.98000002
   18.39749908   90.18489838    1.55999994    1.98000002
   18.39999962   82.63600159    1.55999994    1.98000002
   18.40305519   82.23320007    1.55999994    1.98000002
   18.40638924   89.12689972    1.55999994    1.98000002
   18.40972137   89.41639709    1.55999994    1.98000002
   18.41277695   89.93199921    1.55999994    1.98000002
   18.41888809   89.93199921    1.55999994    1.98000002
   18.42305565   92.13369751    1.55999994    1.98000002
   18.42638779   95.33229828    1.55999994    1.98000002
   18.42972183   96.23280334    1.55999994    1.98000002
   18.43111038   94.60340118    1.55999994    1.98000002
   18.43305397   86.49900055    1.55999994    1.98000002
   18.43638802   94.94249725    1.55999994    1.98000002
   18.43972206   86.81939697    1.55999994    1.98000002
   18.44277763   87.93720245    1.55999994    1.98000002
   18.44610977   94.52919769    1.55999994    1.98000002
   18.44944382   86.43319702    1.55999994    1.98000002
   18.45250130   79.44730377    1.55999994    1.98000002
   18.45583344   82.19779968    1.55999994    1.98000002
   18.46194458   82.19779968    1.55999994    1.98000002
   18.46583366   94.24189758    1.55999994    1.98000002
   18.46916771   93.07820129    1.55999994    1.98000002
   18.47249985   90.92910004    1.55999994    1.98000002
   18.47555542   91.04570007    1.55999994    1.98000002
   18.47888947   92.26830292    1.55999994    1.98000002
   18.48222351   96.97339630    1.55999994    1.98000002
   18.48527718   87.09619904    1.55999994    1.98000002
   18.48861122   94.95099640    1.55999994    1.98000002
   18.49166679   86.57830048    1.55999994    1.98000002
   18.49500084   90.05269623    1.55999994    1.98000002
   18.49777794   84.79840088    1.55999994    1.98000002
   18.49861145   83.11730194    1.55999994    1.98000002
   18.50472260   83.11730194    1.55999994    1.98000002
   18.50888824   85.05999756    1.55999994    1.98000002
   18.51194382   84.50379944    1.55999994    1.98000002
   18.51527786   92.12619781    1.55999994    1.98000002
   18.51861000   88.12280273    1.55999994    1.98000002
   18.52166557   89.71880341    1.55999994    1.98000002
   18.52499962   87.02110291    1.55999994    1.98000002
   18.52833366   89.80190277    1.55999994    1.98000002
   18.53111076   88.93340302    1.55999994    1.98000002
   18.53166580   91.94580078    1.55999994    1.98000002
   18.53499985   91.01419830    1.55999994    1.98000002
   18.53833199   89.95429993    1.55999994    1.98000002
   18.54138756   86.94570160    1.55999994    1.98000002
   18.54749870   86.94570160    1.55999994    1.98000002
   18.55166626   89.82209778    1.55999994    1.98000002
   18.55472183   90.96939850    1.55999994    1.98000002
   18.55805397   83.10669708    1.55999994    1.98000002
   18.56138802   93.00309753    1.55999994    1.98000002
   18.56444359   88.52110291    1.55999994    1.98000002
   18.56499863   89.47869873    1.55999994    1.98000002
   18.56805611   91.68190002    1.55999994    1.98000002
   18.57139015   92.02629852    1.55999994    1.98000002
   18.57444572   85.02159882    1.55999994    1.98000002
   18.57777786   91.08200073    1.55999994    1.98000002
   18.58111191   87.92189789    1.55999994    1.98000002
   18.58416748   86.62390137    1.55999994    1.98000002
   18.59027863   86.62390137    1.55999994    1.98000002
   18.59444427   97.41069794    1.55999994    1.98000002
   18.59777832   83.44819641    1.55999994    1.98000002
   18.59805679   87.44509888    1.55999994    1.98000002
   18.60138893   96.35489655    1.55999994    1.98000002
   18.60472298   92.17459869    1.55999994    1.98000002
   18.60777855   93.97730255    1.55999994    1.98000002
   18.61111069   96.48799896    1.55999994    1.98000002
   18.61444473   89.63659668    1.55999994    1.98000002
   18.62083435   86.36569977    1.55999994    1.98000002
   18.62416649   83.54399872    1.55999994    1.98000002
   18.62722206   86.31739807    1.55999994    1.98000002
   18.63333321   86.31739807    1.55999994    1.98000002
   18.63722229   94.31780243    1.55999994    1.98000002
   18.64055634   88.77600098    1.55999994    1.98000002
   18.64388847   93.06890106    1.55999994    1.98000002
   18.64694405   89.24019623    1.55999994    1.98000002
   18.65027809   89.92559814    1.55999994    1.98000002
   18.65361023   90.95369720    1.55999994    1.98000002
   18.65666580   88.48480225    1.55999994    1.98000002
   18.65999985   80.01490021    1.55999994    1.98000002
   18.66305542   83.43000031    1.55999994    1.98000002
   18.66444397   87.36139679    1.55999994    1.98000002
   18.66694450   87.18910217    1.55999994    1.98000002
   18.67000008   87.51360321    1.55999994    1.98000002
   18.67611122   87.51360321    1.55999994    1.98000002
   18.68027687   85.63059998    1.55999994    1.98000002
   18.68333244   87.13020325    1.55999994    1.98000002
   18.68666649   87.30069733    1.55999994    1.98000002
   18.68999863   82.66120148    1.55999994    1.98000002
   18.69305420   84.84359741    1.55999994    1.98000002
   18.69638824   84.85449982    1.55999994    1.98000002
   18.69777679   93.26679993    1.55999994    1.98000002
   18.70000076   84.47859955    1.55999994    1.98000002
   18.70305634   87.88829803    1.55999994    1.98000002
   18.70639038   86.36599731    1.55999994    1.98000002
   18.70944595   87.77459717    1.55999994    1.98000002
   18.71277809   88.96839905    1.55999994    1.98000002
   18.71888924   88.96839905    1.55999994    1.98000002
   18.72305679   87.57189941    1.55999994    1.98000002
   18.72638893   83.10610199    1.55999994    1.98000002
   18.72944450   89.58709717    1.55999994    1.98000002
   18.73139000   87.89150238    1.55999994    1.98000002
   18.73333359   91.57479858    1.55999994    1.98000002
   18.73638916   86.89710236    1.55999994    1.98000002
   18.73972321   90.16079712    1.55999994    1.98000002
   18.74277878   84.47899628    1.55999994    1.98000002
   18.74611092   88.31569672    1.55999994    1.98000002
   18.74944496   85.30690002    1.55999994    1.98000002
   18.75250053   82.90190125    1.55999994    1.98000002
   18.75583267   82.25710297    1.55999994    1.98000002
   18.76166725   82.25710297    1.55999994    1.98000002
   18.76583290   89.55560303    1.55999994    1.98000002
   18.76916695   84.03389740    1.55999994    1.98000002
   18.77222252   89.68460083    1.55999994    1.98000002
   18.77555466   87.78119659    1.55999994    1.98000002
   18.77888870   87.10250092    1.55999994    1.98000002
   18.78194427   88.13670349    1.55999994    1.98000002
   18.78527641   89.18789673    1.55999994    1.98000002
   18.78861046   88.93530273    1.55999994    1.98000002
   18.79166603   87.17250061    1.55999994    1.98000002
   18.79500008   88.86060333    1.55999994    1.98000002
   18.79805565   82.93820190    1.55999994    1.98000002
   18.79833221   85.19689941    1.55999994    1.98000002
   18.80472183   85.19689941    1.55999994    1.98000002
   18.80888748   88.30139923    1.55999994    1.98000002
   18.81194305   85.97470093    1.55999994    1.98000002
   18.81527710   88.60769653    1.55999994    1.98000002
   18.81861115   88.45320129    1.55999994    1.98000002
   18.82166672   89.91739655    1.55999994    1.98000002
   18.82527924   90.59320068    1.55999994    1.98000002
   18.82861137   89.64510345    1.55999994    1.98000002
   18.83139038   88.81680298    1.55999994    1.98000002
   18.83222389   87.47570038    1.55999994    1.98000002
   18.83527756   86.88339996    1.55999994    1.98000002
   18.83861160   85.03919983    1.55999994    1.98000002
   18.84166718   84.34259796    1.55999994    1.98000002
   18.84749985   84.34259796    1.55999994    1.98000002
   18.85166740   84.09609985    1.55999994    1.98000002
   18.85472298   82.09519958    1.55999994    1.98000002
   18.85805511   85.39160156    1.55999994    1.98000002
   18.86138916   90.23690033    1.55999994    1.98000002
   18.86472321   82.32140350    1.55999994    1.98000002
   18.86499977   91.34210205    1.55999994    1.98000002
   18.86833382   82.61080170    1.55999994    1.98000002
   18.87166595   84.08070374    1.55999994    1.98000002
   18.87472153   89.13030243    1.55999994    1.98000002
   18.87805557   89.54640198    1.55999994    1.98000002
   18.88138962   91.31130219    1.55999994    1.98000002
   18.88444519   92.54599762    1.55999994    1.98000002
   18.89027786   92.54599762    1.55999994    1.98000002
   18.89444351   87.12000275    1.55999994    1.98000002
   18.89777756   90.09010315    1.55999994    1.98000002
   18.89833260   85.51740265    1.55999994    1.98000002
   18.90111160   80.42420197    1.55999994    1.98000002
   18.90444374   86.03410339    1.55999994    1.98000002
   18.90749931   81.49539948    1.55999994    1.98000002
   18.91083336   87.00420380    1.55999994    1.98000002
   18.91416550   87.63259888    1.55999994    1.98000002
   18.91722107   82.69879913    1.55999994    1.98000002
   18.92055511   79.44409943    1.55999994    1.98000002
   18.92388916   84.80130005    1.55999994    1.98000002
   18.92694473   85.38220215    1.55999994    1.98000002
   18.93305397   85.38220215    1.55999994    1.98000002
   18.93722153   85.18460083    1.55999994    1.98000002
   18.94055557   89.44380188    1.55999994    1.98000002
   18.94388771   91.09079742    1.55999994    1.98000002
   18.94694328   86.78620148    1.55999994    1.98000002
   18.95027924   84.83999634    1.55999994    1.98000002
   18.95361137   80.83529663    1.55999994    1.98000002
   18.95666695   85.36239624    1.55999994    1.98000002
   18.96000099   83.88099670    1.55999994    1.98000002
   18.96333504   83.75029755    1.55999994    1.98000002
   18.96500015   83.20719910    1.55999994    1.98000002
   18.96666718   81.15329742    1.55999994    1.98000002
   18.97000122   89.15769958    1.55999994    1.98000002
   18.97611237   89.15769958    1.55999994    1.98000002
   18.98000145   83.71379852    1.55999994    1.98000002
   18.98333359   91.66010284    1.55999994    1.98000002
   18.98666763   87.53289795    1.55999994    1.98000002
   18.98972321   88.95300293    1.55999994    1.98000002
   18.99305534   90.00489807    1.55999994    1.98000002
   18.99638939   92.02739716    1.55999994    1.98000002
   18.99861145   86.09020233    1.55999994    1.98000002
   18.99972153   88.21109772    1.55999994    1.98000002
   19.00305557   86.84390259    1.55999994    1.98000002
   19.00611115   88.82689667    1.55999994    1.98000002
   19.00944519   82.92780304    1.55999994    1.98000002
   19.01277733   90.82460022    1.55999994    1.98000002
   19.01888847   90.82460022    1.55999994    1.98000002
   19.02305603   87.81680298    1.55999994    1.98000002
   19.02611160   90.16089630    1.55999994    1.98000002
   19.02944374   85.46350098    1.55999994    1.98000002
   19.03166580   89.58090210    1.55999994    1.98000002
   19.03305435   90.69069672    1.55999994    1.98000002
   19.03638840   87.27380371    1.55999994    1.98000002
   19.03944397   89.88649750    1.55999994    1.98000002
   19.04277802   82.23200226    1.55999994    1.98000002
   19.04611015   86.76059723    1.55999994    1.98000002
   19.04916573   86.75939941    1.55999994    1.98000002
   19.05249977   83.56990051    1.55999994    1.98000002
   19.05555534   84.44480133    1.55999994    1.98000002
   19.06166649   84.44480133    1.55999994    1.98000002
   19.06583214   91.45709991    1.55999994    1.98000002
   19.06916809   88.06800079    1.55999994    1.98000002
   19.07222366   80.32959747    1.55999994    1.98000002
   19.07555580   88.38729858    1.55999994    1.98000002
   19.07861137   80.66729736    1.55999994    1.98000002
   19.08194542   90.92710114    1.55999994    1.98000002
   19.08527756   82.23909760    1.55999994    1.98000002
   19.08833313   84.07679749    1.55999994    1.98000002
   19.09166718   84.40000153    1.55999994    1.98000002
   19.09500122   81.36129761    1.55999994    1.98000002
   19.09805679   85.59709930    1.55999994    1.98000002
   19.09861183   87.23300171    1.55999994    1.98000002
   19.10444450   87.23300171    1.55999994    1.98000002
   19.10861206   91.03179932    1.55999994    1.98000002
   19.11194420   87.21389771    1.55999994    1.98000002
   19.11527824   86.22409821    1.55999994    1.98000002
   19.11833382   87.23979950    1.55999994    1.98000002
   19.12166595   87.73210144    1.55999994    1.98000002
   19.12500000   90.14029694    1.55999994    1.98000002
   19.12805557   94.07099915    1.55999994    1.98000002
   19.13138962   93.46070099    1.55999994    1.98000002
   19.13194466   87.29039764    1.55999994    1.98000002
   19.13500023   82.50839996    1.55999994    1.98000002
   19.13805580   89.69809723    1.55999994    1.98000002
   19.14138794   86.92120361    1.55999994    1.98000002
   19.14749908   86.92120361    1.55999994    1.98000002
   19.15138817   89.40219879    1.55999994    1.98000002
   19.15472221   84.31620026    1.55999994    1.98000002
   19.15805435   84.78029633    1.55999994    1.98000002
   19.16110992   86.36990356    1.55999994    1.98000002
   19.16444397   85.00189972    1.55999994    1.98000002
   19.16527748   87.37329865    1.55999994    1.98000002
   19.16805458   84.93599701    1.55999994    1.98000002
   19.17111015   88.93920135    1.55999994    1.98000002
   19.17444420   91.50800323    1.55999994    1.98000002
   19.17777634   86.81569672    1.55999994    1.98000002
   19.18083191   85.48549652    1.55999994    1.98000002
   19.18416595   87.45449829    1.55999994    1.98000002
   19.19027710   87.45449829    1.55999994    1.98000002
   19.19444275   76.18250275    1.55999994    1.98000002
   19.19749832   83.62339783    1.55999994    1.98000002
   19.19861031   80.30429840    1.55999994    1.98000002
   19.20138931   80.63670349    1.55999994    1.98000002
   19.20444489   84.23930359    1.55999994    1.98000002
   19.20777893   80.64800262    1.55999994    1.98000002
   19.21111107   79.65609741    1.55999994    1.98000002
   19.21416664   86.74990082    1.55999994    1.98000002
   19.21750069   84.18820190    1.55999994    1.98000002
   19.22055626   81.76490021    1.55999994    1.98000002
   19.22389030   85.04699707    1.55999994    1.98000002
   19.22722244   90.66120148    1.55999994    1.98000002
   19.23305511   90.66120148    1.55999994    1.98000002
   19.23722267   93.29139709    1.55999994    1.98000002
   19.24055672   86.76989746    1.55999994    1.98000002
   19.24361229   83.36840057    1.55999994    1.98000002
   19.24694443   81.86180115    1.55999994    1.98000002
   19.25027847   88.55619812    1.55999994    1.98000002
   19.25333405   83.57369995    1.55999994    1.98000002
   19.25666618   86.91989899    1.55999994    1.98000002
   19.25972176   85.24829865    1.55999994    1.98000002
   19.26305580   84.71730042    1.55999994    1.98000002
   19.28055573   83.65489960    1.55999994    1.98000002
   19.28472137   83.65489960    1.55999994    1.98000002
   19.28888893   84.97200012    1.55999994    1.98000002
   19.29222107   85.32140350    1.55999994    1.98000002
   19.29527664   87.27410126    1.55999994    1.98000002
   19.29861069   79.86530304    1.55999994    1.98000002
   19.30194283   87.12120056    1.55999994    1.98000002
   19.30499840   81.23590088    1.55999994    1.98000002
   19.30833244   83.16269684    1.55999994    1.98000002
   19.31166649   84.83519745    1.55999994    1.98000002
   19.31388855   76.70500183    1.55999994    1.98000002
   19.31499863   82.38490295    1.55999994    1.98000002
   19.31833458   81.41840363    1.55999994    1.98000002
   19.32166672   79.12100220    1.55999994    1.98000002
   19.32750130   79.12100220    1.55999994    1.98000002
   19.33166695   84.99720001    1.55999994    1.98000002
   19.33500099   85.96299744    1.55999994    1.98000002
   19.33805656   86.36460114    1.55999994    1.98000002
   19.34138870   90.42209625    1.55999994    1.98000002
   19.34472275   86.57820129    1.55999994    1.98000002
   19.34722328   83.51200104    1.55999994    1.98000002
   19.34805679   85.02989960    1.55999994    1.98000002
   19.35138893   85.37619781    1.55999994    1.98000002
   19.35472298   92.03579712    1.55999994    1.98000002
   19.35777855   82.19360352    1.55999994    1.98000002
   19.36111069   82.24939728    1.55999994    1.98000002
   19.36444473   85.75509644    1.55999994    1.98000002
   19.37055588   85.75509644    1.55999994    1.98000002
   19.37444496   86.07969666    1.55999994    1.98000002
   19.37777710   82.92839813    1.55999994    1.98000002
   19.38055611   90.05819702    1.55999994    1.98000002
   19.38138962   85.28780365    1.55999994    1.98000002
   19.38472176   89.55870056    1.55999994    1.98000002
   19.38805580   89.78099823    1.55999994    1.98000002
   19.39111137   89.12239838    1.55999994    1.98000002
   19.39444351   81.62339783    1.55999994    1.98000002
   19.39777756   83.61720276    1.55999994    1.98000002
   19.40083313   81.52380371    1.55999994    1.98000002
   19.40416718   91.45349884    1.55999994    1.98000002
   19.40722275   86.60820007    1.55999994    1.98000002
   19.41333389   86.60820007    1.55999994    1.98000002
   19.41749954   83.02459717    1.55999994    1.98000002
   19.42055511   91.72579956    1.55999994    1.98000002
   19.42388916   84.40350342    1.55999994    1.98000002
   19.42722130   81.91069794    1.55999994    1.98000002
   19.43027687   84.51000214    1.55999994    1.98000002
   19.43361092   90.39179993    1.55999994    1.98000002
   19.43694305   92.80410004    1.55999994    1.98000002
   19.43999863   89.66780090    1.55999994    1.98000002
   19.44333267   94.10579681    1.55999994    1.98000002
   19.44638824   87.73739624    1.55999994    1.98000002
   19.44833183   90.77429962    1.55999994    1.98000002
   19.45027924   90.45359802    1.55999994    1.98000002
   19.45611191   90.45359802    1.55999994    1.98000002
   19.46027946   85.17890167    1.55999994    1.98000002
   19.46361160   93.41860199    1.55999994    1.98000002
   19.46666718   85.56359863    1.55999994    1.98000002
   19.47000122   87.39530182    1.55999994    1.98000002
   19.47305679   86.66989899    1.55999994    1.98000002
   19.47638893   87.78340149    1.55999994    1.98000002
   19.47972298   88.13980103    1.55999994    1.98000002
   19.48166656   87.19979858    1.55999994    1.98000002
   19.48333359   83.66130066    1.55999994    1.98000002
   19.48638916   87.05480194    1.55999994    1.98000002
   19.48972321   93.26840210    1.55999994    1.98000002
   19.49305534   92.99710083    1.55999994    1.98000002
   19.49888992   92.99710083    1.55999994    1.98000002
   19.50305557   88.76049805    1.55999994    1.98000002
   19.50638962   89.63150024    1.55999994    1.98000002
   19.50944519   92.68250275    1.55999994    1.98000002
   19.51277733   91.59369659    1.55999994    1.98000002
   19.51527786  100.87899780    1.55999994    1.98000002
   19.51638794   96.99909973    1.55999994    1.98000002
   19.51972198   92.20020294    1.55999994    1.98000002
   19.52277756   91.80590057    1.55999994    1.98000002
   19.52611160   90.24299622    1.55999994    1.98000002
   19.52944374   87.29720306    1.55999994    1.98000002
   19.53249931   91.26930237    1.55999994    1.98000002
   19.53583336   88.86630249    1.55999994    1.98000002
   19.54194450   88.86630249    1.55999994    1.98000002
   19.54583359   93.87190247    1.55999994    1.98000002
   19.54861069   87.69259644    1.55999994    1.98000002
   19.54944420   85.95480347    1.55999994    1.98000002
   19.55277634   83.71170044    1.55999994    1.98000002
   19.55583191   89.38269806    1.55999994    1.98000002
   19.55916595   93.69270325    1.55999994    1.98000002
   19.56250000   84.99829865    1.55999994    1.98000002
   19.56555557   89.33589935    1.55999994    1.98000002
   19.56888962   92.53230286    1.55999994    1.98000002
   19.57222366   98.67400360    1.55999994    1.98000002
   19.57527924   92.57830048    1.55999994    1.98000002
   19.57861137   86.99720001    1.55999994    1.98000002
   19.58472252   86.99720001    1.55999994    1.98000002
   19.58889008  101.28199768    1.55999994    1.98000002
   19.59194565   93.32579803    1.55999994    1.98000002
   19.59527779   96.84729767    1.55999994    1.98000002
   19.59861183   95.85060120    1.55999994    1.98000002
   19.60166740   97.17310333    1.55999994    1.98000002
   19.60499954   96.82759857    1.55999994    1.98000002
   19.60805511   99.24500275    1.55999994    1.98000002
   19.61138916   98.38279724    1.55999994    1.98000002
   19.61472321   99.03610229    1.55999994    1.98000002
   19.61555672   95.05989838    1.55999994    1.98000002
   19.61833382  102.80300140    1.55999994    1.98000002
   19.62138939   91.37860107    1.55999994    1.98000002
   19.62750053   91.37860107    1.55999994    1.98000002
   19.63166618   92.83930206    1.55999994    1.98000002
   19.63500023   95.45989990    1.55999994    1.98000002
   19.63805580   96.04530334    1.55999994    1.98000002
   19.64138794   96.76550293    1.55999994    1.98000002
   19.64444351   98.23179626    1.55999994    1.98000002
   19.64777756   95.70179749    1.55999994    1.98000002
   19.64888954  104.17400360    1.55999994    1.98000002
   19.65138817   98.04720306    1.55999994    1.98000002
   19.65444374   95.38089752    1.55999994    1.98000002
   19.65777779   88.42240143    1.55999994    1.98000002
   19.66110992   94.30180359    1.55999994    1.98000002
   19.66416550   96.14559937    1.55999994    1.98000002
   19.67027664   96.14559937    1.55999994    1.98000002
   19.67444420   94.68309784    1.55999994    1.98000002
   19.67777634   90.76100159    1.55999994    1.98000002
   19.68111038   93.85269928    1.55999994    1.98000002
   19.68249893   93.89700317    1.55999994    1.98000002
   19.68444443   91.90290070    1.55999994    1.98000002
   19.68777657   92.76200104    1.55999994    1.98000002
   19.69111061   94.83660126    1.55999994    1.98000002
   19.69416618   97.96299744    1.55999994    1.98000002
   19.69749832   93.41220093    1.55999994    1.98000002
   19.70083427   96.25569916    1.55999994    1.98000002
   19.70388985  100.53800201    1.55999994    1.98000002
   19.70722389   94.93789673    1.55999994    1.98000002
   19.71333504   94.93789673    1.55999994    1.98000002
   19.71750069   95.90309906    1.55999994    1.98000002
   19.72055626  100.91699982    1.55999994    1.98000002
   19.72389030  100.43699646    1.55999994    1.98000002
   19.72694588   95.07330322    1.55999994    1.98000002
   19.73027802   96.01740265    1.55999994    1.98000002
   19.73361206   93.03900146    1.55999994    1.98000002
   19.73666763   94.95619965    1.55999994    1.98000002
   19.73999977   96.54779816    1.55999994    1.98000002
   19.74333382   89.96399689    1.55999994    1.98000002
   19.74638939   88.20500183    1.55999994    1.98000002
   19.74916649   96.56289673    1.55999994    1.98000002
   19.75027847   95.21469879    1.55999994    1.98000002
   19.75611115   95.21469879    1.55999994    1.98000002
   19.76027870   87.61579895    1.55999994    1.98000002
   19.76333427   90.68920135    1.55999994    1.98000002
   19.76666641   90.36849976    1.55999994    1.98000002
   19.77000046  102.37799835    1.55999994    1.98000002
   19.77305603   97.28820038    1.55999994    1.98000002
   19.77638817  100.36199951    1.55999994    1.98000002
   19.77944374   97.26940155    1.55999994    1.98000002
   19.78249931   95.64589691    1.55999994    1.98000002
   19.78333282   87.73429871    1.55999994    1.98000002
   19.78638840   97.05319977    1.55999994    1.98000002
   19.78972244   94.58390045    1.55999994    1.98000002
   19.79277802   99.46829987    1.55999994    1.98000002
   19.79888916   99.46829987    1.55999994    1.98000002
   19.80305481   98.51360321    1.55999994    1.98000002
   19.80638885   99.19110107    1.55999994    1.98000002
   19.80944443   97.72779846    1.55999994    1.98000002
   19.81277657   89.81410217    1.55999994    1.98000002
   19.81583214   86.50119781    1.55999994    1.98000002
   19.81611061   97.35800171    1.55999994    1.98000002
   19.81944466   96.32859802    1.55999994    1.98000002
   19.82277870   89.22969818    1.55999994    1.98000002
   19.82583427   93.64790344    1.55999994    1.98000002
   19.82916832   96.17790222    1.55999994    1.98000002
   19.83250046   85.39659882    1.55999994    1.98000002
   19.83555603   88.47480011    1.55999994    1.98000002
   19.84166718   88.47480011    1.55999994    1.98000002
   19.84583473   98.20149994    1.55999994    1.98000002
   19.84916687   92.63030243    1.55999994    1.98000002
   19.84972191   98.29149628    1.55999994    1.98000002
   19.85277748   82.43109894    1.55999994    1.98000002
   19.85611153   91.94989777    1.55999994    1.98000002
   19.85944557   95.09970093    1.55999994    1.98000002
   19.86250114   97.67230225    1.55999994    1.98000002
   19.86583328   95.03250122    1.55999994    1.98000002
   19.86888885   94.97059631    1.55999994    1.98000002
   19.87222290   98.34030151    1.55999994    1.98000002
   19.87555504   95.43049622    1.55999994    1.98000002
   19.87861061   98.78099823    1.55999994    1.98000002
   19.88444519   98.78099823    1.55999994    1.98000002
   19.88861084   93.90529633    1.55999994    1.98000002
   19.89194489   95.69339752    1.55999994    1.98000002
   19.89527702   92.58719635    1.55999994    1.98000002
   19.89833260   91.01439667    1.55999994    1.98000002
   19.90166664   95.27519989    1.55999994    1.98000002
   19.90499878  105.06600189    1.55999994    1.98000002
   19.90833282  102.84400177    1.55999994    1.98000002
   19.91138840   96.05989838    1.55999994    1.98000002
   19.91472244  104.94499969    1.55999994    1.98000002
   19.91583252   95.45829773    1.55999994    1.98000002
   19.91833305  100.57700348    1.55999994    1.98000002
   19.92138863   95.63150024    1.55999994    1.98000002
   19.92749977   95.63150024    1.55999994    1.98000002
   19.93166542  104.40200043    1.55999994    1.98000002
   19.93472099  100.18000031    1.55999994    1.98000002
   19.93805504   92.06999969    1.55999994    1.98000002
   19.94138718   92.65820313    1.55999994    1.98000002
   19.94444275   95.26190186    1.55999994    1.98000002
   19.94777679   98.57540131    1.55999994    1.98000002
   19.94916534  105.91000366    1.55999994    1.98000002
   19.95138931   99.43730164    1.55999994    1.98000002
   19.95444489   94.12999725    1.55999994    1.98000002
   19.95777893   88.17340088    1.55999994    1.98000002
   19.96111107   99.26490021    1.55999994    1.98000002
   19.96416664  107.12500000    1.55999994    1.98000002
   19.97027779  107.12500000    1.55999994    1.98000002
   19.97444534   98.75720215    1.55999994    1.98000002
   19.97777748   92.34819794    1.55999994    1.98000002
   19.98083305   93.06230164    1.55999994    1.98000002
   19.98277855   94.96810150    1.55999994    1.98000002
   19.98472214  103.87500000    1.55999994    1.98000002
   19.98777771  104.74199677    1.55999994    1.98000002
   19.99111176  103.67900085    1.55999994    1.98000002
   19.99416733   91.95420074    1.55999994    1.98000002
   19.99749947  100.50800323    1.55999994    1.98000002
   20.00083351   99.49019623    1.55999994    1.98000002
   20.00388908   97.94930267    1.55999994    1.98000002
   20.00722313  100.33599854    1.55999994    1.98000002
   20.01638794  100.33599854    1.55999994    1.98000002
   20.02027702  100.64399719    1.55999994    1.98000002
   20.02361107   96.83570099    1.55999994    1.98000002
   20.02694511   97.35729980    1.55999994    1.98000002
   20.03027725  104.65299988    1.55999994    1.98000002
   20.03333282   94.44920349    1.55999994    1.98000002
   20.03666687   89.11430359    1.55999994    1.98000002
   20.03972244   99.15699768    1.55999994    1.98000002
   20.04305458   95.00109863    1.55999994    1.98000002
   20.04638863   96.12509918    1.55999994    1.98000002
   20.04944420   96.70130157    1.55999994    1.98000002
   20.05138779   95.99559784    1.55999994    1.98000002
   20.05583191   95.99559784    1.55999994    1.98000002
   20.05999947  124.98300171    1.55999994    1.98000002
   20.06333351  143.54699707    1.55999994    1.98000002
   20.06666756  183.10499573    1.55999994    1.98000002
   20.06972313  201.91900635    1.55999994    1.98000002
   20.07305717  212.46400452    1.55999994    1.98000002
   20.07611275  265.20800781    1.55999994    1.98000002
   20.07944489  289.44500732    1.55999994    1.98000002
   20.08277893  197.05499268    1.55999994    1.98000002
   20.08472252  126.02700043    1.55999994    1.98000002
   20.08611107   91.59339905    1.55999994    1.98000002
   20.08944511   -1.00000000    1.55999994    1.98000002
   20.09277916   -1.00000000    1.55999994    1.98000002
   20.10277748   -1.00000000    1.55999994    1.98000002
   20.10611153   -1.00000000    1.55999994    1.98000002
   20.10944557   -1.00000000    1.55999994    1.98000002
   20.11250114   -1.00000000    1.55999994    1.98000002
   20.11583328   -1.00000000    1.55999994    1.98000002
   20.11944389   -1.00000000    1.55999994    1.98000002
   20.12277794   -1.00000000    1.55999994    1.98000002
   20.12583351   -1.00000000    1.55999994    1.98000002
   20.12916756   -1.00000000    1.55999994    1.98000002
   20.13249969   -1.00000000    1.55999994    1.98000002
   20.13555527   -1.00000000    1.55999994    1.98000002
   20.14583397   -1.00000000    1.55999994    1.98000002
   20.14888954   -1.00000000    1.55999994    1.98000002
   20.15250015   -1.00000000    1.55999994    1.98000002
   20.15583229   -1.00000000    1.55999994    1.98000002
   20.15888786   -1.00000000    1.55999994    1.98000002
   20.16222191   -1.00000000    1.55999994    1.98000002
   20.16555595   -1.00000000    1.55999994    1.98000002
   20.16860962   -1.00000000    1.55999994    1.98000002
   20.17194366   -1.00000000    1.55999994    1.98000002
   20.17499924   -1.00000000    1.55999994    1.98000002
   20.17833328   -1.00000000    1.55999994    1.98000002
   20.18861008   -1.00000000    1.55999994    1.98000002
   20.19194412   -1.00000000    1.55999994    1.98000002
   20.19499969   -1.00000000    1.55999994    1.98000002
   20.19833183   -1.00000000    1.55999994    1.98000002
   20.20138931   -1.00000000    1.55999994    1.98000002
   20.20472336   -1.00000000    1.55999994    1.98000002
   20.20805550   -1.00000000    1.55999994    1.98000002
   20.21111107   -1.00000000    1.55999994    1.98000002
   20.21444511   -1.00000000    1.55999994    1.98000002
   20.21777916   -1.00000000    1.55999994    1.98000002
   20.22138977   -1.00000000    1.55999994    1.98000002
   20.23139000   -1.00000000    1.55999994    1.98000002
   20.23472214   -1.00000000    1.55999994    1.98000002
   20.23777771   -1.00000000    1.55999994    1.98000002
   20.24111176   -1.00000000    1.55999994    1.98000002
   20.24444389   -1.00000000    1.55999994    1.98000002
   20.24749947   -1.00000000    1.55999994    1.98000002
   20.25083351   -1.00000000    1.55999994    1.98000002
   20.25444412   -1.00000000    1.55999994    1.98000002
   20.25749969   -1.00000000    1.55999994    1.98000002
   20.26083374   -1.00000000    1.55999994    1.98000002
   20.26416588   -1.00000000    1.55999994    1.98000002
   20.27416611   -1.00000000    1.55999994    1.98000002
   20.27750015   -1.00000000    1.55999994    1.98000002
   20.28083229   -1.00000000    1.55999994    1.98000002
   20.30055428   -1.00000000    1.55999994    1.98000002
   20.30388832   -1.00000000    1.55999994    1.98000002
   20.30722237   -1.00000000    1.55999994    1.98000002
   20.31722260   -1.00000000    1.55999994    1.98000002
   20.32055664   -1.00000000    1.55999994    1.98000002
   20.32361221   -1.00000000    1.55999994    1.98000002
   20.32694626   -1.00000000    1.55999994    1.98000002
   20.33027840   -1.00000000    1.55999994    1.98000002
   20.33361244   -1.00000000    1.55999994    1.98000002
   20.33694458   -1.00000000    1.55999994    1.98000002
   20.34000015   -1.00000000    1.55999994    1.98000002
   20.34333420   -1.00000000    1.55999994    1.98000002
   20.34666824   -1.00000000    1.55999994    1.98000002
   20.34972191   -1.00000000    1.55999994    1.98000002
   20.36000061   -1.00000000    1.55999994    1.98000002
   20.36333466   -1.00000000    1.55999994    1.98000002
   20.36694527   -1.00000000    1.55999994    1.98000002
   20.37027740   -1.00000000    1.55999994    1.98000002
   20.37333298   -1.00000000    1.55999994    1.98000002
   20.37666702   -1.00000000    1.55999994    1.98000002
   20.38000107   -1.00000000    1.55999994    1.98000002
   20.38305473   -1.00000000    1.55999994    1.98000002
   20.38638878   -1.00000000    1.55999994    1.98000002
   20.38944435   -1.00000000    1.55999994    1.98000002
   20.39277840   -1.00000000    1.55999994    1.98000002
   20.40305519   -1.00000000    1.55999994    1.98000002
   20.40611076   -1.00000000    1.55999994    1.98000002
   20.40944481   -1.00000000    1.55999994    1.98000002
   20.41277695   -1.00000000    1.55999994    1.98000002
   20.41583252   -1.00000000    1.55999994    1.98000002
   20.41916656   -1.00000000    1.55999994    1.98000002
   20.42249870   -1.00000000    1.55999994    1.98000002
   20.42555428   -1.00000000    1.55999994    1.98000002
   20.42888832   -1.00000000    1.55999994    1.98000002
   20.43249893   -1.00000000    1.55999994    1.98000002
   20.43583298   -1.00000000    1.55999994    1.98000002
   20.44583321   -1.00000000    1.55999994    1.98000002
   20.44916534   -1.00000000    1.55999994    1.98000002
   20.45222282   -1.00000000    1.55999994    1.98000002
   20.45555687   -1.00000000    1.55999994    1.98000002
   20.45861244   -1.00000000    1.55999994    1.98000002
   20.46194458   -1.00000000    1.55999994    1.98000002
   20.46555710   -1.00000000    1.55999994    1.98000002
   20.46888924   -1.00000000    1.55999994    1.98000002
   20.47194481   -1.00000000    1.55999994    1.98000002
   20.47527885   -1.00000000    1.55999994    1.98000002
   20.47833443   -1.00000000    1.55999994    1.98000002
   20.48861122   -1.00000000    1.55999994    1.98000002
   20.49194527   -1.00000000    1.55999994    1.98000002
   20.49500084   -1.00000000    1.55999994    1.98000002
   20.49861145   -1.00000000    1.55999994    1.98000002
   20.50194359   -1.00000000    1.55999994    1.98000002
   20.50499916   -1.00000000    1.55999994    1.98000002
   20.50833321   -1.00000000    1.55999994    1.98000002
   20.51166725   -1.00000000    1.55999994    1.98000002
   20.51472282   -1.00000000    1.55999994    1.98000002
   20.51805496   -1.00000000    1.55999994    1.98000002
   20.52111053   -1.00000000    1.55999994    1.98000002
   20.53138924   -1.00000000    1.55999994    1.98000002
   20.53472137   -1.00000000    1.55999994    1.98000002
   20.53805542   -1.00000000    1.55999994    1.98000002
   20.54111099   -1.00000000    1.55999994    1.98000002
   20.54444313   -1.00000000    1.55999994    1.98000002
   20.54777718   -1.00000000    1.55999994    1.98000002
   20.55083275   -1.00000000    1.55999994    1.98000002
   20.55416679   -1.00000000    1.55999994    1.98000002
   20.55722237   -1.00000000    1.55999994    1.98000002
   20.56055450   -1.00000000    1.55999994    1.98000002
   20.56388855   -1.00000000    1.55999994    1.98000002
   20.57444572   -1.00000000    1.55999994    1.98000002
   20.57750130   -1.00000000    1.55999994    1.98000002
   20.58083344   -1.00000000    1.55999994    1.98000002
   20.58416748   -1.00000000    1.55999994    1.98000002
   20.58722305   -1.00000000    1.55999994    1.98000002
   20.59361267   -1.00000000    1.55999994    1.98000002
   20.59694481   -1.00000000    1.55999994    1.98000002
   20.60027885   -1.00000000    1.55999994    1.98000002
   20.60361099   -1.00000000    1.55999994    1.98000002
   20.60666656   -1.00000000    1.55999994    1.98000002
   20.61722183   -1.00000000    1.55999994    1.98000002
   20.62055588   -1.00000000    1.55999994    1.98000002
   20.62361145   -1.00000000    1.55999994    1.98000002
   20.62694550   -1.00000000    1.55999994    1.98000002
   20.63000107   -1.00000000    1.55999994    1.98000002
   20.63361168   -1.00000000    1.55999994    1.98000002
   20.63694382   -1.00000000    1.55999994    1.98000002
   20.63999939   -1.00000000    1.55999994    1.98000002
   20.64333344   -1.00000000    1.55999994    1.98000002
   20.64666748   -1.00000000    1.55999994    1.98000002
   20.64972115   -1.00000000    1.55999994    1.98000002
   20.65999985   -1.00000000    1.55999994    1.98000002
   20.66333389   -1.00000000    1.55999994    1.98000002
   20.66694450   -1.00000000    1.55999994    1.98000002
   20.67027664   -1.00000000    1.55999994    1.98000002
   20.67333221   -1.00000000    1.55999994    1.98000002
   20.67666626   -1.00000000    1.55999994    1.98000002
   20.68000031   -1.00000000    1.55999994    1.98000002
   20.68305397   -1.00000000    1.55999994    1.98000002
   20.68638802   -1.00000000    1.55999994    1.98000002
   20.68944359   -1.00000000    1.55999994    1.98000002
   20.69277763   -1.00000000    1.55999994    1.98000002
   20.70277786   -1.00000000    1.55999994    1.98000002
   20.70611191   -1.00000000    1.55999994    1.98000002
   20.70944595   -1.00000000    1.55999994    1.98000002
   20.71250153   -1.00000000    1.55999994    1.98000002
   20.71583366   -1.00000000    1.55999994    1.98000002
   20.71916771   -1.00000000    1.55999994    1.98000002
   20.72222328   -1.00000000    1.55999994    1.98000002
   20.72555542   -1.00000000    1.55999994    1.98000002
   20.72861099   -1.00000000    1.55999994    1.98000002
   20.73222351   -1.00000000    1.55999994    1.98000002
   20.73555565   -1.00000000    1.55999994    1.98000002
   20.74583435   -1.00000000    1.55999994    1.98000002
   20.74888992   -1.00000000    1.55999994    1.98000002
   20.75222206   -1.00000000    1.55999994    1.98000002
   20.75555611   -1.00000000    1.55999994    1.98000002
   20.75861168   -1.00000000    1.55999994    1.98000002
   20.76194382   -1.00000000    1.55999994    1.98000002
   20.76527786   -1.00000000    1.55999994    1.98000002
   20.76861000   -1.00000000    1.55999994    1.98000002
   20.77194405   -1.00000000    1.55999994    1.98000002
   20.77499962   -1.00000000    1.55999994    1.98000002
   20.77833366   -1.00000000    1.55999994    1.98000002
   20.78861046   -1.00000000    1.55999994    1.98000002
   20.79194450   -1.00000000    1.55999994    1.98000002
   20.79500008   -1.00000000    1.55999994    1.98000002
   20.79861069   -1.00000000    1.55999994    1.98000002
   20.80194283   -1.00000000    1.55999994    1.98000002
   20.80499840   -1.00000000    1.55999994    1.98000002
