    HOUR (UT)   FLARE FACTOR    SKY TESTER    SUN TESTER
   11.26305580   -1.00000000   -1.00000000   -1.00000000
   11.29944515  200.72700500    4.38999987    2.03999996
   11.30249977  204.47300720    4.36999989    2.03999996
   11.30583382  213.19900513    4.36999989    2.05999994
   11.30916691  198.21499634    4.34999990    2.05999994
   11.31222248  213.05499268    4.34999990    2.05999994
   11.31555557  204.46000671    4.32999992    2.05999994
   11.31972218  204.46000671    4.30999994    2.05999994
   11.32361126  198.55099487    4.28999996    2.07999992
   11.32694435  204.45599365    4.28999996    2.07999992
   11.33027744  194.19200134    4.26999998    2.07999992
   11.33249950  211.67399597    4.26000023    2.07999992
   11.33388901  200.55599976    4.26000023    2.07999992
   11.33722210  201.48500061    4.26000023    2.07999992
   11.34027767  206.31100464    4.23999977    2.07999992
   11.34361076  197.66600037    4.23999977    2.07999992
   11.34694386  196.82200623    4.19999981    2.09999990
   11.35000038  209.40499878    4.19999981    2.09999990
   11.35333347  193.79299927    4.19999981    2.09999990
   11.35638905  201.64700317    4.17999983    2.09999990
   11.36250019  201.64700317    4.13999987    2.09999990
   11.36666679  211.30700684    4.13999987    2.09999990
   11.36972237  186.21200562    4.13999987    2.09999990
   11.37305546  188.08299255    4.11999989    2.09999990
   11.37638855  212.98800659    4.11999989    2.11999989
   11.37944412  186.02499390    4.09999990    2.11999989
   11.38277817  192.46600342    4.09999990    2.11999989
   11.38611126  180.64500427    4.07999992    2.11999989
   11.38916683  191.62500000    4.07999992    2.11999989
   11.39249992  196.21400452    4.05999994    2.13000011
   11.39583302  197.11399841    4.05999994    2.13000011
   11.39888859  190.39399719    4.05999994    2.13000011
   11.39944458  187.60400391    4.05999994    2.13000011
   11.40527725  187.60400391    4.01999998    2.13000011
   11.40944386  171.19900513    4.01999998    2.13000011
   11.41277695  186.35800171    4.00000000    2.13000011
   11.41583252  183.64399719    4.00000000    2.13000011
   11.41916656  198.76800537    3.99000001    2.13000011
   11.42222214  178.78199768    3.99000001    2.13000011
   11.42555618  181.71400452    3.99000001    2.13000011
   11.42888927  200.22200012    3.97000003    2.13000011
   11.43194485  199.24899292    3.97000003    2.15000010
   11.43277836  192.54200745    3.97000003    2.15000010
   11.43583298  197.59700012    3.95000005    2.15000010
   11.43888855  194.69700623    3.95000005    2.15000010
   11.44222260  190.32099915    3.95000005    2.15000010
   11.44805527  190.32099915    3.93000007    2.15000010
   11.45222187  170.92999268    3.93000007    2.15000010
   11.45555496  196.82600403    3.91000009    2.15000010
   11.45861053  176.96099854    3.91000009    2.17000008
   11.46194458  186.16400146    3.91000009    2.17000008
   11.46527767  191.80000305    3.91000009    2.17000008
   11.46611118  176.77000427    3.89000010    2.17000008
   11.46888828  185.68899536    3.89000010    2.17000008
   11.47194386  182.72099304    3.89000010    2.17000008
   11.47527695  187.97300720    3.86999989    2.17000008
   11.47833252  184.44500732    3.86999989    2.17000008
   11.48166656  185.55900574    3.84999990    2.17000008
   11.48500061  181.40299988    3.84999990    2.17000008
   11.49111176  181.40299988    3.82999992    2.17000008
   11.49499989  188.35600281    3.82999992    2.17000008
   11.49833393  187.19900513    3.82999992    2.19000006
   11.49944496  186.50700378    3.82999992    2.19000006
   11.50194454  172.30700684    3.82999992    2.19000006
   11.50500011  194.97900391    3.82999992    2.19000006
   11.50833321  180.64799500    3.82999992    2.19000006
   11.51166630  181.77000427    3.82999992    2.19000006
   11.51472187  186.16600037    3.82999992    2.21000004
   11.51805496  190.45599365    3.80999994    2.19000006
   11.52111053  192.53300476    3.78999996    2.21000004
   11.52444458  175.62600708    3.76999998    2.21000004
   11.52777767  191.25199890    3.75000000    2.21000004
   11.53388977  191.25199890    3.72000003    2.21000004
   11.53805637  182.25799561    3.68000007    2.21000004
   11.54111195  181.79899597    3.66000009    2.21000004
   11.54444504  171.25399780    3.64000010    2.21000004
   11.54750061  171.41400146    3.61999989    2.21000004
   11.55083370  176.12899780    3.59999990    2.23000002
   11.55416679  174.66700745    3.59999990    2.23000002
   11.55749989  174.57299805    3.57999992    2.23000002
   11.56055546  177.81799316    3.57999992    2.23000002
   11.56388950  180.96200562    3.55999994    2.23000002
   11.56611156  172.25399780    3.55999994    2.23000002
   11.56750011  171.82499695    3.55999994    2.25000000
   11.57055569  170.36999512    3.55999994    2.25000000
   11.57666683  170.36999512    3.51999998    2.25000000
   11.58083344  178.40800476    3.50000000    2.25000000
   11.58388901  172.65699768    3.50000000    2.25000000
   11.58722210  175.75199890    3.50000000    2.25000000
   11.59055519  178.28700256    3.48000002    2.25000000
   11.59361076  171.81300354    3.46000004    2.25000000
   11.59722233  177.03399658    3.46000004    2.25000000
   11.59944439  176.31799316    3.45000005    2.25000000
   11.60083389  177.96699524    3.45000005    2.25000000
   11.60388947  167.32499695    3.45000005    2.25000000
   11.60722256  176.44799805    3.45000005    2.26999998
   11.61055565  173.87500000    3.45000005    2.26999998
   11.61361122  171.76199341    3.43000007    2.25000000
   11.61944485  171.76199341    3.43000007    2.26999998
   11.62361145  181.68400574    3.41000009    2.26999998
   11.62694454  165.69900513    3.41000009    2.26999998
   11.63000011  181.22700500    3.41000009    2.26999998
   11.63277817  168.74299622    3.39000010    2.26999998
   11.63388920  175.83500671    3.39000010    2.26999998
   11.63694477  167.01499939    3.39000010    2.26999998
   11.64027786  172.01800537    3.39000010    2.28999996
   11.64361095  168.70500183    3.39000010    2.28999996
   11.64666653  172.31300354    3.39000010    2.28999996
   11.64999962  171.16799927    3.39000010    2.26999998
   11.65305519  169.08900452    3.36999989    2.26999998
   11.65638828  164.17700195    3.36999989    2.28999996
   11.66249943  164.17700195    3.36999989    2.28999996
   11.66638851  155.19700623    3.36999989    2.28999996
   11.66972256  171.93099976    3.36999989    2.28999996
   11.67305565  174.69400024    3.36999989    2.28999996
   11.67611122  157.56900024    3.36999989    2.30999994
   11.67944431  165.64999390    3.34999990    2.30999994
   11.68249989  147.96600342    3.34999990    2.28999996
   11.68583298  163.54800415    3.34999990    2.30999994
   11.68916702  168.50199890    3.34999990    2.30999994
   11.69222260  159.01499939    3.32999992    2.30999994
   11.69555569  163.84399414    3.32999992    2.30999994
   11.69888878  155.80099487    3.32999992    2.30999994
   11.69944477  156.07400513    3.32999992    2.30999994
   11.70527744  156.07400513    3.32999992    2.30999994
   11.70944405  158.14300537    3.30999994    2.30999994
   11.71249962  156.67500305    3.30999994    2.30999994
   11.71583271  168.24299622    3.28999996    2.32999992
   11.71916580  162.05099487    3.28999996    2.30999994
   11.72222137  154.85099792    3.28999996    2.30999994
   11.72555542  166.80200195    3.26999998    2.30999994
   11.72888851  162.21699524    3.26999998    2.30999994
   11.73194408  154.38900757    3.26999998    2.30999994
   11.73277760  152.10200500    3.26999998    2.30999994
   11.73555565  160.61199951    3.26999998    2.30999994
   11.73861122  159.43899536    3.23000002    2.32999992
   11.74194431  154.77299500    3.23000002    2.32999992
   11.74805546  154.77299500    3.21000004    2.32999992
   11.75222206  156.08000183    3.21000004    2.32999992
   11.75555515  159.38000488    3.20000005    2.32999992
   11.75861073  165.25000000    3.20000005    2.32999992
   11.76194477  155.07299805    3.20000005    2.32999992
   11.76500034  158.26400757    3.18000007    2.32999992
   11.76611137  164.69900513    3.18000007    2.34999990
   11.76888847  160.97999573    3.16000009    2.32999992
   11.77194405  168.09899902    3.16000009    2.32999992
   11.77527714  168.86999512    3.14000010    2.34999990
   11.77861118  162.14399719    3.16000009    2.34999990
   11.78166676  163.56300354    3.14000010    2.34999990
   11.78500080  155.00599670    3.11999989    2.34999990
   11.79083347  155.00599670    3.11999989    2.34999990
   11.79500008  167.88499451    3.11999989    2.34999990
   11.79833412  153.20100403    3.09999990    2.34999990
   11.79972267  157.87800598    3.09999990    2.36999989
   11.80222225  156.30900574    3.20000005    2.34999990
   11.80555534  166.08999634    3.34999990    2.34999990
   11.80888939  164.75500488    3.51999998    2.36999989
   11.81194496  165.32200623    3.68000007    2.36999989
   11.81527805  162.88099670    3.76999998    2.36999989
   11.81833363  169.42500305    3.86999989    2.36999989
   11.82166672  160.96699524    3.99000001    2.36999989
   11.82499981  157.72300720    4.11999989    2.36999989
   11.82805538  159.92100525    4.26999998    2.36999989
   11.83388901  159.92100525    4.48999977    2.32999992
   11.83777714  164.17300415    4.63999987    2.32999992
   11.84111118  156.77000427    4.80000019    2.34999990
   11.84444427  172.99499512    4.90999985    2.34999990
   11.84749985  161.93800354    4.90999985    2.34999990
   11.85083389  164.62500000    4.90999985    2.32999992
   11.85416698  162.22700500    4.90999985    2.32999992
   11.85722256  167.06100464    4.90999985    2.32999992
   11.86055565  164.11900330    4.90999985    2.32999992
   11.86361122  162.93099976    4.90999985    2.34999990
   11.86611176  158.46800232    4.90999985    2.34999990
   11.86750031  159.47599792    4.90999985    2.34999990
   11.87055588  154.58500671    4.90999985    2.34999990
   11.87666702  154.58500671    4.90999985    2.36999989
   11.88083363  158.38600159    4.84999990    2.36999989
   11.88416672  161.94700623    4.73999977    2.36999989
   11.88722229  161.12199402    4.59999990    2.36999989
   11.89055538  160.95700073    4.44999981    2.39000010
   11.89361095  152.08200073    4.23999977    2.39000010
   11.89694405  163.10699463    4.07999992    2.39000010
   11.89944458  154.74699402    3.95000005    2.39000010
   11.90055561  156.22900391    3.89000010    2.39000010
   11.90361118  149.75199890    3.72000003    2.39000010
   11.90694427  156.54800415    3.46000004    2.39000010
   11.91027737  146.12699890    3.30999994    2.40000010
   11.91333294  155.17199707    3.18000007    2.40000010
   11.91944504  155.17199707    2.98000002    2.40000010
   11.92361164  157.81799316    2.91000009    2.40000010
   11.92694473  164.21200562    2.86999989    2.40000010
   11.93000031  156.63200378    2.86999989    2.40000010
   11.93277836  151.57200623    2.84999990    2.40000010
   11.93361092  144.79899597    2.84999990    2.40000010
   11.93666649  165.43800354    2.84999990    2.40000010
   11.94000053  156.65699768    2.82999992    2.40000010
   11.94333363  157.55000305    2.82999992    2.40000010
   11.94638920  153.47900391    2.82999992    2.40000010
   11.94972229  164.90800476    2.82999992    2.40000010
   11.95305538  155.84800720    2.80999994    2.42000008
   11.95611095  158.25399780    2.80999994    2.40000010
   11.96222210  158.25399780    2.80999994    2.42000008
   11.96638870  153.65600586    2.78999996    2.42000008
   11.96972179  158.95799255    2.78999996    2.42000008
   11.97277737  153.26199341    2.78999996    2.42000008
   11.97611046  151.74499512    2.78999996    2.42000008
   11.97944355  160.96699524    2.78999996    2.42000008
   11.98249912  160.74299622    2.76999998    2.42000008
   11.98583317  155.50199890    2.76999998    2.42000008
   11.98916721  148.74200439    2.76999998    2.44000006
   11.99222279  152.19599915    2.76999998    2.42000008
   11.99555588  163.05400085    2.76999998    2.42000008
   11.99861145  152.61799622    2.75000000    2.42000008
   11.99944496  162.17900085    2.75000000    2.42000008
   12.00527763  162.17900085    2.75000000    2.42000008
   12.00916672  153.02099609    2.75000000    2.42000008
   12.01249981  152.04800415    2.75000000    2.44000006
   12.01583290  162.12100220    2.76999998    2.42000008
   12.01888847  150.39500427    2.78999996    2.44000006
   12.02222157  159.19900513    2.84999990    2.44000006
   12.02555561  148.43899536    2.91000009    2.44000006
   12.02861118  162.25300598    2.94000006    2.44000006
   12.03194427  159.62699890    2.98000002    2.46000004
   12.03277779  165.60699463    2.98000002    2.46000004
   12.03555584  162.06900024    3.00000000    2.44000006
   12.03888893  160.01699829    3.01999998    2.42000008
   12.04194450  150.53900146    3.03999996    2.42000008
   12.04805565  150.53900146    3.14000010    2.42000008
   12.05222225  162.50700378    3.21000004    2.42000008
   12.05527782  166.59199524    3.25000000    2.42000008
   12.05861092  158.71800232    3.25000000    2.42000008
   12.06194496  165.24600220    3.23000002    2.42000008
   12.06500053  150.78100586    3.20000005    2.44000006
   12.06611156  150.57400513    3.18000007    2.44000006
   12.06861115  159.38999939    3.14000010    2.46000004
   12.07194424  153.87500000    3.07999992    2.44000006
   12.07499981  162.97799683    2.98000002    2.44000006
   12.07833290  158.22399902    2.91000009    2.46000004
   12.08138847  154.36900330    2.82999992    2.46000004
   12.08472157  157.14100647    2.78999996    2.46000004
   12.09083271  157.14100647    2.69000006    2.46000004
   12.09499931  157.24299622    2.67000008    2.46000004
   12.09833336  164.60499573    2.64000010    2.46000004
   12.09944439  156.70399475    2.64000010    2.46000004
   12.10194492  152.50199890    2.64000010    2.46000004
   12.10527802  151.19700623    2.61999989    2.46000004
   12.10833359  149.81199646    2.64000010    2.46000004
   12.11166668  157.84700012    2.64000010    2.46000004
   12.11472225  149.07899475    2.64000010    2.46000004
   12.11805534  166.03500366    2.64000010    2.46000004
   12.12138939  155.53599548    2.64000010    2.46000004
   12.12444496  149.11199951    2.66000009    2.46000004
   12.12777805  156.51400757    2.67000008    2.48000002
   12.13361073  156.51400757    2.69000006    2.46000004
   12.13777733  156.41499329    2.71000004    2.46000004
   12.14111137  149.24800110    2.69000006    2.46000004
   12.14416695  155.04499817    2.69000006    2.46000004
   12.14750004  154.31100464    2.67000008    2.46000004
   12.15083313  150.97300720    2.67000008    2.48000002
   12.15388870  149.21899414    2.66000009    2.48000002
   12.15722179  151.81799316    2.64000010    2.48000002
   12.16055489  156.18299866    2.61999989    2.48000002
   12.16361046  151.30499268    2.61999989    2.48000002
   12.16611099  154.60000610    2.59999990    2.48000002
   12.16722298  155.33299255    2.59999990    2.48000002
   12.17055607  147.54899597    2.57999992    2.48000002
   12.17666721  147.54899597    2.51999998    2.48000002
   12.18055630  144.56100464    2.50000000    2.50000000
   12.18388939  150.12699890    2.50000000    2.48000002
   12.18722248  154.97300720    2.50000000    2.50000000
   12.19027805  159.71499634    2.50000000    2.48000002
   12.19361115  147.93299866    2.50000000    2.50000000
   12.19694424  154.61500549    2.50000000    2.48000002
   12.19944477  148.85699463    2.48000002    2.50000000
   12.20055580  153.30799866    2.48000002    2.50000000
   12.20388889  155.76100159    2.48000002    2.48000002
   12.20694447  149.69400024    2.50000000    2.50000000
   12.21027756  145.09899902    2.50000000    2.50000000
   12.21333313  152.15800476    2.50000000    2.50000000
   12.21944427  152.15800476    2.50000000    2.50000000
   12.22361088  147.88000488    2.50000000    2.48000002
   12.22666645  152.22999573    2.48000002    2.51999998
   12.22999954  152.25799561    2.48000002    2.51999998
   12.23277760  157.16600037    2.46000004    2.50000000
   12.23361111  167.04699707    2.48000002    2.50000000
   12.23694515  151.94299316    2.48000002    2.50000000
   12.24000072  150.86099243    2.46000004    2.50000000
   12.24333382  145.31500244    2.46000004    2.50000000
   12.24638939  146.22500610    2.46000004    2.50000000
   12.24972248  150.67999268    2.46000004    2.50000000
   12.25305557  150.92599487    2.48000002    2.50000000
   12.25611115  152.30599976    2.48000002    2.51999998
   12.26222229  152.30599976    2.51999998    2.51999998
   12.26638889  147.97000122    2.53999996    2.51999998
   12.26972198  153.33299255    2.53999996    2.51999998
   12.27277756  149.66000366    2.55999994    2.50000000
   12.27611065  148.71600342    2.59999990    2.50000000
   12.27916622  162.94799805    2.64000010    2.50000000
   12.28249931  154.23699951    2.67000008    2.51999998
   12.28583336  159.15699768    2.78999996    2.50000000
   12.28888893  152.33500671    2.94000006    2.50000000
   12.29222298  142.86799622    3.09999990    2.51999998
   12.29555607  143.46899414    3.23000002    2.50000000
   12.29861164  152.90600586    3.32999992    2.50000000
   12.29944515  154.11300659    3.36999989    2.50000000
   12.31999969  154.11300659    3.99000001    2.50000000
   12.32416630  157.85099792    4.19999981    2.50000000
   12.32750034  153.48500061    4.42999983    2.48000002
   12.33083344  153.32499695    4.65999985    2.48000002
   12.33277798  162.81799316    4.80000019    2.48000002
   12.33444405  161.40899658    4.90999985    2.50000000
   12.33777714  172.41200256    4.90999985    2.46000004
   12.34111118  155.65199280    4.90999985    2.48000002
   12.34416676  160.11199951    4.90999985    2.46000004
   12.34749985  156.60200500    4.90999985    2.50000000
   12.35083389  160.45700073    4.90999985    2.46000004
   12.35388947  162.87100220    4.90999985    2.46000004
   12.35722256  167.85800171    4.90999985    2.48000002
   12.36277771  167.85800171    4.90999985    2.40000010
   12.36694431  173.96800232    4.90999985    2.48000002
   12.37027836  158.51600647    4.90999985    2.50000000
   12.37361145  162.88999939    4.90999985    2.50000000
   12.37666702  159.51400757    4.90999985    2.51999998
   12.38000011  161.10000610    4.78000021    2.53999996
   12.38305569  156.16400146    3.97000003    2.50000000
   12.38638878  152.51800537    3.73000002    2.51999998
   12.38972187  151.23300171    3.59999990    2.53999996
   12.39277744  148.98199463    3.39000010    2.53999996
   12.39611053  154.37800598    3.14000010    2.53999996
   12.39944458  153.13499451    2.86999989    2.55999994
   12.39972210  155.07099915    2.78999996    2.53999996
   12.40583324  155.07099915    2.50000000    2.53999996
   12.40999985  149.22900391    2.46000004    2.53999996
   12.41305542  154.70399475    2.50000000    2.53999996
   12.41638851  155.46699524    2.53999996    2.53999996
   12.41944504  151.39399719    2.55999994    2.53999996
   12.42277813  158.14300537    2.57999992    2.53999996
   12.42611122  150.17799377    2.59999990    2.55999994
   12.42916679  148.18600464    2.59999990    2.55999994
   12.43249989  154.74699402    2.59999990    2.53999996
   12.43361092  165.89900208    2.59999990    2.55999994
   12.43638897  150.41700745    2.57999992    2.55999994
   12.43972206  155.93600464    2.53999996    2.53999996
   12.44305515  152.05200195    2.50000000    2.53999996
   12.44861126  152.05200195    2.40000010    2.55999994
   12.45277786  153.33200073    2.32999992    2.55999994
   12.45583344  151.79600525    2.28999996    2.55999994
   12.45916653  154.65499878    2.26999998    2.55999994
   12.46249962  156.61700439    2.26999998    2.55999994
   12.46555519  148.67700195    2.26999998    2.55999994
   12.46638870  148.22399902    2.26999998    2.55999994
   12.46916580  157.04299927    2.26999998    2.55999994
   12.47249985  159.85699463    2.26999998    2.55999994
   12.47555542  146.45700073    2.26999998    2.55999994
   12.47888851  154.30999756    2.28999996    2.55999994
   12.48194408  152.76300049    2.28999996    2.55999994
   12.48527813  149.21899414    2.28999996    2.55999994
   12.49138927  149.21899414    2.32999992    2.57999992
   12.49555588  142.78300476    2.39000010    2.55999994
   12.49888897  150.70899963    2.42000008    2.55999994
   12.49972248  147.77699280    2.44000006    2.55999994
   12.50249958  148.14700317    2.48000002    2.55999994
   12.50583363  150.70100403    2.48000002    2.55999994
   12.50888920  149.53599548    2.48000002    2.55999994
   12.51222229  157.00900269    2.48000002    2.55999994
   12.51555538  146.57600403    2.50000000    2.55999994
   12.51861095  146.71499634    2.51999998    2.55999994
   12.52194405  146.19700623    2.51999998    2.55999994
   12.52499962  152.66299438    2.50000000    2.57999992
   12.52833271  153.33599854    2.46000004    2.55999994
   12.53416729  153.33599854    2.42000008    2.55999994
   12.53833389  154.90699768    2.40000010    2.57999992
   12.54166698  147.03599548    2.39000010    2.57999992
   12.54472256  149.40299988    2.34999990    2.57999992
   12.54805565  147.29299927    2.32999992    2.57999992
   12.55138874  153.20899963    2.26999998    2.57999992
   12.55444431  154.59399414    2.26999998    2.57999992
   12.55777836  152.80700684    2.26999998    2.57999992
   12.56111145  145.27799988    2.26999998    2.57999992
   12.56416702  146.50500488    2.26999998    2.57999992
   12.56638908  153.88499451    2.30999994    2.57999992
   12.56777763  158.43400574    2.30999994    2.57999992
   12.57111073  163.10600281    2.32999992    2.57999992
   12.57722187  163.10600281    2.36999989    2.59999990
   12.58138847  156.72300720    2.36999989    2.57999992
   12.58444405  159.50199890    2.30999994    2.57999992
   12.58777714  155.85600281    2.28999996    2.59999990
   12.59083271  150.37399292    2.28999996    2.57999992
   12.59416676  154.30799866    2.25000000    2.57999992
   12.59749985  162.05599976    2.25000000    2.57999992
   12.59972191  148.43400574    2.25000000    2.57999992
   12.60111141  156.96099854    2.25000000    2.57999992
   12.60444450  153.84899902    2.23000002    2.57999992
   12.60750008  159.02200317    2.21000004    2.57999992
   12.61083412  156.13900757    2.19000006    2.59999990
   12.61416721  157.20599365    2.19000006    2.59999990
   12.61999989  157.20599365    2.17000008    2.57999992
   12.62416649  154.95799255    2.15000010    2.57999992
   12.62722206  151.97999573    2.15000010    2.59999990
   12.63055611  145.02499390    2.17000008    2.59999990
   12.63305569  152.79499817    2.17000008    2.59999990
   12.63416672  156.81500244    2.17000008    2.59999990
   12.63749981  160.72099304    2.17000008    2.57999992
   12.64055538  155.97300720    2.17000008    2.59999990
   12.64388847  159.74699402    2.15000010    2.59999990
   12.64694405  152.51199341    2.13000011    2.59999990
   12.65027714  152.16999817    2.13000011    2.59999990
   12.65361118  154.81900024    2.11999989    2.59999990
   12.65666676  155.82400513    2.11999989    2.59999990
   12.66277695  155.82400513    2.11999989    2.59999990
   12.66694450  155.03199768    2.11999989    2.59999990
   12.67027855  152.74800110    2.13000011    2.59999990
   12.67333412  152.82699585    2.09999990    2.59999990
   12.67666721  159.43099976    2.09999990    2.59999990
   12.67972279  157.78199768    2.07999992    2.61999989
   12.68305588  150.56199646    2.05999994    2.61999989
   12.68638897  159.03799438    2.05999994    2.59999990
   12.68944454  162.25300598    2.03999996    2.59999990
   12.69277763  156.62800598    2.03999996    2.61999989
   12.69611073  156.45500183    2.03999996    2.61999989
   12.69916630  154.20500183    2.01999998    2.59999990
   12.69999981  151.75700378    2.01999998    2.61999989
   12.70555496  151.75700378    2.00000000    2.61999989
   12.70972157  153.41799927    2.00000000    2.61999989
   12.71305561  150.25599670    1.98000002    2.61999989
   12.71638870  159.54699707    1.98000002    2.61999989
   12.71944427  148.22000122    1.98000002    2.61999989
   12.72277737  152.80400085    1.98000002    2.59999990
   12.72583294  155.46000671    1.98000002    2.59999990
   12.72916603  150.99800110    2.00000000    2.59999990
   12.73249912  154.03199768    2.01999998    2.59999990
   12.73333359  151.93699646    2.01999998    2.59999990
   12.73583317  157.60400391    2.01999998    2.59999990
   12.73916721  149.99099731    2.01999998    2.59999990
   12.74222279  150.21899414    2.03999996    2.59999990
   12.74861145  150.21899414    2.01999998    2.61999989
   12.75277805  153.41799927    2.01999998    2.61999989
   12.75583363  150.28300476    2.00000000    2.61999989
   12.75916672  155.82699585    2.00000000    2.59999990
   12.76222229  153.81300354    2.00000000    2.61999989
   12.76555538  157.54499817    1.98000002    2.59999990
   12.76638889  150.33000183    1.98000002    2.59999990
   12.76916599  157.69999695    1.98000002    2.59999990
   12.77250004  155.53900146    1.98000002    2.59999990
   12.77555561  154.60000610    1.98000002    2.61999989
   12.77888870  153.37699890    1.96000004    2.61999989
   12.78222179  156.63200378    1.96000004    2.61999989
   12.78527832  162.46800232    1.96000004    2.61999989
   12.79138947  162.46800232    1.96000004    2.64000010
   12.79555607  156.12300110    1.96000004    2.61999989
   12.79861164  149.26600647    1.98000002    2.61999989
   12.79972267  146.56900024    1.98000002    2.61999989
   12.80222225  146.72700500    2.00000000    2.61999989
   12.80555534  141.09899902    2.00000000    2.61999989
   12.80861092  149.47500610    2.01999998    2.59999990
   12.81194496  145.21200562    2.03999996    2.61999989
   12.81527805  146.87899780    2.05999994    2.61999989
   12.81833363  147.40100098    2.07999992    2.61999989
   12.82166672  144.37500000    2.09999990    2.61999989
   12.82472229  143.38299561    2.11999989    2.61999989
   12.82805538  145.53199768    2.13000011    2.64000010
   12.83416653  145.53199768    2.15000010    2.61999989
   12.83833313  155.33299255    2.17000008    2.61999989
   12.84166622  152.84199524    2.19000006    2.61999989
   12.84472179  150.55000305    2.19000006    2.61999989
   12.84805489  155.53700256    2.17000008    2.61999989
   12.85111141  159.02099609    2.17000008    2.61999989
   12.85444450  147.73800659    2.15000010    2.61999989
   12.85777855  163.00500488    2.11999989    2.64000010
   12.86083412  155.00399780    2.05999994    2.61999989
   12.86416721  147.24000549    2.01999998    2.64000010
   12.86638927  154.98300171    2.00000000    2.61999989
   12.86777782  153.39399719    2.00000000    2.61999989
   12.87111092  145.47900391    1.98000002    2.61999989
   12.87694454  145.47900391    1.98000002    2.64000010
   12.88111115  153.66200256    1.98000002    2.61999989
   12.88444424  151.38900757    2.00000000    2.64000010
   12.88749981  149.35299683    2.01999998    2.64000010
   12.89083290  149.23199463    2.01999998    2.64000010
   12.89416695  149.45300293    2.01999998    2.64000010
   12.89722252  148.68099976    2.03999996    2.64000010
   12.89999962  146.17999268    2.01999998    2.64000010
   12.90083313  147.13600159    2.01999998    2.64000010
   12.90416622  150.78399658    2.03999996    2.64000010
   12.90722179  146.19500732    2.07999992    2.64000010
   12.91055489  152.89599609    2.09999990    2.64000010
   12.91388893  152.57000732    2.07999992    2.61999989
   12.92000008  152.57000732    2.19000006    2.61999989
   12.92388916  144.40699768    2.39000010    2.64000010
   12.92722225  149.95100403    2.42000008    2.64000010
   12.93055630  149.08000183    2.42000008    2.61999989
   12.93333340  154.49499512    2.42000008    2.61999989
   12.93416691  151.61399841    2.46000004    2.61999989
   12.93750000  151.41600037    2.66000009    2.61999989
   12.94055557  142.00300598    2.75000000    2.64000010
   12.94388866  149.19700623    2.71000004    2.61999989
   12.94722271  147.80000305    2.67000008    2.61999989
   12.95027733  156.94500732    2.73000002    2.64000010
   12.95361137  152.66700745    2.69000006    2.64000010
   12.95666695  154.30999756    2.55999994    2.64000010
   12.96277714  154.30999756    2.55999994    2.64000010
   12.96694374  144.91999817    2.89000010    2.64000010
   12.96999931  153.10600281    3.26999998    2.61999989
   12.97333336  150.65299988    4.17999983    2.59999990
   12.97666645  157.79100037    4.90999985    2.61999989
   12.97972202  156.36900330    4.90999985    2.57999992
   12.98305511  172.71200562    4.90999985    2.46000004
   12.98611164  166.64599609    4.90999985    2.42000008
   12.98944473  151.98500061    4.90999985    2.50000000
   12.99277782  150.09100342    4.90999985    2.57999992
   12.99583340  148.55400085    4.80999994    2.61999989
   12.99916649  151.95399475    3.41000009    2.66000009
   13.00000000  153.36099243    3.11999989    2.66000009
   13.00555515  153.36099243    2.15000010    2.66000009
   13.00972176  143.16000366    2.13000011    2.66000009
   13.01305580  150.67700195    2.19000006    2.64000010
   13.01611137  147.87899780    2.25000000    2.64000010
   13.01944447  143.81100464    2.23000002    2.66000009
   13.02277756  148.77400208    2.17000008    2.64000010
   13.02583313  147.83999634    2.05999994    2.64000010
   13.02916622  152.76899719    2.00000000    2.66000009
   13.03249931  157.85899353    1.89999998    2.66000009
   13.03333378  152.19000244    1.88000000    2.67000008
   13.03583336  150.84300232    1.91999996    2.66000009
   13.03916740  160.77600098    1.96000004    2.66000009
   13.04222298  157.29600525    2.01999998    2.66000009
   13.04833412  157.29600525    2.05999994    2.66000009
   13.05249977  154.96800232    2.00000000    2.66000009
   13.05583382  154.50199890    2.00000000    2.66000009
   13.05888939  148.34800720    2.00000000    2.66000009
   13.06222248  157.49299622    1.96000004    2.66000009
   13.06555557  159.97900391    1.96000004    2.66000009
   13.06666660  152.97000122    1.96000004    2.66000009
   13.06888866  154.20700073    1.98000002    2.66000009
   13.07222176  152.69999695    1.98000002    2.64000010
   13.07527733  157.25199890    2.01999998    2.66000009
   13.07861137  152.98599243    2.03999996    2.66000009
   13.08194447  149.55599976    2.05999994    2.66000009
   13.08500004  153.14300537    2.03999996    2.66000009
   13.09138870  153.14300537    2.01999998    2.66000009
   13.09527779  156.49299622    2.00000000    2.66000009
   13.09861088  152.00700378    1.98000002    2.67000008
   13.10000038  154.55599976    1.98000002    2.66000009
   13.10222244  149.99800110    1.98000002    2.66000009
   13.10555553  155.07400513    1.98000002    2.67000008
   13.10888958  154.63900757    1.98000002    2.67000008
   13.11194515  151.42599487    1.96000004    2.66000009
   13.11527824  151.03900146    1.91999996    2.67000008
   13.11861134  158.95300293    1.89999998    2.66000009
   13.12166691  155.36799622    1.89999998    2.66000009
   13.12500000  151.57400513    1.96000004    2.66000009
   13.12805557  154.95100403    2.03999996    2.66000009
   13.13416672  154.95100403    2.11999989    2.67000008
   13.13833332  147.77900696    2.21000004    2.67000008
   13.14138889  141.93699646    2.36999989    2.67000008
   13.14472198  156.57600403    2.44000006    2.66000009
   13.14805508  154.88699341    2.57999992    2.66000009
   13.15111065  152.57099915    2.73000002    2.64000010
   13.15444374  158.08000183    2.84999990    2.66000009
   13.15749931  153.44299316    2.96000004    2.66000009
   13.16083336  155.84199524    3.09999990    2.66000009
   13.16416645  152.08500671    3.36999989    2.66000009
   13.16666698  157.86000061    3.80999994    2.64000010
   13.16750050  150.06700134    3.97000003    2.66000009
   13.17083359  153.19900513    4.17999983    2.64000010
   13.17694473  153.19900513    3.66000009    2.61999989
   13.18111134  147.87199402    3.43000007    2.66000009
   13.18444443  144.59300232    3.20000005    2.67000008
   13.18750000  152.06700134    2.75000000    2.66000009
   13.19083309  144.37600708    2.46000004    2.66000009
   13.19416714  150.61099243    2.30999994    2.67000008
   13.19722271  152.60499573    2.23000002    2.67000008
   13.19999981  148.70799255    2.13000011    2.69000006
   13.20083332  145.30700684    2.09999990    2.69000006
   13.20416641  153.79699707    1.86000001    2.67000008
   13.20722198  153.27999878    1.78999996    2.67000008
   13.21055508  146.87300110    1.73000002    2.67000008
   13.21388912  149.99299622    1.64999998    2.67000008
   13.21972179  149.99299622    1.60000002    2.67000008
   13.22388840  154.23899841    1.58000004    2.69000006
   13.22722149  150.04200745    1.55999994    2.67000008
   13.23027706  149.14199829    1.55999994    2.67000008
   13.23333359  156.79299927    1.58000004    2.69000006
   13.23388958  159.61099243    1.60000002    2.69000006
   13.23722267  150.63499451    1.58000004    2.69000006
   13.24027824  148.52200317    1.58000004    2.69000006
   13.24361134  144.04400635    1.55999994    2.67000008
   13.24694443  150.83799744    1.55999994    2.69000006
   13.25000000  155.39700317    1.55999994    2.69000006
   13.25333309  151.80700684    1.55999994    2.69000006
   13.25666714  151.43299866    1.53999996    2.69000006
   13.26277733  151.43299866    1.53999996    2.69000006
   13.26694393  153.31399536    1.51999998    2.69000006
   13.26999950  154.29400635    1.50000000    2.69000006
   13.27333355  153.99899292    1.50000000    2.69000006
   13.27638817  153.22500610    1.50000000    2.69000006
   13.27972221  150.15800476    1.48000002    2.69000006
   13.28305531  155.72300720    1.48000002    2.71000004
   13.28611183  155.22599792    1.48000002    2.69000006
   13.28944492  162.71800232    1.48000002    2.69000006
   13.29277802  160.21099854    1.48000002    2.69000006
   13.29583359  149.75199890    1.50000000    2.69000006
   13.29916668  151.58999634    1.50000000    2.69000006
   13.30000019  163.40400696    1.50000000    2.69000006
   13.30555534  163.40400696    1.51999998    2.69000006
   13.30972195  154.19000244    1.53999996    2.69000006
   13.31277752  151.09399414    1.55999994    2.69000006
   13.31611156  154.42199707    1.55999994    2.69000006
   13.33361053  155.27200317    1.63000000    2.69000006
   13.33611107  148.63000488    1.63000000    2.69000006
   13.33916664  155.18400574    1.63000000    2.69000006
   13.34249973  149.15499878    1.64999998    2.69000006
   13.34861088  149.15499878    1.63000000    2.69000006
   13.35249996  143.79699707    1.61000001    2.69000006
   13.35583401  155.92300415    1.61000001    2.69000006
   13.35916710  150.52999878    1.61000001    2.69000006
   13.36222267  151.55599976    1.60000002    2.69000006
   13.36555576  156.02299500    1.60000002    2.69000006
   13.36694431  158.43299866    1.60000002    2.69000006
   13.36944485  155.38000488    1.60000002    2.69000006
   13.37250042  153.98399353    1.58000004    2.69000006
   13.37583351  150.51800537    1.55999994    2.71000004
   13.37916660  153.65499878    1.53999996    2.69000006
   13.38222218  158.88299561    1.53999996    2.69000006
   13.38555527  157.41200256    1.53999996    2.69000006
   13.39138889  157.41200256    1.48000002    2.71000004
   13.39555550  154.51400757    1.44000006    2.69000006
   13.39861107  171.93299866    1.44000006    2.69000006
   13.40027714  163.67900085    1.44000006    2.69000006
   13.40249920  163.30900574    1.44000006    2.71000004
   13.40555477  148.48300171    1.44000006    2.71000004
   13.40888882  164.28599548    1.44000006    2.71000004
   13.41222191  161.64199829    1.44000006    2.71000004
   13.41527748  163.01400757    1.41999996    2.69000006
   13.41861153  154.18400574    1.44000006    2.69000006
   13.42166710  155.86700439    1.44000006    2.69000006
   13.42500019  160.94599915    1.44000006    2.71000004
   13.42833328  150.21899414    1.44000006    2.71000004
   13.43416691  150.21899414    1.44000006    2.71000004
   13.43833351  158.69999695    1.48000002    2.71000004
   13.44166660  163.73300171    1.50000000    2.71000004
   13.44472218  171.56700134    1.55999994    2.69000006
   13.44805527  160.09899902    1.58000004    2.71000004
   13.45111084  157.19099426    1.58000004    2.71000004
   13.45444393  158.86700439    1.58000004    2.69000006
   13.45777798  160.75900269    1.60000002    2.71000004
   13.46083355  161.24600220    1.60000002    2.71000004
   13.46416664  171.34599304    1.60000002    2.69000006
   13.46694374  152.43200684    1.58000004    2.71000004
   13.46777725  163.15699768    1.58000004    2.71000004
   13.47083282  169.44500732    1.53999996    2.71000004
   13.47694397  169.44500732    1.50000000    2.71000004
   13.48111057  160.73300171    1.50000000    2.71000004
   13.48444462  153.80900574    1.48000002    2.71000004
   13.48777771  164.03199768    1.48000002    2.71000004
   13.49083328  162.23699951    1.46000004    2.71000004
   13.49416733  174.11399841    1.46000004    2.71000004
   13.49722290  178.49800110    1.46000004    2.71000004
   13.50027752  173.85600281    1.46000004    2.71000004
   13.50111103  164.51699829    1.46000004    2.71000004
   13.50416660  177.95100403    1.44000006    2.71000004
   13.50749969  164.91700745    1.46000004    2.71000004
   13.51083374  163.08299255    1.44000006    2.71000004
   13.51388931  173.01899719    1.44000006    2.71000004
   13.51999950  173.01899719    1.44000006    2.71000004
   13.52388859  180.03999329    1.46000004    2.71000004
   13.52722168  175.47999573    1.44000006    2.71000004
   13.53055573  167.14999390    1.41999996    2.73000002
   13.53361130  165.69900513    1.41999996    2.71000004
   13.53416729  175.42300415    1.41999996    2.71000004
   13.53750038  167.73800659    1.41999996    2.71000004
   13.54055595  183.95500183    1.41999996    2.71000004
   13.54388905  167.51800537    1.39999998    2.71000004
   13.54694462  162.18699646    1.39999998    2.71000004
   13.55027771  161.67399597    1.39999998    2.71000004
   13.55361176  168.67900085    1.38000000    2.71000004
   13.55666733  158.15299988    1.38000000    2.71000004
   13.56277752  158.15299988    1.36000001    2.73000002
   13.56694412  170.56599426    1.38000000    2.73000002
   13.56722260  157.92599487    1.38000000    2.73000002
   13.57055569  151.34599304    1.38000000    2.71000004
   13.57388878  160.78999329    1.44000006    2.73000002
   13.57694435  163.04299927    1.46000004    2.73000002
   13.58027744  163.24499512    1.46000004    2.73000002
   13.58361053  152.31100464    1.50000000    2.71000004
   13.58666611  162.13699341    1.58000004    2.73000002
   13.59000015  168.91600037    1.58000004    2.73000002
   13.59305477  167.38200378    1.61000001    2.73000002
   13.59638882  174.62100220    1.53999996    2.73000002
   13.59972191  165.32800293    1.50000000    2.73000002
   13.60083389  173.83999634    1.50000000    2.73000002
   13.60555553  173.83999634    1.39999998    2.73000002
   13.60972214  174.07699585    1.39999998    2.73000002
   13.61305618  174.29400635    1.39999998    2.73000002
   13.61611176  167.92700195    1.39999998    2.73000002
   13.61944485  161.05900574    1.39999998    2.73000002
   13.62277794  164.19700623    1.41999996    2.73000002
   13.62583351  156.72599792    1.39999998    2.73000002
   13.62916660  157.08299255    1.39999998    2.73000002
   13.63249969  158.38400269    1.39999998    2.73000002
   13.63388920  160.50399780    1.39999998    2.73000002
   13.63583279  158.06700134    1.41999996    2.73000002
   13.63916683  161.94200134    1.41999996    2.73000002
   13.64222240  168.56799316    1.36000001    2.73000002
   13.64833355  168.56799316    1.34000003    2.73000002
   13.65249920  166.33299255    1.34000003    2.73000002
   13.65583324  166.24499512    1.33000004    2.73000002
   13.65888882  169.06900024    1.30999994    2.73000002
   13.66222191  151.74800110    1.26999998    2.73000002
   13.66555500  160.94099426    1.26999998    2.73000002
   13.66750050  163.66200256    1.26999998    2.75000000
   13.66916656  159.72900391    1.26999998    2.75000000
   13.67250061  164.10600281    1.26999998    2.75000000
   13.67555618  160.13000488    1.30999994    2.73000002
   13.67888927  161.82499695    1.28999996    2.73000002
   13.68222237  166.85699463    1.28999996    2.73000002
   13.68527794  167.24899292    1.28999996    2.73000002
   13.69138908  167.24899292    1.28999996    2.75000000
   13.69527817  164.33700562    1.33000004    2.73000002
   13.69861126  161.09599304    1.33000004    2.73000002
   13.70083332  161.26499939    1.34000003    2.73000002
   13.70222187  177.24000549    1.34000003    2.73000002
   13.70555496  170.31500244    1.33000004    2.75000000
   13.70888901  170.96600342    1.33000004    2.75000000
   13.71194458  170.99200439    1.33000004    2.73000002
   13.71527767  164.66700745    1.33000004    2.73000002
   13.71861076  167.89799500    1.33000004    2.73000002
   13.72166634  163.47599792    1.34000003    2.73000002
   13.72499943  160.87800598    1.36000001    2.73000002
   13.72805500  166.50700378    1.36000001    2.73000002
   13.73416710  166.50700378    1.38000000    2.75000000
   13.73833370  170.70500183    1.39999998    2.75000000
   13.74138927  173.31599426    2.03999996    2.71000004
   13.74472237  170.49000549    1.96000004    2.73000002
   13.74805546  158.46899414    1.86000001    2.75000000
   13.75111103  159.99299622    1.69000006    2.73000002
   13.75444412  158.07499695    1.46000004    2.73000002
   13.75777817  168.78500366    1.41999996    2.73000002
   13.76111126  161.42700195    1.41999996    2.73000002
   13.76416683  165.35400391    1.51999998    2.75000000
   13.76749992  174.80200195    4.88999987    2.75000000
   13.76777744  199.48100281    4.90999985    2.75000000
   13.77111053  164.55299377    4.90999985    2.48000002
   13.77694416  164.55299377    4.90999985    2.69000006
   13.78111076  168.83999634    4.90999985    2.67000008
   13.78444481  170.02299500    4.90999985    2.69000006
   13.78750038  168.74699402    4.90999985    2.69000006
   13.79083347  179.03100586    4.90999985    2.67000008
   13.79388905  174.78199768    4.90999985    2.53999996
   13.79722309  180.41200256    4.90999985    2.59999990
   13.80055618  176.03900146    4.90999985    2.57999992
   13.80083370  178.81100464    4.90999985    2.57999992
   13.80416679  186.35099792    4.90999985    2.50000000
   13.80749989  170.64799500    4.90999985    2.55999994
   13.81055546  198.36799622    4.90999985    2.46000004
   13.81388950  170.75100708    4.90999985    2.39000010
   13.81972218  170.75100708    4.90999985    2.40000010
   13.82388878  173.54800415    4.90999985    2.51999998
   13.82722187  209.57800293    4.90999985    2.34999990
   13.83027744  213.75799561    4.90999985    2.36999989
   13.83361053  207.93800354    4.90999985    2.25000000
   13.83416653  209.05499268    4.90999985    2.26999998
   13.83722210  212.93800354    4.90999985    2.32999992
   13.84055519  189.31399536    4.90999985    2.32999992
   13.84361076  186.08299255    4.90999985    2.23000002
   13.84694386  200.55999756    4.90999985    2.28999996
   13.85027790  188.88699341    4.90999985    2.30999994
   13.85333347  196.92700195    4.90999985    2.32999992
   13.85666752  335.89300537    4.90999985    2.07999992
   13.86277771  335.89300537    4.90999985    1.78999996
   13.86666679  270.87600708    4.90999985    1.91999996
   13.86750031  259.07000732    4.90999985    2.00000000
   13.87027836  216.28300476    4.90999985    2.09999990
   13.87361145  202.67199707    4.90999985    2.19000006
   13.87694454  202.07299805    4.90999985    2.21000004
   13.88000011  198.11000061    4.90999985    2.26999998
   13.88333321  247.05099487    4.90999985    2.19000006
   13.88666630  243.14900208    4.90999985    2.03999996
   13.88972187  217.72599792    4.90999985    2.09999990
   13.89305496  203.54100037    4.90999985    2.21000004
   13.89611053  196.78300476    4.90999985    2.23000002
   13.89944458  204.47500610    4.90999985    2.23000002
   13.90083313  187.77400208    4.90999985    2.23000002
   13.90555477  187.77400208    4.90999985    2.26999998
   13.90972137  197.31599426    4.90999985    2.25000000
   13.91277695  207.28300476    4.90999985    2.28999996
   13.91611099  202.67799377    4.90999985    2.21000004
   13.91944504   -1.00000000    4.90999985    2.03999996
   13.92250061  265.50201416    4.90999985    1.88000000
   13.92583370  217.08799744    4.90999985    2.15000010
   13.92888927  207.01800537    4.90999985    2.28999996
   13.93222237  197.46400452    4.90999985    2.28999996
   13.93416691  185.57000732    4.90999985    2.34999990
   13.93583298  187.37300110    4.90999985    2.39000010
   13.93916702  180.58599854    4.90999985    2.42000008
   13.94222260  175.06300354    4.90999985    2.46000004
   13.94833374  175.06300354    4.90999985    2.55999994
   13.95249939  161.31700134    4.90999985    2.61999989
   13.95583344  154.72000122    4.90999985    2.66000009
   13.95888901  161.83399963    4.90999985    2.66000009
   13.96222210  167.02000427    4.90999985    2.67000008
   13.96527767  164.45100403    4.90999985    2.66000009
   13.96777725  159.91600037    4.90999985    2.69000006
   13.96888828  164.77999878    4.84999990    2.69000006
   13.97222137  160.88099670    4.57999992    2.71000004
   13.97527695  165.63900757    4.01999998    2.73000002
   13.97861099  166.51199341    3.61999989    2.73000002
   13.98194408  167.53799438    3.48000002    2.75000000
   13.98500061  168.89100647    3.55999994    2.75000000
   13.99111176  168.89100647    4.90999985    2.69000006
   13.99527836  161.52499390    4.90999985    2.66000009
   13.99861145  164.00700378    4.90999985    2.76999998
   14.00111103  167.71800232    3.39000010    2.69000006
   14.00222206  162.30700684    3.01999998    2.64000010
   14.00555515  164.69500732    3.28999996    2.78999996
   14.00861073  165.75199890    1.30999994    2.76999998
   14.01194477  151.47999573    1.21000004    2.76999998
   14.01527786  160.21400452    1.21000004    2.75000000
   14.01833344  162.90800476    1.21000004    2.76999998
   14.02166653  151.56799316    1.21000004    2.76999998
   14.02499962  153.54100037    1.21000004    2.76999998
   14.02805519  155.72399902    1.21000004    2.75000000
   14.03416729  155.72399902    1.19000006    2.75000000
   14.03833389  160.53199768    1.19000006    2.76999998
   14.04138947  151.28399658    1.19000006    2.76999998
   14.04472256  161.39900208    1.19000006    2.76999998
   14.04777813  159.27499390    1.19000006    2.76999998
   14.05111122  153.20199585    1.44000006    2.76999998
   14.05444431  158.21499634    1.83000004    2.76999998
   14.05749989  164.50399780    3.32999992    2.76999998
   14.06083393  158.82200623    2.64000010    2.64000010
   14.06388950  160.35400391    4.01999998    2.76999998
   14.06722260  160.78599548    4.23999977    2.78999996
   14.06916618  163.28799438    3.45000005    2.73000002
   14.07083321  155.10000610    3.45000005    2.73000002
   14.07694435  155.10000610    2.91000009    2.76999998
   14.08111095  160.03300476    1.83000004    2.76999998
   14.08416653  161.11300659    1.21000004    2.75000000
   14.08749962  168.39100647    1.21000004    2.76999998
   14.09083271  167.53199768    1.23000002    2.76999998
   14.09388828  162.06799316    1.23000002    2.76999998
   14.09722233  163.80099487    1.23000002    2.76999998
   14.10027790  168.03900146    1.23000002    2.76999998
   14.10249996  172.62500000    1.25000000    2.76999998
   14.10388947  169.55099487    1.25000000    2.76999998
   14.10722256  171.72500610    1.25000000    2.76999998
   14.11055565  159.45599365    1.23000002    2.76999998
   14.11361122  165.55099487    1.25000000    2.76999998
   14.11972237  165.55099487    1.23000002    2.76999998
   14.12388897  163.96000671    1.23000002    2.76999998
   14.12722206  159.99200439    1.21000004    2.76999998
   14.13027763  162.17799377    1.21000004    2.76999998
   14.13361073  161.38499451    1.21000004    2.76999998
   14.13583279  158.73399353    1.19000006    2.76999998
   14.13722229  166.05499268    1.19000006    2.76999998
   14.14055538  162.29699707    1.16999996    2.76999998
   14.14361095  161.12399292    1.16999996    2.76999998
   14.14694405  164.33399963    1.16999996    2.76999998
   14.14999962  159.19400024    1.16999996    2.76999998
   14.15333271  168.16299438    1.16999996    2.76999998
   14.15666676  163.72999573    1.16999996    2.76999998
   14.16249943  163.72999573    1.16999996    2.78999996
   14.16666698  156.48800659    1.16999996    2.76999998
   14.16916656  161.56799316    1.16999996    2.78999996
   14.17027855  172.72700500    1.16999996    2.78999996
   14.17361164  172.66499329    1.16999996    2.78999996
   14.17694473  163.77600098    1.19000006    2.76999998
   14.18027782  170.29400635    1.19000006    2.78999996
   14.18333340  163.69999695    1.21000004    2.78999996
   14.18666649  173.65100098    1.21000004    2.78999996
   14.18972206  168.33299255    1.25000000    2.76999998
   14.19305515  172.51100159    1.33000004    2.76999998
   14.19638920  167.46099854    1.48000002    2.78999996
   14.19944477  172.23300171    3.03999996    2.75000000
   14.20555496  172.23300171    3.39000010    2.75000000
   14.20944405  190.30000305    4.34999990    2.73000002
   14.21277714  178.94999695    4.90999985    2.73000002
   14.21611118  168.69200134    4.90999985    2.73000002
   14.21916580  174.96899414    4.90999985    2.73000002
   14.22249985  188.25700378    4.90999985    2.71000004
   14.22583294  213.99499512    4.90999985    2.57999992
   14.22916603  282.84600830    4.90999985    2.36999989
   14.23222160  234.77900696    4.90999985    2.42000008
   14.23555565  209.53300476    4.90999985    2.36999989
   14.23638916  232.58000183    4.90999985    2.44000006
   14.23888874  324.28500366    4.90999985    2.28999996
   14.24222279  243.56399536    4.90999985    2.21000004
   14.24833393  243.56399536    4.90999985    2.44000006
   14.25249958  221.24899292    4.90999985    2.39000010
   14.25555515  266.23300171    4.90999985    2.42000008
   14.25888920  171.70300293    4.90999985    2.26999998
   14.26222229  265.82299805    4.90999985    2.21000004
   14.26527786  192.97900391    4.90999985    2.48000002
   14.26861095  203.18299866    4.90999985    2.61999989
   14.26972198  192.65400696    4.90999985    2.67000008
   14.27194405  189.92199707    4.90999985    2.66000009
   14.27527714  189.06199646    4.90999985    2.66000009
   14.27861118  188.45399475    4.90999985    2.67000008
   14.28166676  190.56500244    4.90999985    2.71000004
   14.28500080  192.17500305    4.78000021    2.73000002
   14.29111195  192.17500305    4.90999985    2.69000006
   14.29527855  212.36500549    4.90999985    2.71000004
   14.29861164  278.50399780    4.90999985    2.61999989
   14.30166721   99.58159637    4.90999985    2.19000006
   14.30527782   -1.00000000    4.90999985    1.64999998
   14.30861092   -1.00000000    4.90999985    1.48000002
   14.31166649   92.94989777    4.90999985    1.69000006
   14.31500053  150.55700684    4.90999985    2.07999992
   14.31833363  136.56199646    4.90999985    2.25000000
   14.32138920   -1.00000000    4.90999985    2.11999989
   14.32472229   -1.00000000    4.90999985    1.60000002
   14.32777786   95.22760010    4.90999985    1.86000001
   14.33388901   95.22760010    4.90999985    1.83000004
   14.35222244   -1.00000000    4.90999985    1.66999996
   14.35555553  105.65299988    4.90999985    1.96000004
   14.35888958   92.08989716    4.90999985    2.09999990
   14.36194515   -1.00000000    4.90999985    2.05999994
   14.36527824   -1.00000000    4.90999985    1.76999998
   14.36861134  116.50900269    4.90999985    1.75000000
   14.37166691  116.89099884    4.90999985    2.13000011
   14.37694454  116.89099884    4.90999985    2.01999998
   14.38111115   65.25589752    4.90999985    2.19000006
   14.38444424   99.87609863    4.90999985    2.00000000
   14.38527775  130.80999756    4.90999985    2.00000000
   14.38805580  149.17300415    4.90999985    2.15000010
   14.39138889   97.47799683    4.90999985    2.21000004
   14.39444447   23.57019997    4.90999985    1.98000002
   14.39777756  138.24800110    4.90999985    1.91999996
   14.40083313  115.59100342    4.90999985    2.32999992
   14.40416622   94.80269623    4.90999985    1.91999996
   14.40749931  123.12000275    4.90999985    2.03999996
   14.41055489   39.58369827    4.90999985    2.00000000
   14.41388893   -1.00000000    4.90999985    2.03999996
   14.42000008   -1.00000000    4.90999985    1.96000004
   14.42388916   -1.00000000    4.90999985    2.03999996
   14.42722225   -1.00000000    4.90999985    1.78999996
   14.43055630   -1.00000000    4.90999985    1.73000002
   14.43361092   -1.00000000    4.90999985    1.58000004
   14.43694496   -1.00000000    4.90999985    1.66999996
   14.44027805   -1.00000000    4.90999985    1.78999996
   14.44333363   -1.00000000    4.90999985    1.55999994
   14.44666672   -1.00000000    4.90999985    1.48000002
   14.44972229   -1.00000000    4.90999985    2.01999998
   14.45333290   -1.00000000    4.90999985    2.03999996
   14.45638847   -1.00000000    4.90999985    1.91999996
   14.46277714   -1.00000000    4.90999985    1.94000006
   14.46694374   -1.00000000    4.90999985    1.94000006
   14.46999931   -1.00000000    4.90999985    1.83000004
   14.47333336   -1.00000000    4.90999985    1.69000006
   14.47638798   -1.00000000    4.90999985    1.96000004
   14.47972202   37.44639969    4.90999985    1.75000000
   14.48305511   32.96900177    4.90999985    2.15000010
   14.48666668   -1.00000000    4.90999985    2.03999996
   14.48972225   37.98590088    4.90999985    1.98000002
   14.49305534   -1.00000000    4.90999985    2.09999990
   14.49638939   -1.00000000    4.90999985    1.94000006
   14.49944496   94.70169830    4.90999985    1.96000004
   14.50555515   94.70169830    4.90999985    2.32999992
   14.50972176  167.99000549    4.90999985    2.32999992
   14.51277733  285.16299438    4.90999985    2.46000004
   14.51611137  172.52600098    4.90999985    2.48000002
   14.51861095  204.36700439    4.90999985    2.57999992
   14.51972198  188.17700195    4.90999985    2.53999996
   14.52305508  327.76501465    4.90999985    2.44000006
   14.52611065  283.51501465    4.90999985    2.66000009
   14.52944374  287.97799683    4.90999985    2.71000004
   14.53249931  299.38101196    4.90999985    2.75000000
   14.53583336  284.29901123    4.90999985    2.69000006
   14.53916740  274.62899780    2.93000007    2.78999996
   14.54138947  259.05499268    1.60000002    2.78999996
   14.54750061  259.05499268    1.86000001    2.78999996
   14.55166721  261.26199341    2.34999990    2.78999996
   14.55500031  281.70001221    2.05999994    2.76999998
   14.55805588  280.83099365    1.89999998    2.78999996
   14.56138897  281.82598877    1.89999998    2.78999996
   14.56444454  288.53298950    1.94000006    2.78999996
   14.56777763  293.83898926    2.78999996    2.80999994
   14.57111073  281.02999878    3.36999989    2.80999994
   14.57416630  289.65798950    4.90999985    2.75000000
   14.57750034  251.17100525    4.90999985    2.69000006
   14.58083344  154.92599487    4.90999985    2.55999994
   14.58388901  177.66000366    4.90999985    2.57999992
   14.58444405  164.36999512    4.90999985    2.57999992
   14.59027767  164.36999512    4.90999985    2.48000002
   14.59444427   -1.00000000    4.90999985    2.30999994
   14.59777737   -1.00000000    4.90999985    2.15000010
   14.60083389   76.84020233    4.90999985    2.11999989
   14.60416698   -1.00000000    4.90999985    2.25000000
   14.60750008   -1.00000000    4.90999985    1.96000004
   14.61055565   -1.00000000    4.90999985    1.80999994
   14.61388969   -1.00000000    4.90999985    1.75000000
   14.61722279   -1.00000000    4.90999985    1.71000004
   14.62055588   -1.00000000    4.90999985    2.19000006
   14.62472248   -1.00000000    4.90999985    2.13000011
   14.62777805   -1.00000000    4.90999985    2.05999994
   14.63416672   -1.00000000    4.90999985    2.25000000
   14.63833332   -1.00000000    4.90999985    2.17000008
   14.64138889   -1.00000000    4.90999985    2.21000004
   14.64472198   -1.00000000    4.90999985    2.25000000
   14.64777756   -1.00000000    4.90999985    1.76999998
   14.65111065   -1.00000000    4.90999985    1.96000004
   14.65472221   -1.00000000    4.90999985    1.89999998
   14.65805531   -1.00000000    4.90999985    2.11999989
   14.66111088   95.68930054    4.90999985    2.15000010
   14.66444397   -1.00000000    4.90999985    2.34999990
   14.66777802   -1.00000000    4.90999985    1.63000000
   14.67083359   -1.00000000    4.90999985    1.46000004
   14.68111134   -1.00000000    4.90999985    1.94000006
   14.68416691   -1.00000000    4.90999985    2.07999992
   14.68777752   -1.00000000    4.90999985    1.66999996
   14.69111156   -1.00000000    4.90999985    2.00000000
   14.69416714   -1.00000000    4.90999985    1.50000000
   14.69750023   -1.00000000    4.90999985    1.75000000
   14.70083332   -1.00000000    4.90999985    1.85000002
   14.70388889   -1.00000000    4.90999985    1.51999998
   14.70722198   -1.00000000    4.90999985    2.05999994
   14.71027756   -1.00000000    4.90999985    1.83000004
   14.71361065   -1.00000000    4.90999985    2.11999989
   14.72388840   -1.00000000    4.90999985    1.60000002
   14.72722149   -1.00000000    4.90999985    1.91999996
   14.73027706   -1.00000000    4.90999985    2.13000011
   14.73361111   -1.00000000    4.90999985    2.11999989
   14.73666668   -1.00000000    4.90999985    1.75000000
   14.74000072   -1.00000000    4.90999985    1.86000001
   14.74333382   -1.00000000    4.90999985    2.25000000
   14.74638939   -1.00000000    4.90999985    2.23000002
   14.74972248   -1.00000000    4.90999985    2.07999992
   14.75333309   -1.00000000    4.90999985    2.13000011
   14.75666714   -1.00000000    4.90999985    1.73000002
   14.76666641   -1.00000000    4.90999985    1.66999996
   14.76999950   -1.00000000    4.90999985    2.05999994
   14.77305508   -1.00000000    4.90999985    2.34999990
   14.77638817   -1.00000000    4.90999985    2.17000008
   14.77972221   -1.00000000    4.90999985    2.09999990
   14.78277779   -1.00000000    4.90999985    1.89999998
   14.78638935   -1.00000000    4.90999985    1.51999998
   14.78972244   -1.00000000    4.90999985    1.44000006
   14.79277802   -1.00000000    4.90999985    1.38000000
   14.79611111   -1.00000000    4.90999985    1.44000006
   14.79944515   -1.00000000    4.90999985    2.00000000
   14.80555534   -1.00000000    4.90999985    1.86000001
   14.80972195   42.10020065    4.90999985    2.42000008
   14.81277752   -1.00000000   -1.00000000   -1.00000000
   14.81611156   -1.00000000    4.90999985    2.42000008
   14.81888866  101.02600098    4.90999985    2.32999992
   14.81944466  113.93699646    4.90999985    2.32999992
   14.82277775  146.17599487    4.90999985    2.66000009
   14.82583332  126.94300079    4.90999985    2.71000004
   14.82916641  152.74099731    4.90999985    2.67000008
   14.83249950   -1.00000000   -1.00000000   -1.00000000
   14.83555508   60.62760162    4.90999985    2.25000000
   14.83888817   -1.00000000    4.90999985    2.46000004
   14.84222221   -1.00000000    4.90999985    2.11999989
   14.84833336   -1.00000000    4.90999985    2.34999990
   14.85249996   96.84049988    4.90999985    2.40000010
   14.85555553  146.79499817    4.90999985    2.55999994
   14.85888958  132.67599487    4.90999985    2.66000009
   14.86222267  155.97999573    4.90999985    2.67000008
   14.86527824  166.22200012    3.99000001    2.73000002
   14.86861134  157.94299316    1.53999996    2.80999994
   14.87194443  162.65100098    1.39999998    2.82999992
   14.87500000  142.93800354    1.14999998    2.82999992
   14.87833309  163.87199402    0.98000002    2.80999994
   14.88138866  147.49000549    0.95999998    2.80999994
   14.88472176  178.09399414    0.95999998    2.82999992
   14.88555527  168.16600037    0.98000002    2.82999992
   14.89111137  168.16600037    1.00000000    2.82999992
   14.89527798  176.59199524    1.00000000    2.82999992
   14.89861107  156.68800354    1.03999996    2.82999992
   14.90166664  157.96600342    1.25000000    2.82999992
   14.90499973  159.69400024    2.07999992    2.80999994
   14.90833282  179.33500671    1.60000002    2.80999994
   14.91166592  168.75300598    1.23000002    2.80999994
   14.91472149  180.28999329    1.14999998    2.80999994
   14.91805553  157.60499573    1.11000001    2.82999992
   14.91888905  150.10600281    1.11000001    2.82999992
   14.92138958  176.78700256    1.11000001    2.82999992
   14.92472267  160.70700073    1.03999996    2.80999994
   14.92805576  150.36300659    1.01999998    2.80999994
   14.93388939  150.36300659    1.36000001    2.80999994
   14.93805599  139.13200378    1.36000001    2.80999994
   14.94138908  167.66000366    0.98000002    2.80999994
   14.94472218  130.37300110    0.98000002    2.80999994
   14.94777775  145.44200134    1.00000000    2.80999994
   14.95111084  165.11199951    1.00000000    2.80999994
   14.95222187  145.13400269    1.00000000    2.80999994
   14.95444393  142.72099304    1.00000000    2.80999994
   14.95777798  147.65199280    1.00000000    2.80999994
   14.96111107  158.86000061    0.98000002    2.80999994
   14.96416664  144.67999268    0.98000002    2.80999994
   14.96749973  159.59899902    1.00000000    2.82999992
   14.97055531  148.65400696    1.00000000    2.82999992
   14.97694397  148.65400696    0.98000002    2.80999994
   14.98111057  143.75300598    0.98000002    2.80999994
   14.98416710  132.14700317    0.98000002    2.80999994
   14.98555565  147.32200623    0.98000002    2.80999994
   14.98777771  163.25399780    1.00000000    2.80999994
   14.99138927  150.83500671    1.03999996    2.80999994
   14.99472237  147.28900146    1.03999996    2.80999994
   14.99777794  172.47799683    1.05999994    2.82999992
   15.00111103  164.39399719    1.00000000    2.82999992
   15.00416660  160.36999512    1.00000000    2.82999992
   15.00749969  167.20799255    1.00000000    2.82999992
   15.01083374  155.11000061    0.92000002    2.82999992
   15.01388931  170.84199524    0.92000002    2.82999992
   15.01972198  170.84199524    0.89999998    2.82999992
   15.02388859  160.27299500    0.89999998    2.82999992
   15.02694416  169.13999939    0.88000000    2.82999992
   15.03027725  151.85299683    0.88000000    2.82999992
   15.03361130  190.70100403    0.88000000    2.82999992
   15.03666687  154.87399292    0.88000000    2.82999992
   15.04000092  157.23800659    0.88000000    2.82999992
   15.04305553  152.00999451    0.88000000    2.82999992
   15.04638958  151.53599548    0.89999998    2.82999992
   15.04972267  156.70199585    0.94000000    2.80999994
   15.05222225  146.79600525    0.94000000    2.80999994
   15.05305576  175.10600281    0.94000000    2.80999994
   15.05638885  154.13200378    0.94000000    2.82999992
   15.06250000  154.13200378    0.94000000    2.82999992
   15.06666660  147.65199280    0.95999998    2.82999992
   15.06999969  138.71899414    1.00000000    2.80999994
   15.07305527  153.57000732    1.00000000    2.80999994
   15.07638836  169.90699768    1.01999998    2.82999992
   15.07944393  169.15299988    1.00000000    2.82999992
   15.08277798  217.56300354    0.95999998    2.82999992
   15.08583260  185.73800659    0.98000002    2.82999992
   15.08666611  160.54699707    0.98000002    2.82999992
   15.09000015  194.55000305    1.01999998    2.82999992
   15.09305477  164.64900208    1.05999994    2.80999994
   15.09638882  172.26300049    1.01999998    2.80999994
   15.09972191  160.15199280    1.01999998    2.80999994
   15.10527802  160.15199280    0.95999998    2.80999994
   15.10944462  171.49299622    0.95999998    2.82999992
   15.11277771  179.00300598    0.94000000    2.82999992
   15.11583328  157.96899414    0.92000002    2.82999992
   15.11888885  194.78100586    0.92000002    2.82999992
   15.11944485  179.05099487    0.89999998    2.82999992
   15.12277794  170.56700134    0.89999998    2.82999992
   15.12611103  161.90600586    0.88000000    2.82999992
   15.12916660  170.27299500    0.89999998    2.82999992
   15.13249969  183.30499268    0.89999998    2.82999992
   15.13583279  175.18499756    0.89999998    2.82999992
   15.13888836  162.80999756    0.89999998    2.82999992
   15.14222240  166.23100281    0.89999998    2.82999992
   15.14833355  166.23100281    0.89999998    2.82999992
   15.15222168  168.06399536    0.88000000    2.82999992
   15.15555477  179.23199463    0.88000000    2.82999992
   15.15888882  171.26800537    0.83999997    2.80999994
   15.16194439  161.22900391    0.81999999    2.82999992
   15.16527748  176.54499817    0.80000001    2.82999992
   15.16861153  190.95399475    0.81999999    2.82999992
   15.17166710  189.51800537    0.81999999    2.82999992
   15.17500019  176.86900330    0.81999999    2.82999992
   15.17805576  173.90400696    0.81999999    2.82999992
   15.18138885  194.75900269    0.81999999    2.82999992
   15.18472195  189.55099487    0.81999999    2.82999992
   15.18555546  192.11399841    0.81999999    2.82999992
   15.19111156  192.11399841    0.81999999    2.82999992
   15.19527817  190.69700623    0.80000001    2.82999992
   15.19833374  187.40899658    0.81999999    2.84999990
   15.20166683  171.27499390    0.81999999    2.82999992
   15.20499992  193.92300415    0.81999999    2.82999992
   15.20805550  181.75700378    0.81999999    2.82999992
   15.21138859  161.90800476    0.86000001    2.82999992
   15.21472168  194.76800537    0.86000001    2.82999992
   15.21777725  211.98800659    0.86000001    2.84999990
   15.21888828  196.43800354    0.86000001    2.84999990
   15.22166634  217.64700317    0.88000000    2.82999992
   15.22472191  211.39799500    0.80000001    2.82999992
   15.22805500  200.98300171    0.80000001    2.82999992
   15.23388958  200.98300171    0.80000001    2.84999990
   15.23805618  206.11000061    0.81999999    2.82999992
   15.24138927  206.71899414    0.83999997    2.84999990
   15.24444485  215.36599731    0.83999997    2.84999990
   15.24777794  237.86599731    0.81999999    2.84999990
   15.25222206  232.87500000    0.81999999    2.82999992
   15.35583401   -1.00000000   -1.00000000   -1.00000000
   15.47333336   -1.00000000   -1.00000000   -1.00000000
   15.66638851   -1.00000000   -1.00000000   -1.00000000
   15.71722221   87.98650360    0.69000000    2.86999989
   15.72055531  183.75100708    0.69000000    2.86999989
   15.72388840  173.15899658    0.69000000    2.86999989
   15.72694397  179.63400269    0.73000002    2.84999990
   15.73027706  182.93400574    0.73000002    2.86999989
   15.73361111  182.26800537    0.73000002    2.84999990
   15.73750019  182.26800537    0.73000002    2.84999990
   15.74166679  171.22500610    0.73000002    2.86999989
   15.74499989  171.52200317    0.70999998    2.86999989
   15.74833393  176.58799744    0.70999998    2.86999989
   15.75055599  176.35299683    0.70999998    2.86999989
   15.75166702  178.65699768    0.70999998    2.86999989
   15.75500011  176.52000427    0.70999998    2.86999989
   15.75805569  173.68899536    0.69000000    2.86999989
   15.76138878  172.81500244    0.70999998    2.86999989
   15.76472187  182.33500671    0.70999998    2.86999989
   15.76777744  155.89399719    0.70999998    2.86999989
   15.77111053  174.88800049    0.64999998    2.86999989
   15.77416611  168.14900208    0.63000000    2.86999989
   15.78055573  168.14900208    0.67000002    2.86999989
   15.78472233  161.67399597    0.70999998    2.86999989
   15.78777790  164.45500183    0.70999998    2.86999989
   15.79111195  169.41400146    0.70999998    2.86999989
   15.79416752  175.26800537    0.70999998    2.86999989
   15.79750061  160.96899414    0.70999998    2.86999989
   15.80083370  157.81599426    0.70999998    2.86999989
   15.80388927  159.56900024    0.70999998    2.86999989
   15.80722237  159.82899475    0.75000000    2.86999989
   15.81055546  163.25399780    0.75000000    2.86999989
   15.81361103  164.62899780    0.75000000    2.86999989
   15.81694412  160.16999817    0.75000000    2.86999989
   15.81750011  152.24400330    0.76999998    2.86999989
   15.82333374  152.24400330    0.80000001    2.84999990
   15.82750034  156.52999878    0.75000000    2.86999989
   15.83055592  157.89900208    0.73000002    2.86999989
   15.83388901  147.58900452    0.73000002    2.86999989
   15.83722210  150.30799866    0.75000000    2.86999989
   15.84027767  159.85400391    0.75000000    2.84999990
   15.84361076  157.16999817    0.75000000    2.84999990
   15.84694386  158.13299561    0.75000000    2.84999990
   15.85000038  142.40899658    0.76999998    2.86999989
   15.85083389  152.70700073    0.79000002    2.86999989
   15.85361195  150.85499573    0.76999998    2.84999990
   15.85694504  151.88299561    0.75000000    2.84999990
   15.86027813  138.34899902    0.76999998    2.86999989
   15.86611176  138.34899902    0.70999998    2.89000010
   15.87027836  145.80499268    0.67000002    2.86999989
   15.87361145  153.33299255    0.61000001    2.86999989
   15.87666702  145.13499451    0.58999997    2.86999989
   15.88000011  144.34100342    0.56999999    2.86999989
   15.88305569  140.34500122    0.56999999    2.89000010
   15.88416672  148.33999634    0.55000001    2.89000010
   15.88666630  148.14799500    0.55000001    2.89000010
   15.89000034  143.42500305    0.55000001    2.89000010
   15.89333344  147.74000549    0.55000001    2.89000010
   15.89638901  141.89900208    0.56999999    2.89000010
   15.89972210  147.27600098    0.55000001    2.86999989
   15.90277767  142.66999817    0.55000001    2.89000010
   15.90888882  142.66999817    0.55000001    2.89000010
   15.91305542  150.81399536    0.55000001    2.89000010
   15.91638851  141.02799988    0.56999999    2.89000010
   15.91750050  143.91700745    0.56999999    2.89000010
   15.91972256  135.82699585    0.56999999    2.89000010
   15.92305565  141.06700134    0.55000001    2.86999989
   15.92638874  146.76499939    0.55000001    2.86999989
   15.92944431  137.24000549    0.52999997    2.89000010
   15.93277836  137.93299866    0.52999997    2.89000010
   15.93583298  135.82000732    0.52999997    2.89000010
   15.93916702  142.54899597    0.52999997    2.89000010
   15.94250011  138.00999451    0.51999998    2.89000010
   15.94555569  142.33999634    0.51999998    2.86999989
   15.95194435  142.33999634    0.51999998    2.89000010
   15.95611095  134.08500671    0.51999998    2.89000010
   15.95916653  134.16999817    0.52999997    2.89000010
   15.96249962  130.79100037    0.52999997    2.89000010
   15.96555519  132.51600647    0.51999998    2.89000010
   15.96888828  138.88699341    0.52999997    2.89000010
   15.97222137  143.78999329    0.52999997    2.89000010
   15.97527695  139.92799377    0.52999997    2.86999989
   15.97861099  131.95199585    0.52999997    2.89000010
   15.98194408  137.57000732    0.55000001    2.89000010
   15.98416710  136.65199280    0.55000001    2.89000010
   15.98527813  134.83700562    0.55000001    2.89000010
   15.98861122  131.43299866    0.58999997    2.89000010
   15.99472237  131.43299866    0.67000002    2.86999989
   15.99888897  133.16499329    0.70999998    2.86999989
   16.00194359  125.01999664    0.70999998    2.89000010
   16.00527763  128.66600037    0.70999998    2.89000010
   16.00833321  126.26300049    0.70999998    2.89000010
   16.01166725  126.22899628    0.70999998    2.86999989
   16.01499939  119.26599884    0.70999998    2.86999989
   16.01749992  131.15199280    0.70999998    2.86999989
   16.01833344  124.87200165    0.70999998    2.86999989
   16.02166557  127.28900146    0.67000002    2.86999989
   16.02499962  128.07400513    0.64999998    2.89000010
   16.02805519  122.59300232    0.64999998    2.89000010
   16.03138924  129.36900330    0.64999998    2.89000010
   16.03750038  129.36900330    0.63000000    2.89000010
   16.04166603  120.94799805    0.64999998    2.89000010
   16.04472160  125.73500061    0.64999998    2.89000010
   16.04805565  131.30499268    0.67000002    2.86999989
   16.05083275  127.55300140    0.64999998    2.89000010
   16.05166626  129.36900330    0.64999998    2.89000010
   16.05499840  125.72100067    0.67000002    2.89000010
   16.05833244  131.25900269    0.67000002    2.86999989
   16.06166649  134.07800293    0.67000002    2.89000010
   16.06472206  128.57699585    0.67000002    2.89000010
   16.06805611  133.57299805    0.67000002    2.89000010
   16.07111168  132.32099915    0.69000000    2.89000010
   16.07472229  126.94799805    0.67000002    2.86999989
   16.08027840  126.94799805    0.69000000    2.89000010
   16.08444595  125.92900085    0.69000000    2.89000010
   16.08777809  130.80799866    0.70999998    2.86999989
   16.09083366  136.67799377    0.69000000    2.86999989
   16.09416771  128.04899597    0.73000002    2.89000010
   16.09749985  131.64500427    0.73000002    2.89000010
   16.10055542  124.90200043    0.73000002    2.86999989
   16.10388947  123.49600220    0.73000002    2.86999989
   16.10694504  127.06700134    0.75000000    2.86999989
   16.11027908  130.22099304    0.75000000    2.86999989
   16.11361122  121.07099915    0.75000000    2.86999989
   16.11666679  130.93600464    0.76999998    2.86999989
   16.11750031  126.93900299    0.76999998    2.86999989
   16.12333298  126.93900299    0.73000002    2.86999989
   16.12722206  123.68199921    0.73000002    2.86999989
   16.13055611  126.27300262    0.73000002    2.86999989
   16.13388824  119.43000031    0.75000000    2.86999989
   16.13694382  131.99699402    0.75000000    2.86999989
   16.14027786  130.28900146    0.75000000    2.86999989
   16.14361191  133.52200317    0.76999998    2.86999989
   16.14666748  127.57800293    0.79000002    2.86999989
   16.14999962  130.71899414    0.79000002    2.86999989
   16.15083313  129.27400208    0.79000002    2.86999989
   16.15361023  130.21899414    0.79000002    2.86999989
   16.15666580  126.33899689    0.79000002    2.86999989
   16.15999985  127.96099854    0.75000000    2.86999989
   16.16611099  127.96099854    0.75000000    2.86999989
   16.17027664  135.40899658    0.70999998    2.86999989
   16.17333221  131.22999573    0.70999998    2.86999989
   16.17666626  125.48200226    0.69000000    2.86999989
   16.17972183  132.05700684    0.69000000    2.86999989
   16.18305397  131.16999817    0.64999998    2.86999989
   16.18416595  127.54100037    0.64999998    2.86999989
   16.18694305  124.87599945    0.63000000    2.89000010
   16.18999863  122.62599945    0.61000001    2.86999989
   16.19333267  119.67900085    0.58999997    2.89000010
   16.19638824  129.57400513    0.58999997    2.89000010
   16.19972038  129.42399597    0.58999997    2.89000010
   16.20305634  127.68599701    0.58999997    2.89000010
   16.20888901  127.68599701    0.61000001    2.89000010
   16.21305656  133.49099731    0.64999998    2.86999989
   16.21611214  131.03599548    0.64999998    2.86999989
   16.21750069  130.80099487    0.67000002    2.89000010
   16.21972275  125.72399902    0.67000002    2.89000010
   16.22305679  130.65699768    0.67000002    2.86999989
   16.22638893  129.15899658    0.64999998    2.86999989
   16.22944450  131.04499817    0.67000002    2.86999989
   16.23277855  128.80200195    0.67000002    2.86999989
   16.23611069  123.90000153    0.67000002    2.89000010
   16.23916626  120.11599731    0.67000002    2.89000010
   16.24250031  122.97299957    0.67000002    2.86999989
   16.24555588  131.29100037    0.69000000    2.86999989
   16.25166702  131.29100037    0.70999998    2.86999989
   16.25583267  126.03199768    0.70999998    2.89000010
   16.25916672  122.90599823    0.70999998    2.86999989
   16.26250076  130.28199768    0.70999998    2.86999989
   16.26555634  127.64700317    0.70999998    2.86999989
   16.26888847  129.96099854    0.70999998    2.86999989
   16.27194405  125.42600250    0.70999998    2.86999989
   16.27527809  128.30999756    0.70999998    2.89000010
   16.27861023  121.35199738    0.69000000    2.86999989
   16.28194427  129.52200317    0.69000000    2.89000010
   16.28416634  131.47200012    0.69000000    2.89000010
   16.28527641  131.15199280    0.69000000    2.89000010
   16.28861046  126.78199768    0.69000000    2.89000010
   16.29472160  126.78199768    0.69000000    2.86999989
   16.29861069  128.82299805    0.69000000    2.89000010
   16.30194283  123.45099640    0.69000000    2.89000010
   16.30527687  128.11700439    0.69000000    2.86999989
   16.30833244  125.40100098    0.69000000    2.86999989
   16.31166649  121.66100311    0.67000002    2.89000010
   16.31499863  124.02100372    0.69000000    2.86999989
   16.31750107  125.17099762    0.69000000    2.86999989
   16.31861115  120.91799927    0.69000000    2.86999989
   16.32166672  118.52100372    0.69000000    2.86999989
   16.32500076  121.13899994    0.69000000    2.86999989
   16.32805634  115.93800354    0.69000000    2.86999989
   16.33139038  127.71299744    0.69000000    2.89000010
   16.33750153  127.71299744    0.70999998    2.89000010
   16.34166718  124.24099731    0.69000000    2.89000010
   16.34472275  129.60099792    0.69000000    2.86999989
   16.34805679  127.50199890    0.69000000    2.89000010
   16.35083389  132.49800110    0.69000000    2.89000010
   16.35166740  122.88200378    0.69000000    2.89000010
   16.35472298  126.43800354    0.64999998    2.86999989
   16.35805511  126.85399628    0.63000000    2.86999989
   16.36111069  122.48899841    0.61000001    2.89000010
   16.36444473  125.11299896    0.61000001    2.89000010
   16.36777878  132.38299561    2.26999998    2.84999990
   16.37083435  138.26400757    4.90999985    2.73000002
   16.37416649  151.91600037    4.90999985    2.69000006
   16.38027763  151.91600037    4.90999985    2.67000008
   16.38444519  150.51600647    4.90999985    2.57999992
   16.38750076  138.47799683    4.90999985    2.67000008
   16.39083290  136.98599243    4.90999985    2.69000006
   16.39416695  144.25799561    4.90999985    2.48000002
   16.39749908  136.10400391    4.90999985    2.64000010
   16.40055466  149.45799255    4.90999985    2.53999996
   16.40388870  153.48899841    4.90999985    2.57999992
   16.40694427  135.43699646    4.90999985    2.53999996
   16.41027832  147.21299744    4.90999985    2.55999994
   16.41361046  126.47000122    4.90999985    2.69000006
   16.41666603  129.41600037    4.90999985    2.71000004
   16.41749954  127.11599731    4.90999985    2.71000004
   16.42305565  127.11599731    4.90999985    2.59999990
   16.42722130  128.47200012    4.90999985    2.64000010
   16.43055534  127.54799652    4.90999985    2.80999994
   16.43361092  149.56599426    4.90999985    2.40000010
   16.43694305  133.49200439    4.90999985    2.69000006
   16.44027710  127.27799988    4.90999985    2.51999998
   16.44333267  122.97000122    4.34999990    2.86999989
   16.44666672  123.57800293    1.05999994    2.89000010
   16.44972038  127.66799927    1.53999996    2.86999989
   16.45083427  121.81700134    1.53999996    2.86999989
   16.45361137  133.14100647    1.85000002    2.86999989
   16.45666695  123.33000183    2.21000004    2.84999990
   16.46000099  140.57200623    1.26999998    2.86999989
   16.46583366  140.57200623    2.51999998    2.86999989
   16.47000122  126.44899750    2.25000000    2.86999989
   16.47333336  118.38500214    2.39000010    2.84999990
   16.47666740  130.63600159    3.23000002    2.86999989
   16.47972298  148.60499573    4.90999985    2.57999992
   16.48305511  142.03100586    4.90999985    2.71000004
   16.48416710  137.48599243    4.90999985    2.67000008
   16.48666763  130.32699585    4.90999985    2.59999990
   16.48972321  120.61699677    3.80999994    2.82999992
   16.49305534  124.20300293    1.60000002    2.86999989
   16.49611092  123.45899963    1.36000001    2.84999990
   16.49944496  120.59600067    1.34000003    2.84999990
   16.50277710  120.58399963    1.53999996    2.86999989
   16.50888824  120.58399963    1.13000000    2.86999989
   16.51305580  130.39300537    1.16999996    2.86999989
   16.51611137  127.54000092    1.23000002    2.86999989
   16.51749992  125.27500153    1.34000003    2.84999990
   16.52000046  132.52499390    2.39000010    2.84999990
   16.52305603  126.65699768    4.42999983    2.80999994
   16.52638817  130.04499817    4.90999985    2.73000002
   16.52944374  124.41200256    3.59999990    2.82999992
   16.53277779  122.57800293    3.26999998    2.84999990
   16.53610992  138.18800354    3.93000007    2.78999996
   16.53916550  130.02699280    4.90999985    2.84999990
   16.54249954  125.55000305    4.90999985    2.67000008
   16.54583359  134.20100403    4.90999985    2.57999992
   16.55166626  134.20100403    0.83999997    2.89000010
   16.55583191  126.26899719    0.73000002    2.86999989
   16.55888748  122.37699890    0.70999998    2.86999989
   16.56222153  124.38700104    0.67000002    2.86999989
   16.56555557  135.12100220    0.64999998    2.89000010
   16.56888962  126.42900085    0.64999998    2.86999989
   16.57194519  127.10600281    0.64999998    2.89000010
   16.57527924  128.66700745    0.63000000    2.89000010
   16.57833481  122.40200043    0.64999998    2.89000010
   16.58166695  120.66100311    0.64999998    2.89000010
   16.58416748  128.92900085    0.64999998    2.89000010
   16.58527756  119.91899872    0.64999998    2.89000010
   16.58833313  122.96299744    0.81999999    2.86999989
   16.59444427  122.96299744    2.15000010    2.86999989
   16.59861183  132.72599792    4.90999985    2.75000000
   16.60194397  138.51499939    4.90999985    2.76999998
   16.60499954  142.00900269    4.90999985    2.61999989
   16.60833359  144.65800476    4.90999985    2.73000002
   16.61166763  141.54200745    4.90999985    2.71000004
   16.61472321  131.74400330    4.90999985    2.69000006
   16.61750031  130.13900757    4.90999985    2.75000000
   16.61861038  142.34300232    4.90999985    2.75000000
   16.62166595  151.53500366    4.90999985    2.64000010
   16.62500000  147.54299927    4.90999985    2.40000010
   16.62805557  177.89500427    4.90999985    2.57999992
   16.63138962  145.08900452    4.90999985    2.50000000
   16.63722229  145.08900452    4.90999985    2.57999992
   16.64138794  159.84199524    4.90999985    2.71000004
   16.64472198  142.22000122    4.90999985    2.57999992
   16.64805603  204.78199768    4.90999985    2.67000008
   16.65083313  160.83399963    4.90999985    2.32999992
   16.65166664  154.28500366    4.90999985    2.42000008
   16.65472221  323.55300903    4.90999985    2.40000010
   16.65805435  157.70100403    4.90999985    2.50000000
   16.66110992  179.45500183    4.90999985    2.53999996
   16.66444397  160.74000549    4.90999985    2.42000008
   16.66777802  181.34399414    4.90999985    2.50000000
   16.67083359  177.33099365    4.90999985    2.26999998
   16.67416573  170.15600586    4.90999985    2.50000000
   16.68027687  170.15600586    4.90999985    2.53999996
   16.68444443  160.16600037    4.90999985    2.39000010
   16.68750000  170.21200562    4.90999985    2.64000010
   16.69083214  168.25999451    4.90999985    2.44000006
   16.69388771  220.71200562    4.90999985    2.30999994
   16.69722176  140.37600708    4.90999985    2.13000011
   16.70055580   -1.00000000    4.90999985    2.03999996
   16.70361137  130.03199768    4.90999985    1.96000004
   16.70694542  234.79299927    4.90999985    1.96000004
   16.71027946  237.95500183    4.90999985    2.09999990
   16.71333504  169.73599243    4.90999985    2.51999998
   16.71666718  183.39199829    4.90999985    2.51999998
   16.71750069  177.09300232    4.90999985    2.59999990
   16.73833275  177.09300232    4.90999985    2.34999990
   16.74222183  174.20700073    4.90999985    2.40000010
   16.74555588  245.52400208    4.90999985    2.32999992
   16.74888992  202.19900513    4.90999985    2.13000011
   16.75083351  158.61199951    4.90999985    2.32999992
   16.75250053  192.54899597    4.90999985    2.57999992
   16.75555611  158.99400330    4.90999985    2.26999998
   16.75888824  322.33401489    4.90999985    2.21000004
   16.76222229  139.41000366    4.90999985    2.05999994
   16.76527786  224.99200439    4.90999985    2.15000010
   16.76861000  229.69200134    4.90999985    2.36999989
   16.77166557  230.36900330    4.90999985    2.32999992
   16.77499962  190.06599426    4.90999985    2.42000008
   16.78083229  190.06599426    4.90999985    2.05999994
   16.78499985   -1.00000000    4.90999985    1.76999998
   16.78833199  152.49800110    4.90999985    1.63000000
   16.79166603   -1.00000000    4.90999985    1.85000002
   16.79472160   -1.00000000    4.90999985    1.63000000
   16.79805565   -1.00000000    4.90999985    1.66999996
   16.80111122   -1.00000000    4.90999985    1.85000002
   16.80444336   -1.00000000    4.90999985    1.38000000
   16.80777740   -1.00000000    4.90999985    1.61000001
   16.81083298   -1.00000000    4.90999985    1.38000000
   16.81416512   -1.00000000    4.90999985    1.33000004
   16.81750107   -1.00000000    4.90999985    1.11000001
   16.82389069   -1.00000000    4.90999985    1.26999998
   16.82777786   -1.00000000    4.90999985    1.50000000
   16.83111191   -1.00000000    4.90999985    1.69000006
   16.83444595   -1.00000000    4.90999985    1.28999996
   16.83750153   -1.00000000    4.90999985    0.88000000
   16.84083366   -1.00000000    4.90999985    1.14999998
   16.84416771   -1.00000000    4.90999985    1.00000000
   16.84722328   -1.00000000    4.90999985    1.01999998
   16.85055542   -1.00000000    4.90999985    1.00000000
   16.85416794   -1.00000000    4.90999985    0.95999998
   16.85722351   -1.00000000    4.90999985    1.33000004
   16.86055565   -1.00000000    4.90999985    1.41999996
   16.87083435   -1.00000000    4.90999985    1.51999998
   16.87388992   30.36520004    4.90999985    1.61000001
   16.87722206   -1.00000000    4.90999985    1.96000004
   16.88027763   -1.00000000    4.90999985    1.50000000
   16.88361168   -1.00000000    4.90999985    1.41999996
   16.88722229   69.54730225    4.90999985    1.44000006
   16.89027786   -1.00000000    4.90999985    1.98000002
   16.89361191   -1.00000000    4.90999985    1.25000000
   16.89694405   -1.00000000    4.90999985    1.28999996
   16.89999962   -1.00000000    4.90999985    1.36000001
   16.90333366   -1.00000000    4.90999985    1.44000006
   16.90944481   -1.00000000    4.90999985    1.61000001
   16.91361046  146.10499573    4.90999985    1.75000000
   16.91694450  185.64199829    4.90999985    2.00000000
   16.91777802  211.37399292    4.90999985    2.26999998
   16.92027664  117.96800232    4.90999985    2.00000000
   16.92361069   73.28029633    4.90999985    1.88000000
   16.92666626   -1.00000000    4.90999985    1.94000006
   16.93000031   -1.00000000    4.90999985    1.73000002
   16.93333244   -1.00000000    4.90999985    1.46000004
   16.93638802   -1.00000000    4.90999985    1.14999998
   16.93972206   -1.00000000    4.90999985    1.16999996
   16.94277763   -1.00000000    4.90999985    1.66999996
   16.94610977   -1.00000000    4.90999985    1.28999996
   16.95222282   -1.00000000    4.90999985    1.66999996
   16.95639038   -1.00000000    4.90999985    1.76999998
   16.95972252   -1.00000000    4.90999985    1.61000001
   16.96277809  243.83500671    4.90999985    1.94000006
   16.96611214   -1.00000000    4.90999985    2.07999992
   16.96944427   -1.00000000    4.90999985    1.09000003
   16.97249985   -1.00000000    4.90999985    1.05999994
   16.97583389   -1.00000000    4.90999985    0.79000002
   16.97916794   -1.00000000    4.90999985    0.83999997
   16.98222351   -1.00000000    4.90999985    1.88000000
   16.98444557  193.12899780    4.90999985    1.71000004
   16.98583412   -1.00000000    4.90999985    1.96000004
   16.98916626   -1.00000000    4.90999985    1.61000001
   16.99916649   -1.00000000    4.90999985    0.92000002
   17.00250053   -1.00000000    4.90999985    1.09000003
   17.00583267   -1.00000000    4.90999985    1.51999998
   17.00888824   -1.00000000    4.90999985    0.92000002
   17.01222229   -1.00000000    4.90999985    0.76999998
   17.01527786   -1.00000000    4.90999985    0.52999997
   17.01888847   -1.00000000    4.90999985    0.67000002
   17.02194405   -1.00000000    4.90999985    1.19000006
   17.02527809   -1.00000000    4.90999985    0.81999999
   17.02861023   -1.00000000    4.90999985    0.79000002
   17.03166580   -1.00000000    4.90999985    0.81999999
   17.04222107   -1.00000000    4.90999985    1.01999998
   17.04527664   -1.00000000    4.90999985    0.94000000
   17.04861069   -1.00000000    4.90999985    1.26999998
   17.05222130   -1.00000000    4.90999985    1.33000004
   17.05555534   -1.00000000    4.90999985    1.50000000
   17.05861092   -1.00000000    4.90999985    1.41999996
   17.06194305  113.60700226    4.90999985    1.34000003
   17.06499863   -1.00000000    4.90999985    1.76999998
   17.06833458   -1.00000000    4.90999985    1.44000006
   17.07166672  145.00999451    4.90999985    2.28999996
   17.07472229  144.40299988    4.90999985    2.71000004
   17.08083344  144.40299988    4.90999985    2.69000006
   17.08500099  145.77200317    4.90999985    2.71000004
   17.08833313  140.00300598    4.90999985    2.75000000
   17.09138870  133.26100159    4.90999985    2.75000000
   17.09472275  159.82499695    4.90999985    2.71000004
   17.09777832  220.16999817    4.90999985    2.50000000
   17.10111237  139.12699890    4.90999985    2.34999990
   17.10444450  161.78700256    4.90999985    2.76999998
   17.10750008  154.35600281    4.90999985    2.86999989
   17.11083412  165.83399963    4.90999985    2.84999990
   17.11416626  194.27099609    4.90999985    2.36999989
   17.11722183  267.38900757    4.90999985    2.39000010
   17.11805534  293.99200439    4.90999985    2.34999990
   17.12361145  293.99200439    4.90999985    1.83000004
   17.12777710  180.73100281    4.90999985    2.25000000
   17.13111115  200.74000549    4.90999985    2.50000000
   17.13416672  190.44799805    4.90999985    2.36999989
   17.13750076  343.62799072    4.90999985    2.03999996
   17.14083290  152.12399292    4.90999985    2.59999990
   17.14388847  166.84899902    4.90999985    2.25000000
   17.14722252  260.83898926    4.90999985    2.21000004
   17.15055466  164.97599792    4.90999985    1.96000004
   17.15138817  269.69601440    4.90999985    1.96000004
   17.15388870  228.46000671    4.90999985    2.15000010
   17.15722275  275.30700684    4.90999985    2.23000002
   17.16055489  204.05499268    4.90999985    2.13000011
   17.16666603  204.05499268    4.90999985    2.26999998
   17.17055511  169.49200439    4.90999985    2.26999998
   17.17388916  144.38800049    4.90999985    2.64000010
   17.17722130  139.35899353    4.90999985    2.75000000
   17.18027687  127.64199829    4.90999985    2.76999998
   17.18361092  136.58500671    4.57999992    2.82999992
   17.18472099  132.06700134    4.63999987    2.82999992
   17.18722153  123.98899841    4.90999985    2.73000002
   17.19055557  140.36599731    4.90999985    2.75000000
   17.19361115  140.84100342    4.90999985    2.61999989
   17.19694328  143.93400574    4.90999985    2.71000004
   17.20027924  172.46800232    4.90999985    2.53999996
   17.20333481   99.25620270    4.90999985    1.73000002
   17.20944595   99.25620270    4.90999985    2.05999994
   17.21361160  227.02799988    4.90999985    2.53999996
   17.21666718  170.53799438    4.90999985    2.44000006
   17.21805573  133.46699524    4.90999985    2.57999992
   17.22027779  198.65800476    4.90999985    2.53999996
   17.22361183  160.17599487    4.90999985    2.50000000
   17.22666740  170.99600220    4.90999985    2.57999992
   17.23000145  234.48699951    4.90999985    2.64000010
   17.23333359  218.15299988    4.90999985    2.26999998
   17.23638916  149.54100037    4.90999985    2.46000004
   17.23972321  143.52900696    4.90999985    2.57999992
   17.24305534  134.81799316    4.90999985    2.71000004
   17.24611092  143.13400269    4.90999985    2.64000010
   17.25222206  143.13400269    4.90999985    2.75000000
   17.25638962  185.41999817    4.90999985    2.15000010
   17.25972176  205.46200562    4.90999985    2.21000004
   17.26277733  212.57299805    4.90999985    1.98000002
   17.26611137  164.63099670    4.90999985    2.46000004
   17.26916695  167.97500610    4.90999985    2.61999989
   17.27249908  151.52000427    4.90999985    2.66000009
   17.27583313  138.18200684    4.90999985    2.57999992
   17.27888870  124.64499664    4.90999985    2.71000004
   17.28222275  137.27299500    4.90999985    2.84999990
   17.28472137  136.16999817    4.90999985    2.82999992
   17.28583336  136.36999512    4.71999979    2.80999994
   17.28916550  130.21499634    3.86999989    2.84999990
   17.29500008  130.21499634    4.05999994    2.89000010
   17.29916573  125.31999969    4.90999985    2.76999998
   17.30249977  134.00399780    4.90999985    2.80999994
   17.30555534  127.29199982    4.90999985    2.89000010
   17.30888748  127.20899963    4.90999985    2.89000010
   17.31222153  126.38899994    4.90999985    2.67000008
   17.31527710  142.55700684    4.90999985    2.73000002
   17.31805611  149.76899719    4.90999985    2.67000008
   17.31888962  151.80299377    4.90999985    2.66000009
   17.32222366  169.23599243    4.90999985    2.39000010
   17.32527924  221.16200256    4.90999985    2.57999992
   17.32861137  149.96200562    4.90999985    2.28999996
   17.33194542  168.88699341    4.90999985    2.67000008
   17.33805656  168.88699341    4.90999985    2.75000000
   17.34194565  251.19000244    4.90999985    2.51999998
   17.34527779  151.62600708    4.90999985    2.28999996
   17.34861183  208.57600403    4.90999985    2.19000006
   17.35138893  190.69299316    4.90999985    2.39000010
   17.35194397  185.28500366    4.90999985    2.39000010
   17.35527802  151.76899719    4.90999985    2.59999990
   17.35833359  194.52099609    4.90999985    2.71000004
   17.36166763  164.80999756    4.90999985    2.59999990
   17.36499977  186.01300049    4.90999985    2.40000010
   17.36805534  235.82000732    4.90999985    2.30999994
   17.37138939  215.61099243    4.90999985    1.98000002
   17.37472153  312.82299805    4.90999985    2.25000000
   17.38083267  312.82299805    4.90999985    2.07999992
   17.38500023   -1.00000000    4.90999985    1.66999996
   17.38805580   66.47850037    4.90999985    1.75000000
   17.39138794  162.43800354    4.90999985    1.91999996
   17.39472198  223.97599792    4.90999985    1.94000006
   17.39777756  244.16000366    4.90999985    2.19000006
   17.40111160  283.88299561    4.90999985    2.05999994
   17.40416718  166.04899597    4.90999985    1.91999996
   17.40749931  158.55499268    4.90999985    2.17000008
   17.41083336  146.66799927    4.90999985    2.05999994
   17.41388893  194.80099487    4.90999985    1.96000004
   17.41722107  209.33000183    4.90999985    1.98000002
   17.41805458  174.93299866    4.90999985    1.94000006
   17.42361069  174.93299866    4.90999985    2.21000004
   17.42777634  188.01499939    4.90999985    2.59999990
   17.43111038  192.90400696    4.90999985    2.34999990
   17.43416595  190.23399353    4.90999985    2.32999992
   17.43750000  163.42100525    4.90999985    2.36999989
   17.44083214  152.14399719    4.90999985    2.61999989
   17.44388771  142.76699829    4.90999985    2.75000000
   17.44722176  149.42199707    4.90999985    2.67000008
   17.45055580  135.82299805    4.90999985    2.69000006
   17.45138931  141.85400391    4.90999985    2.73000002
   17.45388985  140.64500427    4.90999985    2.71000004
   17.45722389  139.23699951    4.90999985    2.75000000
   17.46055603  137.06399536    4.90999985    2.69000006
   17.46638870  137.06399536    4.90999985    2.71000004
   17.47055626  160.25900269    4.90999985    2.61999989
   17.47389030  146.26100159    4.90999985    2.73000002
   17.47694588  141.09800720    4.90999985    2.78999996
   17.48027802  131.32400513    4.90999985    2.82999992
   17.48361206  142.51100159    4.90999985    2.80999994
   17.48472214  150.21499634    4.90999985    2.80999994
   17.48694420  156.25500488    4.90999985    2.76999998
   17.49027824  160.19299316    4.90999985    2.76999998
   17.49361229  179.03300476    4.90999985    2.76999998
   17.49666786  196.74800110    4.90999985    2.75000000
   17.50000000  186.17900085    4.90999985    2.64000010
   17.50305557  199.43899536    4.90999985    2.75000000
   17.50916672  199.43899536    4.90999985    2.80999994
   17.51333427  230.86500549    4.90999985    2.75000000
   17.51666641  239.53100586    4.90999985    2.76999998
   17.51805496  266.07998657    4.90999985    2.73000002
   17.52027702  255.35499573    4.90999985    2.75000000
   17.52361107  288.92800903    4.90999985    2.82999992
   17.52694511  270.10000610    4.90999985    2.82999992
   17.53000069  220.91000366    3.45000005    2.86999989
   17.53333282  150.37399292    3.14000010    2.89000010
   17.53666687  146.24400330    3.26999998    2.84999990
   17.53972244  150.59399414    3.75000000    2.86999989
   17.54305458   85.27510071    4.40999985    2.86999989
   17.54638863   -1.00000000    4.90999985    2.86999989
   17.55222130   -1.00000000    4.90999985    2.76999998
   17.55638885   -1.00000000    4.90999985    2.76999998
   17.55944443   -1.00000000    4.90999985    2.67000008
   17.56277657   -1.00000000    4.90999985    2.73000002
   17.56583214   -1.00000000    4.90999985    2.64000010
   17.56916809   -1.00000000    4.90999985    2.36999989
   17.57250023   -1.00000000    4.90999985    2.19000006
   17.57555580   -1.00000000    4.90999985    2.26999998
   17.57888985   -1.00000000    4.90999985    1.98000002
   17.58222389   -1.00000000    4.90999985    2.03999996
   17.58555603   -1.00000000    4.90999985    1.80999994
   17.58889008   -1.00000000    4.90999985    1.64999998
   17.59916687   -1.00000000    4.90999985    1.30999994
   17.60222244   -1.00000000    4.90999985    1.19000006
   17.60555649   -1.00000000    4.90999985    1.38000000
   17.60888863   -1.00000000    4.90999985    1.60000002
   17.61194420   -1.00000000    4.90999985    1.98000002
   17.61527824   -1.00000000    4.90999985    2.40000010
   17.61861038   -1.00000000    4.90999985    2.28999996
   17.62194443   -1.00000000    4.90999985    2.15000010
   17.62500000   -1.00000000    4.90999985    2.46000004
   17.62833405   -1.00000000    4.90999985    2.44000006
   17.63166618   -1.00000000    4.90999985    2.55999994
   17.64194489   -1.00000000    4.90999985    2.36999989
   17.64527702   -1.00000000    4.90999985    2.59999990
   17.64833260   -1.00000000    4.90999985    2.73000002
   17.65194321   -1.00000000    4.90999985    2.50000000
   17.65527725   -1.00000000    4.90999985    2.53999996
   17.65833282   -1.00000000    4.90999985    2.48000002
   17.66166687   -1.00000000    4.90999985    2.53999996
   17.66499901   -1.00000000    4.90999985    2.67000008
   17.66805458   -1.00000000    4.90999985    2.78999996
   17.67138863   -1.00000000    4.90999985    2.78999996
   17.67472076   -1.00000000    4.90999985    2.76999998
   17.68472099   -1.00000000    4.90999985    2.71000004
   17.68805504   -1.00000000    4.90999985    2.21000004
   17.69138718   -1.00000000    4.90999985    2.84999990
   17.69444275   -1.00000000    4.90999985    2.84999990
   17.69777679   -1.00000000    4.90999985    2.59999990
   17.70083427   -1.00000000    4.90999985    2.86999989
   17.70416832   -1.00000000    4.90999985    2.78999996
   17.70750046   -1.00000000    4.90999985    2.76999998
   17.71055603   -1.00000000    4.90999985    2.84999990
   17.71389008   -1.00000000    4.90999985    2.82999992
   17.71722221   -1.00000000    1.58000004    2.91000009
   17.72777748   -1.00000000    0.94000000    2.89000010
   17.73083305   -1.00000000    1.09000003    2.86999989
   17.73416710   -1.00000000    1.89999998    2.86999989
   17.75388908   -1.00000000    4.46999979    2.86999989
   17.75722313   -1.00000000    4.53999996    2.86999989
   17.76027870   -1.00000000    4.07999992    2.84999990
   17.77055550   -1.00000000    4.90999985    2.84999990
   17.77388954   -1.00000000    4.90999985    2.82999992
   17.77694511   -1.00000000    4.90999985    2.84999990
   17.78027725   -1.00000000    4.90999985    2.86999989
   17.78361130   -1.00000000    4.90999985    2.82999992
   17.78722191   -1.00000000    4.90999985    2.75000000
   17.79055595   -1.00000000    4.90999985    2.80999994
   17.79361153   -1.00000000    4.90999985    2.86999989
   17.79694366   -1.00000000    4.90999985    2.82999992
   17.79999924   -1.00000000    4.90999985    2.78999996
   17.80333328   -1.00000000    4.90999985    2.76999998
   17.81333351   -1.00000000    4.90999985    2.64000010
   17.81666756   -1.00000000    4.90999985    2.69000006
   17.82027817   -1.00000000    4.90999985    2.78999996
   17.82361221   -1.00000000    4.90999985    2.82999992
   17.82666779   -1.00000000    4.90999985    2.67000008
   17.83000183   -1.00000000    4.90999985    2.71000004
   17.83305550   -1.00000000    4.90999985    2.86999989
   17.83638954   -1.00000000    4.90999985    2.86999989
   17.83972359   -1.00000000    4.90999985    2.82999992
   17.84277916   -1.00000000    4.90999985    2.86999989
   17.84611130   -1.00000000    4.90999985    2.91000009
   17.85639000   -1.00000000    4.90999985    2.78999996
   17.85944557   -1.00000000    4.90999985    2.78999996
   17.86277771   -1.00000000    4.90999985    2.78999996
   17.86611176   -1.00000000    4.01999998    2.80999994
   17.86916733   -1.00000000    2.69000006    2.89000010
   17.87249947   -1.00000000    1.34000003    2.89000010
   17.87555504   -1.00000000    1.00000000    2.89000010
   17.87888908   -1.00000000    0.86000001    2.89000010
   17.88222313   -1.00000000    0.75000000    2.89000010
   17.88583374   -1.00000000    0.88000000    2.89000010
   17.88916588   -1.00000000    1.21000004    2.91000009
   17.89916611   -1.00000000    1.60000002    2.89000010
   17.90250015   -1.00000000    1.30999994    2.89000010
   17.90555573   -1.00000000    1.44000006    2.89000010
   17.90888786   -1.00000000    1.46000004    2.89000010
   17.91194344   -1.00000000    1.71000004    2.86999989
   17.91527748   -1.00000000    1.50000000    2.89000010
   17.91888809   -1.00000000    0.75000000    2.89000010
   17.92222214   -1.00000000    0.73000002    2.91000009
   17.92527771   -1.00000000    0.73000002    2.89000010
   17.92860985   -1.00000000    0.73000002    2.89000010
   17.93166542   -1.00000000    1.03999996    2.89000010
   17.94194412   -1.00000000    1.09000003    2.91000009
   17.94527626   -1.00000000    1.44000006    2.89000010
   17.94833183   -1.00000000    3.82999992    2.76999998
   17.95194435   -1.00000000    4.90999985    2.86999989
   17.95527840   -1.00000000    4.90999985    2.78999996
   17.95833397   -1.00000000    4.90999985    2.73000002
   17.96166801   -1.00000000    4.90999985    2.82999992
   17.96472359   -1.00000000    4.90999985    2.48000002
   17.96805573   -1.00000000    4.90999985    2.09999990
   17.97138977   -1.00000000    4.90999985    1.98000002
   17.97444534   -1.00000000    4.90999985    2.82999992
   17.98527718   -1.00000000    1.63000000    2.86999989
   17.98861122   -1.00000000    1.33000004    2.86999989
   17.99166679   -1.00000000    1.26999998    2.89000010
   17.99500084   -1.00000000    0.79000002    2.91000009
   17.99805641   -1.00000000    0.75000000    2.89000010
   18.00138855   -1.00000000    0.73000002    2.91000009
   18.00472260   -1.00000000    0.70999998    2.91000009
   18.00777817   -1.00000000    0.70999998    2.91000009
   18.01111031   -1.00000000    0.70999998    2.91000009
   18.01444435   -1.00000000    0.67000002    2.89000010
   18.01749992   -1.00000000    0.67000002    2.89000010
   18.02777672   -1.00000000    0.67000002    2.91000009
   18.03083229   -1.00000000    0.67000002    2.91000009
   18.03416634   -1.00000000    0.64999998    2.89000010
   18.03750038   -1.00000000    0.67000002    2.89000010
   18.04055595   -1.00000000    0.67000002    2.89000010
   18.04388809   -1.00000000    0.64999998    2.91000009
   18.04694366   -1.00000000    0.63000000    2.89000010
   18.05027771   -1.00000000    0.63000000    2.91000009
   18.05388832   -1.00000000    0.76999998    2.89000010
   18.05722237   -1.00000000    0.76999998    2.89000010
   18.06027794   -1.00000000    0.81999999    2.91000009
   18.07055664   -1.00000000    0.98000002    2.89000010
   18.07389069   -1.00000000    1.00000000    2.91000009
   18.07694626   -1.00000000    1.00000000    2.91000009
   18.08027840   -1.00000000    3.03999996    2.86999989
   18.08333397   -1.00000000    4.90999985    2.75000000
   18.08694458   -1.00000000    4.90999985    2.76999998
   18.09027863   -1.00000000    4.90999985    2.66000009
   18.09333420   -1.00000000    4.90999985    2.39000010
   18.09666824   -1.00000000    4.90999985    2.13000011
   18.10000038   -1.00000000    4.90999985    2.21000004
   18.10305595   -1.00000000    4.90999985    2.13000011
   18.11333466   -1.00000000    4.90999985    2.34999990
   18.11666679   -1.00000000    4.90999985    2.42000008
   18.12027740   -1.00000000    4.90999985    2.48000002
   18.12361145   -1.00000000    4.90999985    2.42000008
   18.12666702   -1.00000000    4.90999985    2.40000010
   18.13000107   -1.00000000    4.90999985    2.46000004
   18.13333321   -1.00000000    4.90999985    2.50000000
   18.13638878   -1.00000000    4.90999985    2.48000002
   18.13999939   -1.00000000    4.90999985    2.46000004
   18.14333344   -1.00000000    4.90999985    2.48000002
   18.14638901   -1.00000000    4.90999985    2.50000000
   18.15611076   -1.00000000    4.90999985    2.59999990
   18.15944481   -1.00000000    4.90999985    2.57999992
   18.16277695   -1.00000000    4.90999985    2.48000002
   18.16583252   -1.00000000    4.90999985    2.57999992
   18.16916656   -1.00000000    4.90999985    2.50000000
   18.17249870   -1.00000000    4.90999985    2.48000002
   18.17555428   -1.00000000    4.90999985    2.48000002
   18.17888832   -1.00000000    4.90999985    2.44000006
   18.18194389   -1.00000000    4.90999985    2.39000010
   18.18555450   -1.00000000    4.90999985    2.30999994
   18.18888855   -1.00000000    4.90999985    2.30999994
   18.19916534   -1.00000000    4.90999985    2.19000006
   18.20222282   -1.00000000    4.90999985    2.05999994
   18.20555687   -1.00000000    4.90999985    2.40000010
   18.20861244   -1.00000000    4.90999985    2.28999996
   18.21194458   -1.00000000    4.90999985    2.30999994
   18.21527863   -1.00000000    4.90999985    2.48000002
   18.21861076   -1.00000000    4.90999985    2.48000002
   18.22194481   -1.00000000    4.90999985    2.53999996
   18.22500038   -1.00000000    4.90999985    2.53999996
   18.22833443   -1.00000000    4.90999985    2.51999998
   18.23166656   -1.00000000    4.90999985    2.42000008
   18.24194527   -1.00000000    4.90999985    2.42000008
   18.24500084   -1.00000000    4.90999985    1.88000000
   18.24833298   -1.00000000    4.90999985    2.46000004
   18.25194359   -1.00000000    4.90999985    2.55999994
   18.25527763   -1.00000000    4.90999985    2.46000004
   18.25833321   -1.00000000    4.90999985    2.73000002
   18.26166725   -1.00000000    4.90999985    2.76999998
   18.26499939   -1.00000000    4.90999985    2.64000010
   18.26805496   -1.00000000    4.90999985    2.73000002
   18.27138901   -1.00000000    4.90999985    2.80999994
   18.27444458   -1.00000000    4.26999998    2.82999992
   18.28472137   -1.00000000    1.76999998    2.86999989
   18.28833199   -1.00000000    1.34000003    2.86999989
   18.29166603   -1.00000000    0.95999998    2.86999989
   18.29500008   -1.00000000    0.94000000    2.86999989
   18.29805565   -1.00000000    0.76999998    2.86999989
   18.30138779   -1.00000000    0.76999998    2.86999989
   18.30472183   -1.00000000    0.79000002    2.89000010
   18.30777740   -1.00000000    0.79000002    2.89000010
   18.31110954   -1.00000000    0.76999998    2.89000010
   18.31416512   -1.00000000    0.73000002    2.86999989
   18.31750107   -1.00000000    0.73000002    2.86999989
   18.32750130   -1.00000000    0.73000002    2.89000010
   18.33083344   -1.00000000    0.73000002    2.86999989
   18.33416748   -1.00000000    0.73000002    2.86999989
   18.33722305   -1.00000000    0.75000000    2.86999989
   18.34055710   -1.00000000    0.75000000    2.86999989
   18.34388924   -1.00000000    0.76999998    2.86999989
   18.34694481   -1.00000000    0.76999998    2.89000010
   18.35027885   -1.00000000    0.76999998    2.89000010
   18.35361099   -1.00000000    0.76999998    2.86999989
   18.35694504   -1.00000000    0.76999998    2.89000010
   18.36027908   -1.00000000    0.76999998    2.89000010
   18.37055588   -1.00000000    0.76999998    2.86999989
   18.37361145   -1.00000000    0.76999998    2.86999989
   18.37694550   -1.00000000    0.76999998    2.86999989
   18.38027763   -1.00000000    0.76999998    2.86999989
   18.38333321   -1.00000000    0.79000002    2.86999989
   18.38694382   -1.00000000    0.76999998    2.86999989
   18.39027786   -1.00000000    0.76999998    2.86999989
   18.39361191   -1.00000000    0.79000002    2.86999989
   18.39666748   -1.00000000    0.79000002    2.86999989
   18.39999962   -1.00000000    0.79000002    2.86999989
   18.40333366   -1.00000000    0.79000002    2.89000010
   18.41333389   -1.00000000    0.81999999    2.86999989
   18.41666603   -1.00000000    0.86000001    2.86999989
   18.42000008   -1.00000000    0.88000000    2.86999989
   18.42333221   -1.00000000    0.88000000    2.86999989
   18.42666626   -1.00000000    0.88000000    2.86999989
   18.42972183   -1.00000000    0.88000000    2.86999989
   18.43305397   -1.00000000    0.88000000    2.89000010
   18.43638802   -1.00000000    0.86000001    2.86999989
   18.43944359   -1.00000000    0.83999997    2.86999989
   18.44277763   -1.00000000    0.83999997    2.86999989
   18.44583321   -1.00000000    0.81999999    2.89000010
   18.45611191   -1.00000000    0.81999999    2.86999989
   18.45944595   -1.00000000    0.80000001    2.89000010
   18.46250153   -1.00000000    0.80000001    2.86999989
   18.46583366   -1.00000000    0.80000001    2.86999989
   18.46916771   -1.00000000    0.80000001    2.86999989
   18.47222328   -1.00000000    0.80000001    2.86999989
   18.47555542   -1.00000000    0.80000001    2.86999989
   18.47888947   -1.00000000    0.80000001    2.86999989
   18.48194504   -1.00000000    0.80000001    2.89000010
   18.48527718   -1.00000000    0.80000001    2.89000010
   18.48888969   -1.00000000    0.80000001    2.86999989
   18.49888992   -1.00000000    0.81999999    2.86999989
   18.50222206   -1.00000000    0.81999999    2.86999989
   18.50555611   -1.00000000    0.81999999    2.86999989
   18.50861168   -1.00000000    0.81999999    2.89000010
   18.51194382   -1.00000000    1.09000003    2.86999989
   18.51527786   -1.00000000    1.09000003    2.86999989
   18.51833344   -1.00000000    0.81999999    2.89000010
   18.52194405   -1.00000000    0.81999999    2.86999989
   18.52527809   -1.00000000    0.81999999    2.86999989
   18.52833366   -1.00000000    0.81999999    2.86999989
   18.53166580   -1.00000000    0.80000001    2.86999989
   18.54194450   -1.00000000    0.81999999    2.86999989
   18.54500008   -1.00000000    0.81999999    2.86999989
   18.54833221   -1.00000000    0.81999999    2.86999989
   18.55166626   -1.00000000    0.83999997    2.86999989
   18.55499840   -1.00000000    0.83999997    2.86999989
   18.55833244   -1.00000000    0.83999997    2.86999989
   18.56138802   -1.00000000    0.83999997    2.86999989
   18.56472206   -1.00000000    0.86000001    2.86999989
   18.56805611   -1.00000000    0.92000002    2.86999989
   18.57111168   -1.00000000    0.92000002    2.86999989
   18.57444572   -1.00000000    0.92000002    2.86999989
   18.58472252   -1.00000000    0.95999998    2.86999989
   18.58833313   -1.00000000    0.95999998    2.86999989
   18.59166718   -1.00000000    0.95999998    2.84999990
   18.59472275   -1.00000000    0.95999998    2.86999989
   18.59805679   -1.00000000    0.98000002    2.86999989
   18.60138893   -1.00000000    0.95999998    2.86999989
   18.60444450   -1.00000000    0.95999998    2.84999990
   18.60777855   -1.00000000    0.94000000    2.86999989
   18.61111069   -1.00000000    0.94000000    2.86999989
   18.61416626   -1.00000000    0.92000002    2.84999990
   18.61750031   -1.00000000    0.88000000    2.84999990
   18.62750053   -1.00000000    0.88000000    2.84999990
   18.63083267   -1.00000000    0.88000000    2.84999990
   18.63388824   -1.00000000    0.95999998    2.86999989
   18.63722229   -1.00000000    1.00000000    2.86999989
   18.64055634   -1.00000000    0.89999998    2.86999989
   18.64361191   -1.00000000    0.89999998    2.86999989
   18.64694405   -1.00000000    0.89999998    2.86999989
   18.65027809   -1.00000000    0.89999998    2.86999989
   18.65361023   -1.00000000    0.95999998    2.86999989
   18.65694427   -1.00000000    0.89999998    2.86999989
   18.65999985   -1.00000000    0.89999998    2.86999989
   18.67027664   -1.00000000    0.98000002    2.86999989
   18.67361069   -1.00000000    1.01999998    2.86999989
   18.67694473   -1.00000000    1.05999994    2.84999990
   18.68000031   -1.00000000    1.05999994    2.86999989
   18.68333244   -1.00000000    1.05999994    2.86999989
   18.68694305   -1.00000000    1.01999998    2.86999989
   18.69027710   -1.00000000    0.98000002    2.84999990
   18.69333267   -1.00000000    0.98000002    2.84999990
   18.69666672   -1.00000000    0.98000002    2.86999989
   18.70000076   -1.00000000    1.00000000    2.86999989
   18.70305634   -1.00000000    0.98000002    2.86999989
   18.71333504   -1.00000000    0.88000000    2.86999989
   18.71638870   -1.00000000    0.88000000    2.86999989
   18.72000122   -1.00000000    0.86000001    2.86999989
   18.72333336   -1.00000000    0.86000001    2.86999989
   18.72638893   -1.00000000    0.86000001    2.86999989
   18.72972298   -1.00000000    0.80000001    2.86999989
   18.73305511   -1.00000000    0.79000002    2.84999990
   18.73611069   -1.00000000    0.79000002    2.86999989
   18.73944473   -1.00000000    0.80000001    2.86999989
   18.74250031   -1.00000000    0.80000001    2.86999989
   18.74583435   -1.00000000    0.79000002    2.86999989
   18.77027702   -1.00000000    0.73000002    2.86999989
   18.77361107   -1.00000000    0.73000002    2.86999989
   18.77666664   -1.00000000    0.73000002    2.86999989
   18.78000069   -1.00000000    0.73000002    2.86999989
   18.78333282   -1.00000000    0.73000002    2.86999989
   18.78638840   -1.00000000    0.76999998    2.86999989
   18.78972244   -1.00000000    3.50000000    2.84999990
   18.79916573   -1.00000000    0.67000002    2.84999990
   18.80222130   -1.00000000    0.67000002    2.86999989
   18.80611038   -1.00000000    0.64999998    2.86999989
   18.80916595   -1.00000000    0.64999998    2.86999989
   18.81250000   -1.00000000    0.64999998    2.89000010
   18.81555557   -1.00000000    0.64999998    2.89000010
   18.81888962   -1.00000000    0.63000000    2.86999989
   18.82222366   -1.00000000    0.63000000    2.89000010
   18.82527924   -1.00000000    0.63000000    2.86999989
   18.82861137   -1.00000000    0.63000000    2.86999989
   18.83194542   -1.00000000    0.63000000    2.86999989
   18.84194565   -1.00000000    0.63000000    2.89000010
   18.84527779   -1.00000000    0.61000001    2.89000010
   18.84833336   -1.00000000    0.63000000    2.89000010
   18.85166740   -1.00000000    0.63000000    2.89000010
   18.85472298   -1.00000000    0.63000000    2.89000010
   18.85805511   -1.00000000    0.63000000    2.86999989
   18.86138916   -1.00000000    0.61000001    2.89000010
   18.86444473   -1.00000000    0.63000000    2.89000010
   18.86777878   -1.00000000    0.63000000    2.86999989
   18.87138939   -1.00000000    0.63000000    2.89000010
   18.87444496   -1.00000000    0.64999998    2.86999989
   18.88472176   -1.00000000    0.75000000    2.89000010
   18.88805580   -1.00000000    0.83999997    2.86999989
   18.89111137   -1.00000000    1.00000000    2.86999989
   18.89444351   -1.00000000    0.89999998    2.86999989
   18.89777756   -1.00000000    0.76999998    2.86999989
   18.90083313   -1.00000000    0.75000000    2.86999989
   18.90472221   -1.00000000    0.79000002    2.86999989
   18.90777779   -1.00000000    0.79000002    2.86999989
   18.91110992   -1.00000000    0.80000001    2.86999989
   18.91416550   -1.00000000    0.79000002    2.86999989
   18.91749954   -1.00000000    0.79000002    2.86999989
   18.92749977   -1.00000000    0.81999999    2.86999989
   18.93083191   -1.00000000    0.81999999    2.86999989
   18.93416595   -1.00000000    0.80000001    2.86999989
   18.93777657   -1.00000000    0.81999999    2.86999989
   18.94111061   -1.00000000    0.81999999    2.89000010
   18.94416618   -1.00000000    0.81999999    2.89000010
   18.94749832   -1.00000000    0.81999999    2.86999989
   18.95083427   -1.00000000    0.79000002    2.86999989
   18.95388985   -1.00000000    0.76999998    2.86999989
   18.95722389   -1.00000000    0.76999998    2.86999989
   18.96027946   -1.00000000    0.75000000    2.86999989
   18.97055626   -1.00000000    0.69000000    2.86999989
   18.97361183   -1.00000000    0.69000000    2.86999989
   18.97694588   -1.00000000    0.69000000    2.86999989
   18.98027802   -1.00000000    0.70999998    2.86999989
   18.98333359   -1.00000000    0.69000000    2.86999989
   18.98666763   -1.00000000    0.69000000    2.86999989
   18.98972321   -1.00000000    0.69000000    2.86999989
   18.99305534   -1.00000000    0.67000002    2.86999989
   18.99638939   -1.00000000    0.67000002    2.86999989
   18.99944496   -1.00000000    0.67000002    2.86999989
   19.00277710   -1.00000000    0.69000000    2.89000010
   19.01333427   -1.00000000    0.69000000    2.89000010
   19.01666641   -1.00000000    0.67000002    2.86999989
   19.01972198   -1.00000000    0.67000002    2.86999989
   19.02305603   -1.00000000    0.67000002    2.86999989
   19.02611160   -1.00000000    0.67000002    2.86999989
   19.02944374   -1.00000000    0.64999998    2.89000010
   19.03277779   -1.00000000    0.63000000    2.86999989
   19.03583336   -1.00000000    0.61000001    2.86999989
   19.03944397   -1.00000000    0.63000000    2.86999989
   19.04249954   -1.00000000    0.63000000    2.86999989
   19.04583359   -1.00000000    0.63000000    2.86999989
   19.05611038   -1.00000000    0.76999998    2.86999989
   19.05944443   -1.00000000    0.86000001    2.86999989
   19.06250000   -1.00000000    1.00000000    2.86999989
   19.06583214   -1.00000000    1.26999998    2.86999989
   19.06916809   -1.00000000    1.26999998    2.86999989
   19.07277870   -1.00000000    1.34000003    2.86999989
   19.07583427   -1.00000000    0.70999998    2.86999989
   19.07916832   -1.00000000    0.64999998    2.86999989
   19.08222389   -1.00000000    0.67000002    2.86999989
   19.08555603   -1.00000000    0.67000002    2.86999989
   19.08889008   -1.00000000    0.67000002    2.86999989
   19.09889030   -1.00000000    0.69000000    2.86999989
   19.10222244   -1.00000000    0.70999998    2.84999990
   19.10583305   -1.00000000    0.73000002    2.86999989
   19.10888863   -1.00000000    0.75000000    2.86999989
   19.11222267   -1.00000000    0.76999998    2.86999989
   19.11527824   -1.00000000    0.76999998    2.86999989
   19.11861038   -1.00000000    0.76999998    2.86999989
   19.12194443   -1.00000000    0.79000002    2.86999989
   19.12500000   -1.00000000    0.79000002    2.84999990
   19.12833405   -1.00000000    0.79000002    2.84999990
   19.13166618   -1.00000000    0.79000002    2.86999989
   19.14194489   -1.00000000    0.76999998    2.86999989
   19.14500046   -1.00000000    0.75000000    2.86999989
   19.14833260   -1.00000000    0.73000002    2.86999989
   19.15138817   -1.00000000    0.70999998    2.86999989
   19.15472221   -1.00000000    0.70999998    2.86999989
   19.15805435   -1.00000000    0.73000002    2.84999990
   19.16110992   -1.00000000    0.73000002    2.84999990
   19.16444397   -1.00000000    0.75000000    2.86999989
   19.16777802   -1.00000000    0.75000000    2.86999989
   19.17138863   -1.00000000    0.80000001    2.84999990
   19.17444420   -1.00000000    0.80000001    2.84999990
   19.18472099   -1.00000000    0.80000001    2.86999989
   19.18805504   -1.00000000    0.81999999    2.86999989
   19.19111061   -1.00000000    0.83999997    2.86999989
   19.19444275   -1.00000000    0.83999997    2.84999990
   19.19749832   -1.00000000    0.83999997    2.84999990
   19.20083427   -1.00000000    0.86000001    2.84999990
   19.20444489   -1.00000000    0.86000001    2.84999990
   19.20750046   -1.00000000    0.88000000    2.84999990
   19.21083450   -1.00000000    0.81999999    2.84999990
   19.21416664   -1.00000000    0.80000001    2.84999990
   19.21722221   -1.00000000    0.81999999    2.86999989
   19.22750092   -1.00000000    0.83999997    2.84999990
   19.23083305   -1.00000000    0.86000001    2.84999990
   19.23388863   -1.00000000    0.88000000    2.84999990
   19.23750114   -1.00000000    0.92000002    2.84999990
   19.24055672   -1.00000000    0.94000000    2.82999992
   19.24388885   -1.00000000    0.94000000    2.82999992
   19.24694443   -1.00000000    0.98000002    0.05000000
   19.25027847   -1.00000000    0.98000002    0.01000000
   19.25361061   -1.00000000    0.98000002    2.78999996
   19.25666618   -1.00000000    0.98000002    2.84999990
   19.26000023   -1.00000000    0.95999998    2.84999990
   19.27027702   -1.00000000    0.92000002    2.82999992
   19.27361107   -1.00000000    0.94000000    2.82999992
   19.27694511   -1.00000000    0.95999998    2.82999992
   19.28000069   -1.00000000    1.03999996    2.82999992
   19.28333282   -1.00000000    1.03999996    2.82999992
   19.28638840   -1.00000000    1.13000000    2.82999992
   19.28972244   -1.00000000    1.21000004    2.84999990
   19.29305458   -1.00000000    1.21000004    2.84999990
   19.29611015   -1.00000000    1.16999996    2.82999992
   19.29944420   -1.00000000    1.11000001    2.82999992
   19.30277634   -1.00000000    1.01999998    2.84999990
   19.31333351   -1.00000000    0.94000000    2.84999990
   19.31638718   -1.00000000    0.89999998    2.84999990
   19.31972313   -1.00000000    0.89999998    2.84999990
   19.32305717   -1.00000000    0.92000002    2.84999990
   19.32611275   -1.00000000    0.94000000    2.84999990
   19.32944489   -1.00000000    0.95999998    2.84999990
   19.33277893   -1.00000000    0.98000002    2.84999990
   19.33583450   -1.00000000    0.98000002    2.84999990
   19.33944511   -1.00000000    1.00000000    2.82999992
   19.34277916   -1.00000000    1.01999998    2.84999990
   19.34583473   -1.00000000    1.01999998    2.82999992
   19.35611153   -1.00000000    1.05999994    2.82999992
   19.35944557   -1.00000000    1.03999996    2.82999992
   19.36250114   -1.00000000    1.03999996    2.84999990
   19.36583328   -1.00000000    1.03999996    2.84999990
   19.36888885   -1.00000000    1.03999996    2.84999990
   19.37249947   -1.00000000    1.03999996    2.82999992
   19.37555504   -1.00000000    1.03999996    2.82999992
   19.37888908   -1.00000000    1.01999998    2.82999992
   19.38222313   -1.00000000    1.01999998    2.82999992
   19.38527679   -1.00000000    1.01999998    2.82999992
   19.38861084   -1.00000000    1.03999996    2.82999992
   19.39888954   -1.00000000    1.03999996    2.82999992
   19.40250015   -1.00000000    1.03999996    2.82999992
   19.40611076   -1.00000000    1.01999998    2.82999992
   19.40916634   -1.00000000    1.01999998    2.82999992
   19.41250038   -1.00000000    0.98000002    2.82999992
   19.41583252   -1.00000000    0.95999998    2.82999992
   19.41888809   -1.00000000    0.95999998    2.82999992
   19.42222214   -1.00000000    0.95999998    2.80999994
   19.42527771   -1.00000000    0.95999998    2.80999994
   19.42860985   -1.00000000    1.00000000    2.82999992
   19.43194389   -1.00000000    0.98000002    2.82999992
   19.44166565   -1.00000000    3.43000007    2.78999996
   19.44499969   -1.00000000    4.90999985    2.73000002
   19.44833183   -1.00000000    4.34999990    2.78999996
   19.45138931   -1.00000000    2.00000000    2.82999992
   19.45472336   -1.00000000    1.64999998    2.80999994
   19.45777893   -1.00000000    1.33000004    2.82999992
   19.46111107   -1.00000000    1.11000001    2.82999992
   19.46444511   -1.00000000    1.05999994    2.82999992
   19.46750069   -1.00000000    0.98000002    2.84999990
   19.47111130   -1.00000000    0.94000000    2.82999992
   19.47416687   -1.00000000    0.94000000    2.82999992
   19.48472214   -1.00000000    0.98000002    2.82999992
   19.48777771   -1.00000000    0.98000002    2.82999992
   19.49111176   -1.00000000    0.98000002    2.82999992
   19.49416733   -1.00000000    1.00000000    2.82999992
   19.49749947   -1.00000000    1.00000000    2.82999992
   19.50083351   -1.00000000    1.01999998    2.82999992
   19.50444412   -1.00000000    1.01999998    2.82999992
   19.50749969   -1.00000000    1.01999998    2.82999992
   19.51083374   -1.00000000    1.01999998    2.80999994
   19.51416588   -1.00000000    1.09000003    2.82999992
   19.51722145   -1.00000000    1.98000002    2.82999992
   19.52750015   -1.00000000    4.63999987    2.80999994
   19.53055573   -1.00000000    2.75000000    2.80999994
   19.53388786   -1.00000000    1.73000002    2.80999994
   19.53750038   -1.00000000    1.14999998    2.82999992
   19.54055595   -1.00000000    1.05999994    2.80999994
   19.54388809   -1.00000000    1.00000000    2.80999994
   19.54722214   -1.00000000    0.98000002    2.80999994
   19.55027771   -1.00000000    0.98000002    2.82999992
   19.55360985   -1.00000000    1.00000000    2.80999994
   19.55666542   -1.00000000    0.98000002    2.82999992
   19.55999947   -1.00000000    0.98000002    2.82999992
   19.57027817   -1.00000000    1.03999996    2.82999992
   19.57361221   -1.00000000    1.05999994    2.80999994
   19.57666779   -1.00000000    1.14999998    2.82999992
   19.58000183   -1.00000000    1.28999996    2.82999992
   19.58333397   -1.00000000    1.26999998    2.82999992
   19.58638954   -1.00000000    1.23000002    2.80999994
   19.58972359   -1.00000000    1.55999994    2.80999994
   19.59277916   -1.00000000    1.30999994    2.82999992
   19.59611130   -1.00000000    1.26999998    2.82999992
   19.59944534   -1.00000000    1.23000002    2.82999992
   19.60250092   -1.00000000    1.23000002    2.82999992
   19.61305618   -1.00000000    1.19000006    2.82999992
   19.61638832   -1.00000000    1.19000006    2.82999992
   19.61972237   -1.00000000    1.19000006    2.82999992
   19.62277794   -1.00000000    1.19000006    2.82999992
   19.62611198   -1.00000000    1.23000002    2.82999992
   19.62944412   -1.00000000    1.30999994    2.80999994
   19.63249969   -1.00000000    2.80999994    2.78999996
   19.63583374   -1.00000000    4.90999985    2.73000002
   19.63944435   -1.00000000    4.90999985    2.69000006
   19.64249992   -1.00000000    4.90999985    2.71000004
   19.64583397   -1.00000000    4.90999985    2.75000000
   19.65611076   -1.00000000    4.90999985    2.76999998
   19.65916634   -1.00000000    4.90999985    2.73000002
   19.66250038   -1.00000000    4.90999985    2.61999989
   19.66555595   -1.00000000    4.90999985    2.55999994
   19.66888809   -1.00000000    4.90999985    2.67000008
   19.67249870   -1.00000000    4.90999985    2.67000008
   19.67555428   -1.00000000    4.90999985    2.73000002
   19.67888832   -1.00000000    4.90999985    2.75000000
   19.68222237   -1.00000000    4.90999985    2.67000008
   19.68527603   -1.00000000    4.90999985    2.59999990
   19.68861008   -1.00000000    4.90999985    2.57999992
   19.69888878   -1.00000000    4.90999985    2.40000010
   19.70194435   -1.00000000    4.90999985    2.13000011
   19.70555687   -1.00000000    4.90999985    2.32999992
   19.70861244   -1.00000000    4.90999985    2.30999994
   19.71194458   -1.00000000    4.90999985    2.21000004
   19.71527863   -1.00000000    4.90999985    2.13000011
   19.71833420   -1.00000000    4.90999985    2.21000004
   19.72166634   -1.00000000    4.90999985    2.34999990
   19.72500038   -1.00000000    4.90999985    2.30999994
   19.72805595   -1.00000000    4.90999985    2.23000002
   19.73139000   -1.00000000    4.90999985    2.15000010
   19.74166679   -1.00000000    4.90999985    1.30999994
   19.74500084   -1.00000000    4.90999985    1.41999996
   19.74805641   -1.00000000    4.90999985    1.46000004
   19.75138855   -1.00000000    4.90999985    1.78999996
   19.75444412   -1.00000000    4.90999985    1.61000001
   19.75777817   -1.00000000    4.90999985    1.55999994
   19.76111031   -1.00000000    4.90999985    1.46000004
   19.76416588   -1.00000000    4.90999985    1.41999996
   19.76749992   -1.00000000    4.90999985    1.41999996
   19.79472160   -1.00000000    4.90999985    1.53999996
   19.79805565   -1.00000000    4.90999985    1.46000004
   19.80111122   -1.00000000    4.90999985    1.55999994
   19.80472183   -1.00000000    4.90999985    1.39999998
   19.80777740   -1.00000000    4.90999985    1.39999998
   19.81110954   -1.00000000    4.90999985    0.95999998
   19.81444359   -1.00000000    4.90999985    0.76999998
   19.81750107   -1.00000000    4.90999985    0.88000000
   19.82083511   -1.00000000    4.90999985    0.80000001
   19.82416725   -1.00000000    4.90999985    0.94000000
   19.82722282   -1.00000000    4.90999985    0.61000001
   19.83750153   -1.00000000    4.90999985    0.55000001
   19.84083366   -1.00000000    4.90999985    0.69000000
   19.84388924   -1.00000000    4.90999985    0.69000000
   19.84722328   -1.00000000    4.90999985    1.01999998
   19.85027885   -1.00000000    4.90999985    1.16999996
   19.85361099   -1.00000000    4.90999985    1.01999998
   19.85694504   -1.00000000    4.90999985    1.23000002
   19.86000061   -1.00000000    4.90999985    1.51999998
   19.86333466   -1.00000000    4.90999985    1.48000002
   19.86666679   -1.00000000    4.90999985    1.66999996
   19.86972237   -1.00000000    4.90999985    2.07999992
   19.88027763   -1.00000000    4.90999985    2.23000002
   19.88361168   -1.00000000    4.90999985    2.09999990
   19.88666725   -1.00000000    4.90999985    1.78999996
   19.88999939   -1.00000000    4.90999985    1.60000002
   19.89333344   -1.00000000    4.90999985    1.75000000
   19.89638901   -1.00000000    4.90999985    1.83000004
   19.89972115   -1.00000000    4.90999985    1.53999996
   19.90305519   -1.00000000    4.90999985    1.83000004
   19.90638924   -1.00000000    4.90999985    1.91999996
   19.90972137   -1.00000000    4.90999985    1.55999994
   19.91305542   -1.00000000    4.90999985    1.89999998
   19.92305565   -1.00000000    4.90999985    1.78999996
   19.92638779   -1.00000000    4.90999985    2.07999992
   19.92972183   -1.00000000    4.90999985    2.17000008
   19.93277740   -1.00000000    4.90999985    2.23000002
   19.93610954   -1.00000000    4.90999985    1.80999994
   19.93944359   -1.00000000    4.90999985    1.44000006
   19.94277763   -1.00000000    4.90999985    1.36000001
   19.94610977   -1.00000000    4.90999985    1.19000006
   19.94916534   -1.00000000    4.90999985    1.39999998
   19.95250130   -1.00000000    4.90999985    1.41999996
   19.95583344   -1.00000000    4.90999985    1.30999994
   19.96611214   -1.00000000    4.90999985    1.23000002
   19.96916771   -1.00000000    4.90999985    1.09000003
   19.97277832   -1.00000000    4.90999985    0.95999998
   19.97611237   -1.00000000    4.90999985    0.86000001
   19.97944450   -1.00000000    4.90999985    0.98000002
   19.98250008   -1.00000000    4.90999985    1.03999996
   19.98583412   -1.00000000    4.90999985    1.14999998
   19.98916626   -1.00000000    4.90999985    1.64999998
   19.99222183   -1.00000000    4.90999985    2.09999990
   19.99555588   -1.00000000    4.90999985    2.30999994
   19.99861145   -1.00000000    4.90999985    2.53999996
   20.00888824   -1.00000000    4.90999985    2.19000006
   20.01222229   -1.00000000    4.90999985    2.42000008
   20.01527786   -1.00000000    4.90999985    2.51999998
   20.01861000   -1.00000000    4.90999985    2.57999992
   20.02166557   -1.00000000    4.90999985    2.53999996
   20.02499962   -1.00000000    4.90999985    2.55999994
   20.02833366   -1.00000000    4.90999985    2.50000000
   20.03138924   -1.00000000    4.90999985    2.50000000
   20.03472137   -1.00000000    4.90999985    2.51999998
   20.03833199   -1.00000000    4.90999985    2.51999998
   20.04138756   -1.00000000    4.90999985    2.55999994
   20.05166626   -1.00000000    4.90999985    2.64000010
   20.05499840   -1.00000000    4.90999985    2.55999994
   20.05805397   -1.00000000    4.90999985    2.46000004
   20.06138802   -1.00000000    4.90999985    2.57999992
   20.06472206  152.34300232    4.90999985    2.59999990
   20.06777954  136.91299438    4.90999985    2.55999994
   20.07027817  148.39300537    4.90999985    2.55999994
   20.07166672  145.35600281    4.90999985    2.57999992
   20.07472229  147.42500305    4.90999985    2.48000002
   20.07805634  147.18200684    4.90999985    2.48000002
   20.08139038  145.84300232    4.90999985    2.42000008
   20.08444595  137.57400513    4.90999985    2.48000002
   20.09055710  137.57400513    4.90999985    2.51999998
   20.09472275  137.36300659    4.90999985    2.46000004
   20.09777832  155.01499939    4.90999985    2.48000002
   20.10111237  150.65699768    4.90999985    2.32999992
   20.10361099  165.66700745    4.90999985    2.34999990
   20.10472298  150.09800720    4.90999985    2.32999992
   20.10805511  143.62800598    4.90999985    2.40000010
   20.11111069  157.33299255    4.90999985    2.44000006
   20.11444473  145.96899414    4.90999985    2.44000006
   20.11750031  143.65299988    4.90999985    2.50000000
   20.12083435  131.45300293    4.90999985    2.48000002
   20.12416649  145.64900208    4.90999985    2.50000000
   20.12722206  147.74600220    4.90999985    2.46000004
   20.13333321  147.74600220    4.90999985    2.46000004
   20.13750076  146.19599915    4.90999985    2.53999996
   20.14055634  138.52200317    4.90999985    2.46000004
   20.14388847  140.51699829    4.90999985    2.44000006
   20.14722252  140.01600647    4.90999985    2.46000004
   20.15027809  142.30799866    4.90999985    2.44000006
   20.15361023  133.51199341    4.90999985    2.55999994
   20.15694427  136.62699890    4.90999985    2.64000010
   20.15999985  127.29399872    4.90999985    2.69000006
   20.16333389  132.20100403    4.90999985    2.67000008
   20.16638756  147.45300293    4.90999985    2.46000004
   20.16972160  166.88099670    4.90999985    2.26999998
   20.17027664  168.33000183    4.90999985    2.26999998
   20.17611122  168.33000183    4.90999985    1.96000004
   20.18027687  198.92999268    4.90999985    1.91999996
   20.18361092  170.61000061    4.90999985    2.05999994
   20.18666649  137.25100708    4.90999985    2.42000008
   20.18999863  128.86700439    4.90999985    2.66000009
   20.19333267  130.14100647    4.90999985    2.67000008
   20.19638824  127.07499695    4.90999985    2.61999989
   20.19972038  131.81199646    4.90999985    2.67000008
   20.20277786  143.16200256    4.90999985    2.66000009
   20.20361137  130.13099670    4.90999985    2.64000010
   20.20666695  139.15199280    4.90999985    2.67000008
   20.20972252  140.91400146    4.90999985    2.64000010
   20.21305656  145.53199768    4.90999985    2.59999990
   20.21888924  145.53199768    4.90999985    2.28999996
   20.22305679   -1.00000000    4.90999985    1.89999998
   20.22638893   80.63069916    4.90999985    1.50000000
   20.22972298  252.18600464    4.90999985    1.88000000
   20.23277855   -1.00000000    4.90999985    2.00000000
   20.23611069  136.34100342    4.90999985    1.76999998
   20.23694420  272.67498779    4.90999985    1.78999996
   20.23972321  158.32099915    4.90999985    1.96000004
   20.24277878  160.25500488    4.90999985    2.26999998
   20.24611092  128.67199707    4.90999985    2.64000010
   20.24944496  130.23800659    4.90999985    2.78999996
   20.25250053  134.71600342    4.90999985    2.69000006
   20.25583267  144.52499390    4.90999985    2.48000002
   20.26194382  144.52499390    4.90999985    2.32999992
   20.26611137  132.83900452    4.90999985    2.57999992
   20.26916695  128.63999939    4.90999985    2.69000006
   20.27027702  150.70899963    4.90999985    2.67000008
   20.27277756  130.75000000    4.90999985    2.46000004
   20.27583313  131.60400391    4.90999985    2.75000000
   20.27916718  125.61699677    3.03999996    2.75000000
   20.28249931  128.08999634    2.44000006    2.76999998
   20.28555489  128.07200623    2.75000000    2.76999998
   20.28888893  132.40299988    2.46000004    2.75000000
   20.29222107  138.45899963    2.50000000    2.59999990
   20.29527664  122.30200195    4.05999994    2.64000010
   20.29861069  131.83500671    3.76999998    2.75000000
   20.30472183  131.83500671    1.58000004    2.76999998
   20.30888748  128.51699829    1.44000006    2.75000000
   20.31194305  129.85499573    1.50000000    2.75000000
   20.31527710  129.21800232    1.50000000    2.75000000
   20.31861115  130.19200134    1.46000004    2.75000000
   20.32166672  132.56599426    1.44000006    2.75000000
   20.32500076  126.26699829    1.41999996    2.75000000
   20.32833481  126.56700134    1.44000006    2.76999998
   20.33139038  127.96399689    1.44000006    2.76999998
   20.33472252  126.80000305    1.41999996    2.76999998
   20.33694458  127.40200043    1.44000006    2.75000000
   20.33833313  126.12999725    1.44000006    2.75000000
   20.34138870  124.94899750    1.44000006    2.75000000
   20.34749985  124.94899750    1.46000004    2.75000000
   20.35166740  132.97599792    1.46000004    2.75000000
   20.35499954  120.34899902    1.46000004    2.75000000
   20.35805511  124.78600311    1.46000004    2.75000000
   20.36138916  127.98799896    1.46000004    2.75000000
   20.36472321  124.86100006    1.50000000    2.75000000
   20.36777878  126.93499756    3.93000007    2.71000004
   20.37027740  135.55999756    4.71999979    2.64000010
   20.37138939  140.01300049    4.90999985    2.59999990
   20.37444496  126.49400330    4.90999985    2.59999990
   20.37777710  130.21899414    4.90999985    2.64000010
   20.38111115  121.77700043    4.80000019    2.73000002
   20.38416672  122.05599976    3.09999990    2.73000002
   20.39027786  122.05599976    1.76999998    2.75000000
   20.39444351  129.54899597    1.69000006    2.75000000
   20.39777756  120.53900146    1.75000000    2.73000002
   20.40111160  124.14299774    1.88000000    2.73000002
   20.40361023  132.55599976    1.94000006    2.71000004
   20.40472221  122.70700073    2.09999990    2.75000000
   20.40777779  126.74500275    2.28999996    2.75000000
   20.41110992  122.77200317    1.96000004    2.73000002
   20.41444397  123.90499878    1.88000000    2.73000002
   20.41749954  124.07700348    1.86000001    2.73000002
   20.42083359  126.36499786    1.86000001    2.73000002
   20.42416573  121.16699982    1.86000001    2.73000002
   20.42722130  120.18000031    1.88000000    2.73000002
   20.43333244  120.18000031    2.00000000    2.73000002
   20.43722153  123.76300049    2.05999994    2.73000002
   20.44055557  123.69300079    2.17000008    2.73000002
   20.44388771  120.73300171    2.55999994    2.75000000
   20.44722176  116.67800140    2.73000002    2.71000004
   20.45027924  121.48300171    3.21000004    2.66000009
   20.45361137  204.53399658    3.61999989    2.67000008
   20.45694542  125.96700287    3.41000009    2.75000000
   20.46000099  125.49800110    2.46000004    2.73000002
   20.46333504  122.44999695    2.21000004    2.75000000
   20.46638870  118.87000275    2.21000004    2.75000000
   20.46972275  127.64800262    1.88000000    2.75000000
   20.47027779  129.39700317    1.89999998    2.75000000
   20.47611237  129.39700317    1.75000000    2.75000000
   20.48027802  124.22599792    1.64999998    2.75000000
   20.48361206  123.40799713    1.64999998    2.75000000
   20.48694420  127.05300140    1.64999998    2.75000000
   20.48999977  126.11100006    1.61000001    2.75000000
   20.49333382  126.76699829    1.53999996    2.75000000
   20.49666786  120.30100250    1.53999996    2.75000000
   20.49972153  124.55200195    1.48000002    2.75000000
   20.50305557  120.70700073    1.39999998    2.75000000
   20.50361061  118.57800293    1.39999998    2.75000000
   20.50666618  121.35199738    1.41999996    2.75000000
   20.51000023  126.17099762    1.41999996    2.75000000
   20.51305580  122.94899750    1.48000002    2.75000000
   20.51888847  122.94899750    1.60000002    2.75000000
   20.52305603  124.16999817    1.53999996    2.73000002
   20.52638817  122.54199982    1.51999998    2.75000000
   20.52944374  116.80899811    1.46000004    2.75000000
   20.53277779  125.07599640    1.46000004    2.75000000
   20.53610992  126.08599854    1.41999996    2.75000000
   20.53694344  120.95300293    1.41999996    2.75000000
   20.53972244  125.02999878    1.41999996    2.75000000
   20.54305458  125.62799835    1.36000001    2.75000000
   20.54611015  125.55599976    1.34000003    2.75000000
   20.54944420  123.45899963    1.36000001    2.75000000
   20.55249977  128.85099792    1.36000001    2.75000000
   20.55583191  124.93900299    1.39999998    2.75000000
   20.56166649  124.93900299    1.51999998    2.75000000
   20.56583214  131.48300171    1.75000000    2.75000000
   20.56916809  124.75700378    1.89999998    2.73000002
   20.57027817  123.47699738    1.89999998    2.73000002
   20.57277870  131.98800659    1.89999998    2.73000002
   20.57611275  126.91600037    2.23000002    2.73000002
   20.57916832  128.42100525    2.39000010    2.73000002
   20.58250046  123.83899689    2.40000010    2.73000002
   20.58555603  127.09400177    2.44000006    2.71000004
   20.58889008  127.38400269    2.48000002    2.71000004
   20.59222221  121.93199921    2.50000000    2.71000004
   20.59527779  129.39999390    2.50000000    2.71000004
   20.59861183  125.81900024    2.40000010    2.71000004
   20.60472298  125.81900024    2.34999990    2.73000002
   20.60888863  121.88400269    2.40000010    2.71000004
   20.61194420  121.13600159    2.46000004    2.71000004
   20.61527824  116.76999664    2.51999998    2.71000004
   20.61833382  127.56300354    2.53999996    2.71000004
   20.62166595  125.02500153    2.50000000    2.71000004
   20.62500000  132.09899902    2.40000010    2.71000004
   20.62805557  121.08899689    2.32999992    2.71000004
   20.63138962  127.62599945    2.21000004    2.71000004
   20.63472176  124.50199890    2.09999990    2.71000004
   20.63694382  120.08300018    2.01999998    2.71000004
   20.63833237  120.68699646    2.00000000    2.73000002
   20.64166641  117.49800110    1.91999996    2.73000002
   20.64749908  117.49800110    1.78999996    2.71000004
   20.65166664  123.20300293    1.75000000    2.71000004
   20.65472221  128.52099609    1.73000002    2.71000004
   20.65805435  123.60500336    1.73000002    2.73000002
   20.66138840  127.01000214    1.73000002    2.73000002
   20.66444397  124.46399689    1.86000001    2.73000002
   20.66777802  124.36499786    2.15000010    2.73000002
   20.67027664  126.60500336    2.15000010    2.73000002
   20.67138863  126.15899658    2.23000002    2.73000002
   20.67472076  123.10299683    2.89000010    2.61999989
   20.67777634  127.62100220    3.23000002    2.61999989
   20.68111038  128.55499268    4.90999985    2.71000004
   20.68416595  122.20099640    4.90999985    2.71000004
   20.69027710  122.20099640    4.90999985    2.17000008
   20.69444275  135.57099915    4.90999985    2.57999992
   20.69777679  142.88299561    4.90999985    2.55999994
   20.70083427  143.15400696    4.90999985    2.44000006
   20.70361137  148.76800537    4.90999985    2.42000008
   20.70444489  134.72500610    4.90999985    2.42000008
   20.70777893  131.61399841    4.90999985    2.55999994
   20.71083450  123.41300201    4.90999985    2.67000008
   20.71416664  123.80799866    4.90999985    2.67000008
   20.71722221  124.36900330    4.90999985    2.69000006
   20.72055626  132.14399719    4.90999985    2.61999989
   20.72389030  131.03399658    4.90999985    2.48000002
   20.72694588  129.36399841    4.90999985    2.57999992
   20.73305511  129.36399841    4.90999985    2.64000010
   20.73722267  144.89599609    4.90999985    2.40000010
   20.74055672  138.81199646    4.90999985    2.40000010
   20.74361229  125.93199921    4.90999985    2.59999990
   20.74694443  129.78199768    4.90999985    2.67000008
   20.75027847  133.25599670    4.90999985    2.69000006
   20.75333405  131.95399475    4.90999985    2.67000008
   20.75666618  141.97999573    4.90999985    2.66000009
   20.76000023  193.19400024    4.90999985    2.66000009
   20.76305580  166.18400574    4.90999985    2.21000004
   20.76638794  181.44299316    4.90999985    2.03999996
   20.76944351  184.29100037    4.90999985    2.00000000
   20.77027702  209.41299438    4.90999985    2.05999994
   20.77611160  209.41299438    4.90999985    1.96000004
   20.78000069  113.94000244    4.90999985    2.13000011
   20.78333282   -1.00000000    4.90999985    1.61000001
   20.78666687  111.92400360    4.90999985    1.33000004
   20.80666542   -1.00000000    4.90999985    1.11000001
   20.80972099   -1.00000000    4.90999985    0.81999999
   20.81305504   -1.00000000    4.90999985    0.80000001
   20.82305717   -1.00000000    4.90999985    0.67000002
   20.82638931   -1.00000000    4.90999985    0.64999998
   20.82944489   -1.00000000    4.90999985    0.61000001
   20.83277893   -1.00000000    4.90999985    0.63000000
   20.83611107   -1.00000000    4.90999985    0.55000001
   20.83944511   -1.00000000    4.90999985    0.52999997
   20.84277916   -1.00000000    4.90999985    0.56999999
   20.84583473   -1.00000000    4.90999985    0.64999998
   20.84916687   -1.00000000    4.90999985    0.30000001
   20.85250092   -1.00000000    4.90999985    0.28000000
   20.85555649   -1.00000000    4.90999985    0.46000001
   21.20750046  156.67999268    4.90999985    2.34999990
   21.21083450  144.67199707    4.90999985    2.40000010
   21.21416664  157.06799316    4.90999985    2.46000004
   21.21722221  143.07800293    4.90999985    2.39000010
   21.22055626  145.25100708    4.90999985    2.48000002
   21.22389030  152.02499390    4.90999985    2.44000006
   21.22777748  152.02499390    4.90999985    2.32999992
   21.23194504  170.20100403    4.90999985    2.30999994
   21.23527718  168.98899841    4.90999985    2.36999989
   21.23861122  153.06500244    4.90999985    2.36999989
   21.24083328  172.59500122    4.90999985    2.46000004
   21.24194527  149.31300354    4.90999985    2.40000010
   21.24527740  170.66200256    4.90999985    2.42000008
   21.24833298  197.05200195    4.90999985    2.23000002
   21.25166702  105.13200378    4.90999985    1.91999996
   21.25499916  110.85900116    4.90999985    1.76999998
   21.25805473   92.29170227    4.90999985    1.76999998
   21.26138878   -1.00000000    4.90999985    1.71000004
   21.26444435   -1.00000000    4.90999985    1.53999996
   21.27083397   -1.00000000    4.90999985    1.51999998
   21.27472115  135.87199402    4.90999985    1.58000004
   21.27805519   -1.00000000    4.90999985    1.78999996
   21.28138924   -1.00000000    4.90999985    1.64999998
   21.28444481   -1.00000000    4.90999985    1.63000000
   21.28777695   -1.00000000    4.90999985    1.46000004
   21.29111099   -1.00000000    4.90999985    1.44000006
   21.29416656   -1.00000000    4.90999985    1.36000001
   21.29749870   -1.00000000    4.90999985    1.44000006
   21.30055428   -1.00000000    4.90999985    1.36000001
   21.30388832   -1.00000000    4.90999985    1.41999996
   21.30722237   -1.00000000    4.90999985    1.46000004
   21.31361008   -1.00000000    4.90999985    1.33000004
   21.31777954   -1.00000000    4.90999985    1.36000001
   21.32083511   -1.00000000    4.90999985    1.41999996
   21.32416725   -1.00000000    4.90999985    1.36000001
   21.32750130   -1.00000000    4.90999985    1.21000004
   21.33055687   -1.00000000    4.90999985    1.33000004
   21.33388901   -1.00000000    4.90999985    1.34000003
   21.33694458   -1.00000000    4.90999985    1.26999998
   21.34027863   -1.00000000    4.90999985    1.30999994
   21.34388924   -1.00000000    4.90999985    1.21000004
   21.34722328   -1.00000000    4.90999985    0.98000002
   21.35027885   -1.00000000    4.90999985    0.81999999
   21.36055565   -1.00000000    4.90999985    0.73000002
   21.36388969   -1.00000000    4.90999985    0.64999998
   21.36694527   -1.00000000    4.90999985    0.56999999
   21.37027740   -1.00000000    4.90999985    0.52999997
   21.37333298   -1.00000000    4.90999985    0.51999998
   21.37694550   -1.00000000    4.90999985    0.47999999
   21.38027763   -1.00000000    4.90999985    0.46000001
   21.38333321   -1.00000000    4.90999985    0.41999999
   21.38666725   -1.00000000    4.90999985    0.41999999
   21.38972282   -1.00000000    4.90999985    0.40000001
   21.39305496   -1.00000000    4.90999985    0.41999999
   21.40333366   -1.00000000    4.90999985    0.44000000
   21.40666580   -1.00000000    4.90999985    0.38000000
   21.41027832   -1.00000000    4.90999985    0.38000000
   21.41361046   -1.00000000    4.90999985    0.40000001
   21.41666603   -1.00000000    4.90999985    0.38000000
   21.42000008   -1.00000000    4.90999985    0.40000001
   21.42305565   -1.00000000    4.90999985    0.40000001
   21.42638779   -1.00000000    4.90999985    0.40000001
   21.42972183   -1.00000000    4.90999985    0.38000000
   21.43277740   -1.00000000    4.90999985    0.34000000
   21.43610954   -1.00000000    4.90999985    0.34000000
   21.44610977   -1.00000000    4.90999985    0.28000000
   21.44944382   -1.00000000    4.90999985    0.25000000
   21.45277786   -1.00000000    4.90999985    0.20999999
   21.45583344   -1.00000000    4.90999985    0.19000000
