    HOUR (UT)   FLARE FACTOR    SKY TESTER    SUN TESTER
   11.42194462   -1.00000000   -1.00000000   -1.00000000
   11.44916630   -1.00000000    3.82999992    1.69000006
   11.45249939  336.36300659    3.80999994    1.69000006
   11.45583344  331.98300171    3.78999996    1.69000006
   11.45888901  259.81399536    3.78999996    1.69000006
   11.46222210  271.27700806    3.76999998    1.71000004
   11.46638870  271.27700806    3.75000000    1.71000004
   11.47055531  272.17999268    3.75000000    1.71000004
   11.47361088  304.76998901    3.73000002    1.73000002
   11.47694397  345.60198975    3.72000003    1.73000002
   11.47916603  292.16299438    3.72000003    1.73000002
   11.48055553  246.16700745    3.70000005    1.73000002
   11.48388958  303.53399658    3.68000007    1.73000002
   11.48694515  321.22000122    3.68000007    1.73000002
   11.49027824  316.84799194    3.66000009    1.75000000
   11.49361134  309.92401123    3.64000010    1.75000000
   11.49666691  323.05200195    3.61999989    1.75000000
   11.50000000  277.81600952    3.59999990    1.75000000
   11.50333309  315.85501099    3.59999990    1.75000000
   11.50916672  315.85501099    3.57999992    1.76999998
   11.51333332  273.63101196    3.55999994    1.76999998
   11.51638889  269.36700439    3.53999996    1.76999998
   11.51972198  273.44799805    3.51999998    1.76999998
   11.52305508  278.42700195    3.50000000    1.76999998
   11.52638817  258.79901123    3.50000000    1.78999996
   11.52944374  300.81298828    3.48000002    1.78999996
   11.53277779  276.10598755    3.46000004    1.78999996
   11.53611183  267.36499023    3.46000004    1.78999996
   11.53916740  273.05099487    3.46000004    1.78999996
   11.54250050  270.28500366    3.45000005    1.80999994
   11.54583359  257.16198730    3.43000007    1.80999994
   11.54611111  264.30099487    3.43000007    1.80999994
   11.55194473  264.30099487    3.41000009    1.80999994
   11.55611134  262.48400879    3.41000009    1.80999994
   11.55944443  250.24499512    3.41000009    1.83000004
   11.56250000  253.24899292    3.39000010    1.83000004
   11.56583309  264.88101196    3.36999989    1.83000004
   11.56916618  261.10501099    3.34999990    1.83000004
   11.57222176  286.95098877    3.34999990    1.83000004
   11.57555580  245.45199585    3.34999990    1.85000002
   11.57861137  256.84600830    3.32999992    1.85000002
   11.57916641  278.47000122    3.32999992    1.85000002
   11.58249950  255.56799316    3.32999992    1.85000002
   11.58583260  224.33000183    3.30999994    1.85000002
   11.58888817  238.53599548    3.28999996    1.85000002
   11.59472179  238.53599548    3.26999998    1.85000002
   11.59888840  249.74600220    3.26999998    1.85000002
   11.60222244  239.66000366    3.25000000    1.86000001
   11.60527802  235.37199402    3.23000002    1.86000001
   11.60861111  226.54400635    3.23000002    1.86000001
   11.61194515  202.46899414    3.21000004    1.86000001
   11.61250019  151.92399597    3.21000004    1.86000001
   11.61555576  231.27499390    3.21000004    1.88000000
   11.61888885  244.89500427    3.21000004    1.88000000
   11.62194443  216.79600525    3.20000005    1.88000000
   11.62527752  256.04299927    3.20000005    1.88000000
   11.62833309  246.71899414    3.18000007    1.89999998
   11.63166714  241.19799805    3.16000009    1.88000000
   11.63777733  241.19799805    3.14000010    1.89999998
   11.64194393  183.90299988    3.14000010    1.89999998
   11.64499950  218.92300415    3.11999989    1.91999996
   11.64583302  222.10499573    3.11999989    1.91999996
   11.64861107  216.02699280    3.11999989    1.91999996
   11.65194416  201.07299805    3.09999990    1.91999996
   11.65499973  220.56300354    3.09999990    1.91999996
   11.65833282  216.84899902    3.09999990    1.91999996
   11.66138840  222.19999695    3.07999992    1.91999996
   11.66472149  209.51199341    3.07999992    1.91999996
   11.66805553  217.18899536    3.05999994    1.94000006
   11.67111111  237.15800476    3.05999994    1.94000006
   11.67444515  213.59599304    3.03999996    1.94000006
   11.68055630  213.59599304    3.01999998    1.94000006
   11.68472195  213.73199463    3.01999998    1.94000006
   11.68777752  213.75500488    3.01999998    1.94000006
   11.69111156  199.92700195    3.00000000    1.96000004
   11.69444466  202.54499817    3.00000000    1.96000004
   11.69750023  216.89999390    3.00000000    1.96000004
   11.70083332  208.26300049    3.00000000    1.96000004
   11.70388889  211.49099731    2.98000002    1.98000002
   11.70722198  221.27699280    2.98000002    1.98000002
   11.71055508  215.95399475    2.98000002    1.98000002
   11.71249962  222.03300476    2.96000004    1.98000002
   11.71416664  221.88000488    2.96000004    1.98000002
   11.71749973  194.67599487    2.96000004    1.98000002
   11.72333336  194.67599487    2.94000006    1.98000002
   11.72749996  222.02000427    2.93000007    1.98000002
   11.73083305  220.20100403    2.93000007    1.98000002
   11.73388958  198.49499512    2.91000009    1.98000002
   11.73722267  229.68499756    2.91000009    2.00000000
   11.74027824  196.70899963    2.89000010    1.98000002
   11.74361134  210.04499817    2.89000010    2.00000000
   11.74583340  220.26199341    2.89000010    2.00000000
   11.74722290  204.69299316    2.86999989    2.00000000
   11.75055599  202.81599426    2.86999989    2.01999998
   11.75361156  213.60299683    2.84999990    2.01999998
   11.75694466  213.24099731    2.84999990    2.00000000
   11.76027775  204.20500183    2.82999992    2.00000000
   11.76611137  204.20500183    2.80999994    2.01999998
   11.77027798  205.76199341    2.80999994    2.01999998
   11.77361107  212.84399414    2.80999994    2.01999998
   11.77666664  208.57899475    2.78999996    2.01999998
   11.77916622  148.79400635    2.76999998    2.01999998
   11.78027725  199.82499695    2.78999996    2.01999998
   11.78361130  202.22200012    2.76999998    2.01999998
   11.78666687  190.80299377    2.75000000    2.01999998
   11.79000092  198.22900391    2.75000000    2.01999998
   11.79333401  200.04600525    2.75000000    2.03999996
   11.79638958  193.55700684    2.75000000    2.03999996
   11.79972267  197.17599487    2.73000002    2.03999996
   11.80277824  157.88699341    2.71000004    2.01999998
   11.80916691  157.88699341    2.71000004    2.03999996
   11.81305599  211.89599609    2.69000006    2.05999994
   11.81638908  199.84800720    2.69000006    2.03999996
   11.81972218  194.24400330    2.69000006    2.03999996
   11.82277775  198.15400696    2.67000008    2.05999994
   11.82611084  188.74600220    2.67000008    2.05999994
   11.82944393  202.56799316    2.67000008    2.05999994
   11.83249950  204.50799561    2.66000009    2.05999994
   11.83583260  177.72500610    2.66000009    2.05999994
   11.83888817  185.90199280    2.66000009    2.05999994
   11.84222221  194.69299316    2.64000010    2.05999994
   11.84555531  188.17900085    2.64000010    2.07999992
   11.84611034  181.10200500    2.64000010    2.07999992
   11.85194492  181.10200500    2.61999989    2.07999992
   11.85611153  182.12500000    2.59999990    2.07999992
   11.85944462  190.35200500    2.57999992    2.07999992
   11.86250019  197.20700073    2.57999992    2.07999992
   11.86583328  180.73100281    2.57999992    2.07999992
   11.86916637  185.03300476    2.55999994    2.07999992
   11.87222195  180.10099792    2.55999994    2.09999990
   11.87555599  183.06399536    2.55999994    2.09999990
   11.87861156  190.62600708    2.53999996    2.09999990
   11.87944412  184.07499695    2.53999996    2.09999990
   11.88222218  184.91499329    2.51999998    2.09999990
   11.88555527  193.37199402    2.51999998    2.09999990
   11.88861084  190.89999390    2.51999998    2.09999990
   11.89472198  190.89999390    2.50000000    2.09999990
   11.89888859  181.73800659    2.50000000    2.09999990
   11.90222168  191.59300232    2.50000000    2.11999989
   11.90527725  191.93699646    2.48000002    2.11999989
   11.90861034  183.71600342    2.48000002    2.11999989
   11.91166592  191.82299805    2.48000002    2.11999989
   11.91277695  190.18800354    2.48000002    2.11999989
   11.91527748  181.19700623    2.48000002    2.11999989
   11.91861153  176.78399658    2.46000004    2.13000011
   11.92194462  176.78500366    2.46000004    2.11999989
   11.92500019  190.43800354    2.46000004    2.13000011
   11.92833328  181.81500244    2.44000006    2.11999989
   11.93138885  177.12800598    2.42000008    2.11999989
   11.93750000  177.12800598    2.42000008    2.13000011
   11.94166660  174.52400208    2.40000010    2.13000011
   11.94499969  179.27200317    2.40000010    2.13000011
   11.94611073  183.03599548    2.40000010    2.13000011
   11.94861126  185.19799805    2.39000010    2.13000011
   11.95194435  162.83700562    2.39000010    2.13000011
   11.95499992  175.08200073    2.36999989    2.15000010
   11.95833302  177.46699524    2.36999989    2.15000010
   11.96166611  175.80599976    2.36999989    2.13000011
   11.96472168  186.60000610    2.34999990    2.15000010
   11.96805477  180.45399475    2.34999990    2.15000010
   11.97138882  166.71899414    2.32999992    2.15000010
   11.97444439  176.69200134    2.30999994    2.15000010
   11.98055553  176.69200134    2.30999994    2.15000010
   11.98444462  177.21400452    2.30999994    2.17000008
   11.98777771  170.72799683    2.28999996    2.17000008
   11.99111176  183.68299866    2.28999996    2.15000010
   11.99416733  174.95300293    2.26999998    2.17000008
   11.99750042  174.13200378    2.26999998    2.17000008
   12.00083351  170.98199463    2.26999998    2.17000008
   12.00388908  175.58500671    2.25000000    2.17000008
   12.00722218  162.55099487    2.23000002    2.17000008
   12.01027775  171.58399963    2.25000000    2.17000008
   12.01277733  163.40699768    2.23000002    2.17000008
   12.01388931  160.42199707    2.23000002    2.17000008
   12.01722240  171.67500305    2.23000002    2.17000008
   12.02333355  171.67500305    2.23000002    2.17000008
   12.02750015  166.25100708    2.21000004    2.19000006
   12.03055573  169.98599243    2.19000006    2.19000006
   12.03388977  168.86000061    2.19000006    2.19000006
   12.03722286  170.09700012    2.19000006    2.19000006
   12.04027843  160.47200012    2.17000008    2.19000006
   12.04361153  167.52499390    2.17000008    2.19000006
   12.04611111  162.61199951    2.17000008    2.19000006
   12.04722309  165.89100647    2.15000010    2.19000006
   12.05055618  168.28700256    2.15000010    2.19000006
   12.05388927  161.80999756    2.15000010    2.21000004
   12.05694485  159.50500488    2.15000010    2.21000004
   12.06027794  171.27999878    2.13000011    2.21000004
   12.06611156  171.27999878    2.13000011    2.21000004
   12.07027817  161.93400574    2.13000011    2.21000004
   12.07361126  168.25100708    2.11999989    2.21000004
   12.07666683  161.41700745    2.11999989    2.21000004
   12.07944393  164.49800110    2.11999989    2.21000004
   12.08027744  157.57299805    2.09999990    2.21000004
   12.08361053  171.82499695    2.09999990    2.21000004
   12.08694458  165.58999634    2.09999990    2.21000004
   12.09000015  170.31900024    2.09999990    2.23000002
   12.09333324  173.09199524    2.07999992    2.21000004
   12.09638882  158.33500671    2.07999992    2.23000002
   12.09972191  159.49699402    2.05999994    2.23000002
   12.10305595  152.86500549    2.05999994    2.23000002
   12.10888958  152.86500549    2.05999994    2.23000002
   12.11305618  158.00000000    2.03999996    2.23000002
   12.11638927  156.19000244    2.03999996    2.23000002
   12.11944485  159.16799927    2.03999996    2.23000002
   12.12277794  163.53300476    2.01999998    2.25000000
   12.12611103  165.03799438    2.01999998    2.23000002
   12.12916660  162.80200195    2.01999998    2.23000002
   12.13249969  159.60200500    2.01999998    2.25000000
   12.13583279  160.78199768    2.01999998    2.25000000
   12.13888836  162.82800293    2.01999998    2.23000002
   12.14222240  161.55900574    2.00000000    2.25000000
   12.14527798  158.22099304    2.00000000    2.25000000
   12.14611053  159.17599487    2.00000000    2.25000000
   12.15194416  159.17599487    2.01999998    2.25000000
   12.15583324  161.70599365    2.01999998    2.25000000
   12.15916634  162.54200745    2.00000000    2.25000000
   12.16249943  158.30700684    2.00000000    2.25000000
   12.16555500  159.72399902    2.00000000    2.25000000
   12.16888905  162.99499512    2.00000000    2.25000000
   12.17222214  162.07000732    2.00000000    2.25000000
   12.17527771  156.58900452    2.00000000    2.25000000
   12.17861176  156.67999268    1.98000002    2.25000000
   12.17944431  148.16099548    1.98000002    2.25000000
   12.18194485  161.03500366    1.98000002    2.25000000
   12.18527794  149.51699829    1.98000002    2.26999998
   12.18861103  157.78100586    1.98000002    2.26999998
   12.19472218  157.78100586    1.98000002    2.26999998
   12.19888878  156.51199341    1.98000002    2.26999998
   12.20194435  159.36399841    1.98000002    2.26999998
   12.20527744  156.82600403    1.98000002    2.26999998
   12.20861053  156.25900269    1.98000002    2.26999998
   12.21194458  150.56199646    1.98000002    2.26999998
   12.21277714  147.82800293    1.98000002    2.26999998
   12.21527767  153.84300232    1.98000002    2.26999998
   12.21861076  153.12699890    1.98000002    2.26999998
   12.22194386  150.85600281    1.98000002    2.26999998
   12.22499943  150.44700623    1.96000004    2.28999996
   12.22833252  153.64900208    1.96000004    2.28999996
   12.23138809  150.30000305    1.96000004    2.28999996
   12.23750019  150.30000305    1.96000004    2.28999996
   12.24166679  158.76800537    1.96000004    2.28999996
   12.24499989  149.04299927    1.96000004    2.28999996
   12.24611092  155.46499634    1.96000004    2.28999996
   12.24833393  154.29299927    1.94000006    2.28999996
   12.25166702  153.45399475    1.94000006    2.28999996
   12.25500011  153.47700500    1.94000006    2.28999996
   12.25805569  147.35099792    1.94000006    2.28999996
   12.26138878  151.69700623    1.94000006    2.28999996
   12.26472187  150.04699707    1.94000006    2.28999996
   12.26777744  163.82800293    1.94000006    2.28999996
   12.27111053  150.18400574    1.94000006    2.28999996
   12.27416611  149.14500427    1.94000006    2.28999996
   12.28027725  149.14500427    1.94000006    2.28999996
   12.28444481  150.20399475    1.91999996    2.28999996
   12.28777790  146.62899780    1.91999996    2.28999996
   12.29083347  150.59899902    1.91999996    2.28999996
   12.29416752  163.66700745    1.89999998    2.30999994
   12.29750061  151.07400513    1.89999998    2.30999994
   12.30083370  147.60899353    1.89999998    2.30999994
   12.30388927  145.54200745    1.89999998    2.30999994
   12.30722237  149.30099487    1.89999998    2.30999994
   12.31027794  156.62600708    1.88000000    2.30999994
   12.31277752  150.21800232    1.88000000    2.30999994
   12.31388950  143.46699524    1.88000000    2.30999994
   12.31722260  148.24600220    1.88000000    2.30999994
   12.32333374  148.24600220    1.88000000    2.30999994
   12.32722187  149.80799866    1.88000000    2.30999994
   12.33055592  143.72500610    1.88000000    2.30999994
   12.33388901  150.88099670    1.86000001    2.32999992
   12.33694458  147.81599426    1.86000001    2.32999992
   12.34027767  146.27299500    1.86000001    2.32999992
   12.34361076  145.44799805    1.86000001    2.32999992
   12.34611034  141.92599487    1.86000001    2.32999992
   12.34694386  151.75900269    1.86000001    2.32999992
   12.35027790  145.31500244    1.86000001    2.32999992
   12.35361195  143.88400269    1.85000002    2.32999992
   12.35666752  151.02400208    1.83000004    2.32999992
   12.36000061  146.16000366    1.83000004    2.32999992
   12.36611176  146.16000366    1.83000004    2.32999992
   12.37027836  150.69200134    1.83000004    2.32999992
   12.37333393  149.54499817    1.80999994    2.32999992
   12.37666702  151.76899719    1.80999994    2.32999992
   12.37944412  142.11500549    1.80999994    2.32999992
   12.38027763  149.95599365    1.83000004    2.34999990
   12.38361073  143.05200195    1.80999994    2.34999990
   12.38694477  148.15400696    1.80999994    2.34999990
   12.39000034  146.77200317    1.80999994    2.34999990
   12.39333344  141.44999695    1.80999994    2.34999990
   12.39666653  150.36900330    1.78999996    2.34999990
   12.39972210  145.56399536    1.78999996    2.34999990
   12.40305519  147.99499512    1.78999996    2.34999990
   12.40888882  147.99499512    1.78999996    2.34999990
   12.41305542  143.67599487    1.78999996    2.34999990
   12.41611099  141.52200317    1.78999996    2.36999989
   12.41944504  139.98899841    1.78999996    2.36999989
   12.42277813  144.18600464    1.76999998    2.36999989
   12.42583370  138.77000427    1.76999998    2.34999990
   12.42916679  144.97900391    1.76999998    2.34999990
   12.43249989  143.51100159    1.76999998    2.34999990
   12.43555546  150.91499329    1.76999998    2.34999990
   12.43888855  149.70599365    1.76999998    2.34999990
   12.44194412  140.84899902    1.75000000    2.36999989
   12.44527817  143.15299988    1.76999998    2.36999989
   12.44611073  143.43800354    1.76999998    2.36999989
   12.46666622  143.43800354    1.73000002    2.36999989
   12.47083282  145.22200012    1.73000002    2.36999989
   12.47416592  151.19000244    1.73000002    2.36999989
   12.47722149  146.00100708    1.73000002    2.36999989
   12.47944355  151.33299255    1.73000002    2.36999989
   12.48083305  144.39199829    1.73000002    2.36999989
   12.48416710  155.87699890    1.73000002    2.36999989
   12.48750019  149.53100586    1.73000002    2.36999989
   12.49055576  151.20100403    1.71000004    2.36999989
   12.49388885  178.69799805    1.71000004    2.39000010
   12.49722290  151.04400635    1.71000004    2.39000010
   12.50027752  152.68600464    1.69000006    2.39000010
   12.50361156  154.05999756    1.69000006    2.39000010
   12.50944424  154.05999756    1.66999996    2.36999989
   12.51361084  160.81399536    1.66999996    2.39000010
   12.51694393  154.95899963    1.66999996    2.39000010
   12.51999950  159.69400024    1.66999996    2.39000010
   12.52333355  142.12300110    1.66999996    2.39000010
   12.52666664  157.14700317    1.66999996    2.39000010
   12.52972221  148.60099792    1.66999996    2.39000010
   12.53305531  155.50100708    1.66999996    2.39000010
   12.53611183  142.56599426    1.66999996    2.39000010
   12.53944492  146.58799744    1.66999996    2.39000010
   12.54277802  155.07000732    1.64999998    2.39000010
   12.54583359  148.46200562    1.64999998    2.39000010
   12.54638958  162.20599365    1.64999998    2.39000010
   12.55222225  162.20599365    1.64999998    2.40000010
   12.55638885  145.50199890    1.64999998    2.40000010
   12.55972195  145.04499817    1.64999998    2.40000010
   12.56305599  145.43200684    1.64999998    2.40000010
   12.56611156  151.75000000    1.64999998    2.40000010
   12.56944466  145.53100586    1.64999998    2.39000010
   12.57250023  144.87399292    1.64999998    2.39000010
   12.57583332  142.66799927    1.64999998    2.39000010
   12.57916641  135.93499756    1.63000000    2.40000010
   12.57972240  151.26300049    1.63000000    2.40000010
   12.58277798  149.67900085    1.63000000    2.40000010
   12.58583260  142.60699463    1.63000000    2.40000010
   12.58916664  139.69900513    1.61000001    2.40000010
   12.59527779  139.69900513    1.61000001    2.40000010
   12.59944439  145.21600342    1.61000001    2.40000010
   12.60249996  141.41900635    1.61000001    2.40000010
   12.60583401  145.15199280    1.60000002    2.42000008
   12.60916710  141.63999939    1.60000002    2.42000008
   12.61222267  140.69099426    1.60000002    2.42000008
   12.61305618  146.92599487    1.60000002    2.42000008
   12.61583328  137.99800110    1.60000002    2.42000008
   12.61888885  152.89100647    1.60000002    2.40000010
   12.62222195  144.18699646    1.60000002    2.40000010
   12.62555599  143.67100525    1.60000002    2.40000010
   12.62861156  150.97799683    1.58000004    2.42000008
   12.63194466  150.07499695    1.58000004    2.42000008
   12.63805580  150.07499695    1.58000004    2.42000008
   12.64222240  146.02699280    1.58000004    2.42000008
   12.64527798  144.24800110    1.58000004    2.42000008
   12.64638901  135.02400208    1.58000004    2.42000008
   12.64916611  143.78399658    1.55999994    2.42000008
   12.65222168  145.57699585    1.55999994    2.42000008
   12.65555477  138.69599915    1.55999994    2.42000008
   12.65888882  144.38299561    1.55999994    2.42000008
   12.66194439  144.32899475    1.53999996    2.42000008
   12.66527748  148.78300476    1.53999996    2.42000008
   12.66861153  136.54200745    1.53999996    2.42000008
   12.67166710  138.56700134    1.53999996    2.42000008
   12.67500019  135.46400452    1.53999996    2.42000008
   12.68083382  135.46400452    1.53999996    2.42000008
   12.68500042  145.11099243    1.53999996    2.42000008
   12.68833351  142.53199768    1.53999996    2.42000008
   12.69138908  142.88299561    1.53999996    2.42000008
   12.69527817  145.08900452    1.53999996    2.42000008
   12.69833374  147.38299561    1.53999996    2.42000008
   12.70166683  143.07200623    1.53999996    2.42000008
   12.70499992  154.66799927    1.53999996    2.42000008
   12.70805550  157.69799805    1.53999996    2.42000008
   12.71138859  155.07099915    1.53999996    2.42000008
   12.71305561  154.73599243    1.53999996    2.42000008
   12.71500015  151.41000366    1.53999996    2.42000008
   12.71833324  160.89100647    1.53999996    2.42000008
   12.72361088  160.89100647    1.53999996    2.42000008
   12.72777748  149.66600037    1.53999996    2.42000008
   12.73111057  149.85600281    1.53999996    2.42000008
   12.73416710  136.14399719    1.53999996    2.42000008
   12.73750019  141.95599365    1.53999996    2.42000008
   12.74083328  146.10800171    1.53999996    2.42000008
   12.74388885  151.18800354    1.53999996    2.42000008
   12.74638939  153.21200562    1.53999996    2.42000008
   12.74750042  151.92999268    1.53999996    2.42000008
   12.75083351  156.22500610    1.53999996    2.42000008
   12.75388908  145.49299622    1.53999996    2.42000008
   12.75722218  146.99699402    1.53999996    2.42000008
   12.76027775  149.05200195    1.53999996    2.42000008
   12.76666641  149.05200195    1.53999996    2.42000008
   12.77111053  151.87699890    0.00000000    0.00000000
   12.77499962  148.50500488    0.00000000    0.00000000
   12.77888870  145.84899902    0.00000000    0.00000000
   12.77972221  146.60499573    0.00000000    0.00000000
   12.78305531  148.28100586    0.00000000    0.00000000
   12.78694534  153.87800598    0.00000000    0.00000000
   12.79083347  142.53300476    0.00000000    0.00000000
   12.79472256  155.19000244    0.00000000    0.00000000
   12.79861164  144.94999695    0.00000000    0.00000000
   12.80222225  152.66700745    0.00000000    0.00000000
   12.80611134  144.78900146    0.00000000    0.00000000
   12.81027794  144.78900146    1.53999996    2.42000008
   12.81444454  150.01199341    1.53999996    2.42000008
   12.81777763  147.88200378    1.53999996    2.42000008
   12.82083321  144.23399353    1.53999996    2.42000008
   12.82416630  144.05900574    1.53999996    2.42000008
   12.82750034  146.90600586    1.53999996    2.42000008
   12.83055592  124.06999969    1.53999996    2.42000008
   12.83388901  136.98399353    1.53999996    2.42000008
   12.83694458  141.53300476    1.53999996    2.42000008
   12.84027767  135.73699951    1.53999996    2.42000008
   12.84361076  142.99299622    1.53999996    2.42000008
   12.84694386  140.72700500    0.00000000    0.00000000
   12.84777737  137.77299500    0.00000000    0.00000000
   12.85388947  137.77299500    0.00000000    0.00000000
   12.85861111  149.91700745    0.00000000    0.00000000
   12.86250019  142.12199402    0.00000000    0.00000000
   12.86611176  144.62199402    0.00000000    0.00000000
   12.86999989  133.35499573    0.00000000    0.00000000
   12.87388897  141.29899597    0.00000000    0.00000000
   12.87777805  153.09899902    0.00000000    0.00000000
   12.87972260  171.49299622    0.00000000    0.00000000
   12.88194466  158.20899963    0.00000000    0.00000000
   12.88583279  157.75199890    0.00000000    0.00000000
   12.88972187  160.87399292    0.00000000    0.00000000
   12.89666653  160.87399292    0.00000000    0.00000000
   12.90138817  168.46800232    0.00000000    0.00000000
   12.90527725  165.34399414    0.00000000    0.00000000
   12.90916634  169.24000549    0.00000000    0.00000000
   12.91277695  158.86700439    0.00000000    0.00000000
   12.91333294  157.07000732    0.00000000    0.00000000
   12.91694450  160.06300354    0.00000000    0.00000000
   12.92083359  163.81300354    0.00000000    0.00000000
   12.92472267  158.72500610    0.00000000    0.00000000
   12.92861176  154.86000061    0.00000000    0.00000000
   12.93249989  146.79600525    0.00000000    0.00000000
   12.93944454  146.79600525    0.00000000    0.00000000
   12.94416714  152.55200195    0.00000000    0.00000000
   12.94666672  147.83599854    0.00000000    0.00000000
   12.94833374  160.88800049    0.00000000    0.00000000
   12.95222187  152.35800171    0.00000000    0.00000000
   12.95611095  157.89500427    0.00000000    0.00000000
   12.96000004  142.97000122    0.00000000    0.00000000
   12.96388912  144.82000732    0.00000000    0.00000000
   12.96749973  153.24699402    0.00000000    0.00000000
   12.97138882  162.13400269    0.00000000    0.00000000
   12.97527695  148.93899536    0.00000000    0.00000000
   12.98222160  148.93899536    0.00000000    0.00000000
   12.98694515  153.58599854    0.00000000    0.00000000
   12.99083328  146.33900452    0.00000000    0.00000000
   12.99472237  158.93299866    0.00000000    0.00000000
   12.99861145  160.63000488    0.00000000    0.00000000
   13.00249958  139.71499634    0.00000000    0.00000000
   13.00638866  159.58299255    0.00000000    0.00000000
   13.01027775  146.13999939    0.00000000    0.00000000
   13.01388931  140.39700317    0.00000000    0.00000000
   13.01444435  146.62300110    0.00000000    0.00000000
   13.01833344  136.06300354    0.00000000    0.00000000
   13.02499962  136.06300354    0.00000000    0.00000000
   13.02999973  151.75500488    0.00000000    0.00000000
   13.03361130  152.25799561    0.00000000    0.00000000
   13.03750038  145.94099426    0.00000000    0.00000000
   13.04138947  142.21800232    0.00000000    0.00000000
   13.04527855  147.00799561    0.00000000    0.00000000
   13.04666710  144.88299561    0.00000000    0.00000000
   13.04944515  141.46299744    0.00000000    0.00000000
   13.05333328  144.66099548    0.00000000    0.00000000
   13.05722237  145.70500183    0.00000000    0.00000000
   13.06111145  141.89500427    0.00000000    0.00000000
   13.06805515  141.89500427    0.00000000    0.00000000
   13.07277775  147.93899536    0.00000000    0.00000000
   13.07666683  137.74800110    0.00000000    0.00000000
   13.08055592  142.61799622    0.00000000    0.00000000
   13.08083344  134.66999817    0.00000000    0.00000000
   13.08472157  139.31500244    0.00000000    0.00000000
   13.08861065  134.49899292    0.00000000    0.00000000
   13.09249973  140.88299561    0.00000000    0.00000000
   13.09638882  134.45199585    0.00000000    0.00000000
   13.10027790  136.91600037    0.00000000    0.00000000
   13.10416698  136.03999329    0.00000000    0.00000000
   13.11027813  136.03999329    1.53999996    2.42000008
   13.11444473  133.85899353    1.53999996    2.42000008
   13.11777782  131.72999573    1.53999996    2.42000008
   13.12083340  140.67700195    1.53999996    2.42000008
   13.12416649  129.98300171    1.53999996    2.42000008
   13.12722206  129.09700012    1.53999996    2.42000008
   13.13055611  130.55099487    1.53999996    2.42000008
   13.13388920  136.18600464    1.53999996    2.42000008
   13.13694477  136.53300476    1.53999996    2.42000008
   13.14027786  131.20399475    1.53999996    2.42000008
   13.14361095  122.96600342    1.53999996    2.42000008
   13.14666653  135.91200256    1.53999996    2.42000008
   13.14750004  128.99800110    1.53999996    2.42000008
   13.15305519  128.99800110    1.53999996    2.42000008
   13.15722179  123.30799866    1.53999996    2.42000008
   13.16055489  132.37500000    1.53999996    2.42000008
   13.16361046  119.39900208    1.53999996    2.42000008
   13.16694450  127.34300232    1.53999996    2.42000008
   13.17000008  119.23400116    1.53999996    2.42000008
   13.17333412  128.34599304    1.53999996    2.42000008
   13.17666721  134.15899658    1.53999996    2.42000008
   13.17972279  122.05400085    1.53999996    2.42000008
   13.18083382  123.23899841    1.53999996    2.42000008
   13.18333340  120.46700287    1.53999996    2.42000008
   13.18666649  118.18900299    1.30999994    2.51999998
   13.18972206  124.11000061    1.26999998    2.53999996
   13.19583321  124.11000061    1.25000000    2.53999996
   13.19999981  121.72499847    1.25000000    2.53999996
   13.20333290  121.91799927    1.26999998    2.53999996
   13.20638847  121.21499634    1.26999998    2.53999996
   13.20972157  130.90199280    1.26999998    2.53999996
   13.21305561  123.84200287    1.25000000    2.53999996
   13.21416664  123.33300018    1.25000000    2.53999996
   13.21638870  119.47100067    1.26999998    2.53999996
   13.21972179  123.74199677    1.25000000    2.53999996
   13.22277737  118.51699829    1.25000000    2.53999996
   13.22611046  126.94100189    1.25000000    2.53999996
   13.22944355  121.46499634    1.21000004    2.53999996
   13.23249912  118.26200104    1.21000004    2.53999996
   13.23861122  118.26200104    1.21000004    2.53999996
   13.24277782  125.85800171    1.21000004    2.55999994
   13.24611092  121.84400177    1.21000004    2.53999996
   13.24750042  120.72399902    1.21000004    2.53999996
   13.24972248  123.36499786    1.21000004    2.53999996
   13.25305557  124.08799744    1.23000002    2.53999996
   13.25611115  119.86000061    1.21000004    2.53999996
   13.25944424  116.59700012    1.21000004    2.55999994
   13.26277733  120.52899933    1.21000004    2.53999996
   13.26583290  117.93099976    1.21000004    2.55999994
   13.26916599  119.00499725    1.21000004    2.55999994
   13.27222157  120.73300171    1.21000004    2.55999994
   13.27555561  116.06099701    1.19000006    2.55999994
   13.28166676  116.06099701    1.21000004    2.55999994
   13.28583336  120.52899933    1.19000006    2.55999994
   13.28888893  119.17299652    1.19000006    2.55999994
   13.29222298  119.13600159    1.19000006    2.55999994
   13.29527855  115.66699982    1.19000006    2.55999994
   13.29861164  115.69300079    1.16999996    2.55999994
   13.30194473  117.47699738    1.16999996    2.55999994
   13.30527782  117.69599915    1.14999998    2.55999994
   13.30833340  119.65499878    1.14999998    2.55999994
   13.31166649  114.25700378    1.14999998    2.55999994
   13.31416702  117.17199707    1.14999998    2.55999994
   13.31527805  114.10099792    1.16999996    2.55999994
   13.31861115  111.30100250    1.16999996    2.55999994
   13.32444477  111.30100250    1.16999996    2.55999994
   13.32861137  113.07399750    1.16999996    2.55999994
   13.33166695  113.03199768    1.16999996    2.55999994
   13.33500004  108.07299805    1.16999996    2.55999994
   13.33833313  117.78500366    1.19000006    2.55999994
   13.34138870  116.51300049    1.19000006    2.55999994
   13.34472179  122.59600067    1.16999996    2.57999992
   13.34749985  116.52100372    1.16999996    2.57999992
   13.34833336  124.04699707    1.16999996    2.57999992
   13.35166740  113.66400146    1.16999996    2.57999992
   13.35472298  121.78199768    1.19000006    2.57999992
   13.35805607  120.11499786    1.19000006    2.57999992
   13.36138916  119.15200043    1.21000004    2.57999992
   13.36722279  119.15200043    1.25000000    2.57999992
   13.37138939  117.01000214    1.23000002    2.57999992
   13.37472248  108.19699860    1.23000002    2.57999992
   13.37777805  109.42600250    1.28999996    2.57999992
   13.38111115  115.76799774    1.26999998    2.57999992
   13.38138866  114.70800018    1.26999998    2.57999992
   13.38472176  117.50399780    1.28999996    2.57999992
   13.38777733  117.53099823    1.26999998    2.57999992
   13.39111137  119.07800293    1.26999998    2.57999992
   13.39444447  116.72499847    1.26999998    2.57999992
   13.39750004  110.19599915    1.28999996    2.57999992
   13.40083313  122.71099854    1.28999996    2.57999992
   13.40416622  117.27400208    1.26999998    2.57999992
   13.40999985  117.27400208    1.33000004    2.57999992
   13.41416645  113.03900146    1.33000004    2.59999990
   13.41472149  114.22000122    1.33000004    2.59999990
   13.41805553  118.69000244    1.33000004    2.57999992
   13.42111111  107.55500031    1.33000004    2.57999992
   13.42444515  118.96499634    1.33000004    2.57999992
   13.42777824  119.31800079    1.33000004    2.57999992
   13.43083382  122.58999634    1.33000004    2.57999992
   13.43416691  116.95500183    1.30999994    2.57999992
   13.43722248  125.95200348    1.30999994    2.57999992
   13.44055557  113.70099640    1.26999998    2.57999992
   13.44388866  121.24900055    1.25000000    2.57999992
   13.44694424  122.60199738    1.25000000    2.57999992
   13.44750023  121.88400269    1.25000000    2.57999992
   13.45305538  121.88400269    1.23000002    2.59999990
   13.45722198  116.91100311    1.21000004    2.59999990
   13.46027756  122.75499725    1.23000002    2.59999990
   13.46361065  126.77799988    1.21000004    2.57999992
   13.48138809  116.73600006    1.19000006    2.59999990
   13.48361111  116.20600128    1.16999996    2.59999990
   13.48694515  110.64600372    1.16999996    2.59999990
   13.49027824  109.89499664    1.14999998    2.59999990
   13.49583340  109.89499664    1.14999998    2.59999990
   13.50000000  126.08200073    1.14999998    2.57999992
   13.50333309  119.11100006    1.13000000    2.59999990
   13.50666714  111.10299683    1.13000000    2.59999990
   13.50972176  119.06999969    1.11000001    2.59999990
   13.51305580  114.13200378    1.11000001    2.59999990
   13.51444435  119.17600250    1.09000003    2.59999990
   13.51666641  123.38999939    1.09000003    2.59999990
   13.51999950  117.09200287    1.07000005    2.59999990
   13.52305508  120.98500061    1.07000005    2.59999990
   13.52638817  117.95400238    1.05999994    2.59999990
   13.52972221  123.81400299    1.05999994    2.59999990
   13.53277779  119.50099945    1.05999994    2.59999990
   13.53888893  119.50099945    1.05999994    2.59999990
   13.54277802  125.81500244    1.05999994    2.59999990
   13.54611111  117.59400177    1.05999994    2.59999990
   13.54777813  119.78900146    1.07000005    2.59999990
   13.54972267  114.68399811    1.07000005    2.59999990
   13.55305576  115.89499664    1.09000003    2.59999990
   13.55611134  114.57199860    1.09000003    2.59999990
   13.55944443  121.72699738    1.11000001    2.59999990
   13.56277752  117.60099792    1.11000001    2.61999989
   13.56583309  117.88400269    1.09000003    2.59999990
   13.56916618  120.19699860    1.09000003    2.59999990
   13.57222176  124.57299805    1.09000003    2.59999990
   13.57555580  117.58000183    1.09000003    2.59999990
   13.58166695  117.58000183    1.09000003    2.59999990
   13.58583260  122.77999878    1.13000000    2.61999989
   13.58888817  109.73999786    1.14999998    2.59999990
   13.59222221  119.74800110    1.16999996    2.59999990
   13.59555531  120.64700317    1.14999998    2.61999989
   13.59861088  117.02799988    1.14999998    2.61999989
   13.60194492  116.19799805    1.14999998    2.61999989
   13.60500050  124.22599792    1.14999998    2.59999990
   13.60833359  121.83100128    1.13000000    2.61999989
   13.61166668  115.59799957    1.11000001    2.61999989
   13.61472225  118.80300140    1.09000003    2.61999989
   13.61527824  118.34100342    1.09000003    2.61999989
   13.61861134  121.31400299    1.09000003    2.61999989
   13.62444496  121.31400299    1.09000003    2.61999989
   13.62861156  121.19300079    1.07000005    2.61999989
   13.63194466  119.70999908    1.07000005    2.61999989
   13.63500023  125.81300354    1.07000005    2.61999989
   13.63833332  116.73699951    1.07000005    2.61999989
   13.64138889  128.53700256    1.09000003    2.61999989
   13.64472198  117.14600372    1.07000005    2.61999989
   13.64777756  119.60199738    1.07000005    2.61999989
   13.64833355  124.02100372    1.09000003    2.61999989
   13.65166664  124.08200073    1.09000003    2.61999989
   13.65472221  128.52799988    1.07000005    2.59999990
   13.65805531  121.71800232    1.07000005    2.61999989
   13.66138840  119.55699921    1.07000005    2.61999989
   13.66722298  119.55699921    1.03999996    2.61999989
   13.67138958  118.95300293    1.03999996    2.61999989
   13.67472267  118.73600006    1.00000000    2.61999989
   13.67805576  117.09200287    0.98000002    2.61999989
   13.68111134  120.43800354    0.95999998    2.61999989
   13.68166733  109.71700287    0.95999998    2.61999989
   13.68500042  110.74600220    0.95999998    2.61999989
   13.68805599  121.48500061    0.95999998    2.61999989
   13.69138908  105.85700226    0.94000000    2.64000010
   13.69472218  123.62300110    0.92000002    2.64000010
   13.69777775  125.68800354    0.92000002    2.64000010
   13.70111084  117.03700256    0.92000002    2.64000010
   13.70416641  117.41899872    0.92000002    2.64000010
   13.71027756  117.41899872    0.92000002    2.61999989
   13.71416664  124.36599731    0.92000002    2.64000010
   13.71500015  118.48000336    0.92000002    2.64000010
   13.71805477  122.52700043    0.89999998    2.64000010
   13.72111034  124.19499969    0.89999998    2.64000010
   13.72444439  117.85700226    0.88000000    2.64000010
   13.72749996  117.43000031    0.88000000    2.64000010
   13.73083305  123.39199829    0.88000000    2.64000010
   13.73416710  128.07699585    0.88000000    2.64000010
   13.73750019  119.14600372    0.88000000    2.64000010
   13.74055576  123.89299774    0.88000000    2.64000010
   13.74388885  118.31500244    0.89999998    2.64000010
   13.74722290  120.49900055    0.88000000    2.64000010
   13.74833393  124.90399933    0.88000000    2.64000010
   13.75305557  124.90399933    0.89999998    2.64000010
   13.75722218  121.48600006    0.88000000    2.64000010
   13.76027775  117.42900085    0.88000000    2.64000010
   13.76361084  122.67700195    0.88000000    2.64000010
   13.76694393  136.24200439    0.86000001    2.64000010
   13.76999950  124.70600128    0.86000001    2.64000010
   13.77333355  125.07900238    0.86000001    2.64000010
   13.77666664  122.41400146    0.86000001    2.64000010
   13.77972221  131.80999756    0.86000001    2.64000010
   13.78166676  125.38600159    0.83999997    2.64000010
   13.78333378  122.43299866    0.83999997    2.64000010
   13.78638935  123.97599792    0.83999997    2.64000010
   13.78972244  116.53199768    0.81999999    2.64000010
   13.79583359  116.53199768    0.81999999    2.64000010
   13.80000019  115.86399841    0.83999997    2.66000009
   13.80305576  114.87999725    0.83999997    2.66000009
   13.80638885  119.85500336    0.81999999    2.64000010
   13.80972195  116.60099792    0.81999999    2.64000010
   13.81277752  122.72000122    0.81999999    2.64000010
   13.81500053  118.51699829    0.83999997    2.66000009
   13.81666660  129.44299316    0.83999997    2.66000009
   13.81972218  118.45700073    0.81999999    2.66000009
   13.82305527  124.95099640    0.81999999    2.66000009
   13.82611084  114.20800018    0.83999997    2.66000009
   13.82944393  127.82800293    0.81999999    2.64000010
   13.83277798  122.16899872    0.81999999    2.66000009
   13.83861065  122.16899872    0.81999999    2.66000009
   13.84277725  123.73899841    0.81999999    2.66000009
   13.84611034  121.08300018    0.81999999    2.66000009
   13.84833336  123.81600189    0.81999999    2.66000009
   13.84972191  110.27200317    0.81999999    2.66000009
   13.85277843  122.72399902    0.81999999    2.66000009
   13.85611153  122.76300049    0.81999999    2.64000010
   13.85916710  118.66899872    0.83999997    2.66000009
   13.86250019  121.59799957    0.83999997    2.66000009
   13.86583328  125.84300232    0.81999999    2.66000009
   13.86888885  119.25399780    0.81999999    2.66000009
   13.87222195  117.05799866    0.81999999    2.66000009
   13.87555599  120.54100037    0.81999999    2.66000009
   13.88138866  120.54100037    0.81999999    2.66000009
   13.88555527  116.43599701    0.83999997    2.66000009
   13.88888836  120.91000366    0.83999997    2.66000009
   13.89222240  111.22000122    0.81999999    2.66000009
   13.89527798  106.69599915    0.81999999    2.66000009
   13.89861107  116.19999695    0.81999999    2.64000010
   13.90194416  116.47699738    0.81999999    2.67000008
   13.90499973  115.93099976    0.83999997    2.66000009
   13.90833282  115.25399780    0.81999999    2.66000009
   13.91166592  114.18900299    0.83999997    2.66000009
   13.91472149  120.83599854    0.81999999    2.66000009
   13.91638851  118.79599762    0.81999999    2.66000009
   13.91833401  118.68299866    0.83999997    2.66000009
   13.92444515  118.68299866    0.83999997    2.66000009
   13.92861176  139.38000488    0.83999997    2.66000009
   13.93166733  130.52000427    0.81999999    2.66000009
   13.93500042  126.96600342    0.83999997    2.64000010
   13.93805599  126.82599640    0.83999997    2.66000009
   13.94138908  118.38700104    0.81999999    2.66000009
   13.94472218  135.49800110    0.83999997    2.66000009
   13.94777775  140.71099854    0.83999997    2.66000009
   13.94999981  125.71199799    0.81999999    2.66000009
   13.95138836  125.91400146    0.81999999    2.66000009
   13.95472240  128.25999451    0.80000001    2.66000009
   13.95777798  130.72799683    0.79000002    2.66000009
   13.96111107  115.65599823    0.76999998    2.66000009
   13.96722221  115.65599823    0.76999998    2.66000009
   13.97138882  123.14399719    0.76999998    2.67000008
   13.97472191  118.36699677    0.75000000    2.66000009
   13.97777748  126.68099976    0.75000000    2.66000009
   13.98111057  115.75800323    0.75000000    2.66000009
   13.98333359  119.64800262    0.75000000    2.66000009
   13.98472214  109.84799957    0.75000000    2.67000008
   13.98805618  109.91200256    0.75000000    2.67000008
   13.99138927  110.73300171    0.75000000    2.67000008
   13.99444485  115.55300140    0.76999998    2.67000008
   13.99777794  115.12699890    0.76999998    2.67000008
   14.00111103  115.34600067    0.75000000    2.67000008
   14.00416660  121.79699707    0.79000002    2.67000008
   14.01000023  121.79699707    0.75000000    2.67000008
   14.01416683  117.80799866    0.75000000    2.67000008
   14.01666641  127.49600220    0.75000000    2.67000008
   14.01777744  120.52300262    0.75000000    2.67000008
   14.02111053  119.28800201    0.75000000    2.67000008
   14.02416611  125.74600220    0.75000000    2.67000008
   14.02750015  130.63600159    0.75000000    2.67000008
   14.03083324  127.61199951    0.75000000    2.67000008
   14.03388977  128.15100098    0.75000000    2.67000008
   14.03722286  120.61299896    0.76999998    2.67000008
   14.04027843  127.87899780    0.76999998    2.67000008
   14.04361153  133.52200317    0.80000001    2.67000008
   14.04694462  125.42500305    0.81999999    2.67000008
   14.05305576  125.42500305    0.80000001    2.67000008
   14.05694485  116.88600159    0.81999999    2.67000008
   14.06027794  106.95800018    0.81999999    2.67000008
   14.06361103  115.48799896    0.83999997    2.67000008
   14.06666660  120.40399933    0.83999997    2.67000008
   14.06999969  116.44899750    0.81999999    2.69000006
   14.07333374  119.76200104    0.76999998    2.69000006
   14.07666683  114.02799988    0.76999998    2.67000008
   14.07972240  113.38200378    0.79000002    2.69000006
   14.08305550  118.69400024    0.79000002    2.69000006
   14.08388901  113.79399872    0.76999998    2.67000008
   14.08638859  121.05899811    0.76999998    2.67000008
   14.08972168  120.80300140    0.76999998    2.67000008
   14.09583282  120.80300140    0.76999998    2.67000008
   14.10000038  114.47100067    0.79000002    2.67000008
   14.10305595  109.34600067    0.79000002    2.69000006
   14.10638905  128.58599854    0.79000002    2.67000008
   14.10944462  122.16699982    0.79000002    2.67000008
   14.11277771  117.82800293    0.76999998    2.67000008
   14.11611176  121.98000336    0.80000001    2.69000006
   14.11722279  117.84700012    0.80000001    2.67000008
   14.11944485  130.70799255    0.80000001    2.67000008
   14.12277794  123.69499969    0.80000001    2.67000008
   14.12611103  115.30100250    0.81999999    2.69000006
   14.12944412  109.96900177    0.81999999    2.69000006
   14.13249969  121.75499725    0.81999999    2.67000008
   14.13861084  121.75499725    0.83999997    2.67000008
   14.14277744  122.42299652    0.81999999    2.67000008
   14.14583302  107.30300140    0.80000001    2.69000006
   14.14916611  116.16600037    0.80000001    2.69000006
   14.15055561  126.37599945    0.79000002    2.69000006
   14.15277767  118.97599792    0.76999998    2.69000006
   14.15611076  110.18199921    0.75000000    2.69000006
   14.16777802  121.20200348    0.00000000    0.00000000
   14.17166710  112.13800049    0.00000000    0.00000000
   14.17555618  114.25399780    0.00000000    0.00000000
   14.18194485  114.25399780    0.00000000    0.00000000
   14.18666649  120.84899902    0.00000000    0.00000000
   14.19055557  120.43599701    0.00000000    0.00000000
   14.19444466  114.75900269    0.00000000    0.00000000
   14.19833374  119.81800079    0.00000000    0.00000000
   14.20222187  118.64800262    0.00000000    0.00000000
   14.20611095  110.47499847    0.00000000    0.00000000
   14.21000004  112.91500092    0.00000000    0.00000000
   14.21388912  112.88400269    0.00000000    0.00000000
   14.21749973  121.76899719    0.00000000    0.00000000
   14.21805477  115.53500366    0.00000000    0.00000000
   14.22499943  115.53500366    0.00000000    0.00000000
   14.22972202  117.62899780    0.00000000    0.00000000
   14.23361111  115.56199646    0.00000000    0.00000000
   14.23750019  113.68199921    0.00000000    0.00000000
   14.24111176  112.41000366    0.00000000    0.00000000
   14.24527836  110.27799988    0.00000000    0.00000000
   14.24833393  109.98400116    0.75000000    2.69000006
   14.25138855  120.19100189    0.75000000    2.69000006
   14.25194454  117.34899902    0.75000000    2.69000006
   14.25500011  121.02999878    0.75000000    2.69000006
   14.25833321  111.01200104    0.75000000    2.69000006
   14.26166630  120.67199707    0.75000000    2.69000006
   14.26722240  120.67199707    0.75000000    2.69000006
   14.27138901  121.16799927    0.75000000    2.69000006
   14.27444458  110.12500000    0.75000000    2.69000006
   14.27777767  119.44799805    0.75000000    2.69000006
   14.28083324  114.94599915    0.75000000    2.69000006
   14.28416729  121.75599670    0.75000000    2.69000006
   14.28472233  124.79699707    0.75000000    2.69000006
   14.28777790  109.97799683    0.75000000    2.69000006
   14.29083347  112.23500061    0.75000000    2.69000006
   14.29416752  126.17500305    0.76999998    2.69000006
   14.29750061  127.06700134    0.76999998    2.67000008
   14.30055618  119.79299927    0.75000000    2.69000006
   14.30388927  113.95600128    0.75000000    2.69000006
   14.31000042  113.95600128    0.75000000    2.69000006
   14.31416702  121.38999939    0.73000002    2.69000006
   14.31722260  128.09899902    0.75000000    2.69000006
   14.31805515  118.74400330    0.75000000    2.69000006
   14.32083321  117.75099945    0.75000000    2.69000006
   14.32416630  119.51599884    0.75000000    2.69000006
   14.32722187  110.83999634    0.76999998    2.69000006
   14.33055592  107.35600281    0.76999998    2.69000006
   14.33361053  117.56700134    0.76999998    2.69000006
   14.33694458  113.69200134    0.76999998    2.69000006
   14.34027767  112.09500122    0.76999998    2.69000006
   14.34333324  109.33000183    0.76999998    2.69000006
   14.34666634  120.66100311    0.76999998    2.69000006
   14.35277843  120.66100311    0.76999998    2.69000006
   14.35694504  119.71399689    0.76999998    2.69000006
   14.36027813  115.24199677    0.76999998    2.69000006
   14.36333370  106.22599792    0.76999998    2.69000006
   14.36666679  108.32199860    0.76999998    2.69000006
   14.36999989  120.58399963    0.76999998    2.69000006
   14.37305546  115.26100159    0.76999998    2.69000006
   14.37638855  124.75700378    0.76999998    2.69000006
   14.37944412  130.80700684    0.76999998    2.69000006
   14.38277817  115.83300018    0.76999998    2.69000006
   14.38472176  117.36399841    0.76999998    2.69000006
   14.38638878  115.25399780    0.76999998    2.69000006
   14.38972187  113.35900116    0.76999998    2.69000006
   14.39555550  113.35900116    0.76999998    2.69000006
   14.39972210  109.89099884    0.76999998    2.69000006
   14.40305519  115.75800323    0.76999998    2.69000006
   14.40638828  117.10099792    0.76999998    2.69000006
   14.40944386  113.74600220    0.76999998    2.69000006
   14.41277695  113.19999695    0.76999998    2.69000006
   14.41611099  116.24500275    0.76999998    2.69000006
   14.41805553  110.82599640    0.76999998    2.69000006
   14.41972256  115.13099670    0.76999998    2.69000006
   14.42305565  123.55699921    0.76999998    2.69000006
   14.42611122  111.77100372    0.76999998    2.69000006
   14.42944431  116.26899719    0.76999998    2.69000006
   14.43249989  116.69999695    0.76999998    2.69000006
   14.43861103  116.69999695    0.76999998    2.69000006
   14.44277763  115.12899780    0.76999998    2.69000006
   14.44583321  116.11100006    0.76999998    2.69000006
   14.44916630  120.05999756    0.76999998    2.69000006
   14.45138836  119.66600037    0.76999998    2.69000006
   14.45277786  118.73200226    0.76999998    2.69000006
   14.45611095  114.77999878    0.76999998    2.69000006
   14.45916653  111.87699890    0.76999998    2.69000006
   14.46249962  111.15599823    0.76999998    2.69000006
   14.46555519  108.76000214    0.76999998    2.69000006
   14.46888828  111.40899658    0.76999998    2.69000006
   14.47222137  119.48999786    0.76999998    2.69000006
   14.47527695  114.51599884    0.76999998    2.67000008
   14.49805546  116.68099976    0.73000002    2.69000006
   14.49833393  115.30899811    0.73000002    2.69000006
   14.49888897  114.99199677    0.73000002    2.69000006
   14.50222206  119.68599701    0.73000002    2.69000006
   14.50527763  115.58499908    0.73000002    2.69000006
   14.50861073  125.16400146    0.73000002    2.71000004
   14.51166630  120.34799957    0.73000002    2.71000004
   14.51500034  118.21399689    0.73000002    2.71000004
   14.51833344  121.34600067    0.75000000    2.71000004
   14.52416611  121.34600067    0.75000000    2.69000006
   14.52833271  114.68399811    0.75000000    2.69000006
   14.53166676  112.98899841    0.75000000    2.71000004
   14.53222179  117.42299652    0.75000000    2.71000004
   14.53527832  118.96600342    0.75000000    2.71000004
   14.53833389  116.66999817    0.75000000    2.71000004
   14.54166698  118.77799988    0.75000000    2.69000006
   14.54472256  119.00000000    0.75000000    2.69000006
   14.54805565  111.38300323    0.75000000    2.71000004
   14.55138874  120.77300262    0.75000000    2.71000004
   14.55444431  121.10900116    0.75000000    2.69000006
   14.55777836  120.01999664    0.75000000    2.71000004
   14.56111145  110.56999969    0.75000000    2.69000006
   14.56722260  110.56999969    0.76999998    2.71000004
   14.57138920  118.43699646    0.79000002    2.71000004
   14.57527733  121.94599915    0.81999999    2.71000004
   14.57833290  119.67199707    0.81999999    2.71000004
   14.58166695  111.50700378    0.81999999    2.71000004
   14.58500004  112.47299957    0.81999999    2.71000004
   14.58805561  111.21499634    0.81999999    2.71000004
   14.59138870  117.66000366    0.81999999    2.71000004
   14.59472179  121.30699921    0.80000001    2.69000006
   14.59777737  112.26899719    0.81999999    2.69000006
   14.59888840  116.01000214    0.76999998    2.71000004
   14.60138893  115.84600067    0.76999998    2.71000004
   14.60527802  110.92600250    0.00000000    0.00000000
   14.61055565  110.92600250    0.00000000    0.00000000
   14.61527824  105.20400238    0.00000000    0.00000000
   14.61916637  106.90499878    0.00000000    0.00000000
   14.62305546  117.85800171    0.00000000    0.00000000
   14.62694454  116.94300079    0.00000000    0.00000000
   14.63083363  115.74199677    0.00000000    0.00000000
   14.63222218  117.62599945    0.00000000    0.00000000
   14.63500023  112.80200195    0.00000000    0.00000000
   14.63888836  113.93199921    0.00000000    0.00000000
   14.64277744  120.99600220    0.00000000    0.00000000
   14.64638901  115.07900238    0.00000000    0.00000000
   14.65277767  115.07900238    0.76999998    2.71000004
   14.65777779  109.22799683    0.76999998    2.71000004
   14.66083336  112.34999847    0.76999998    2.71000004
   14.66416645  109.14299774    0.76999998    2.71000004
   14.66555500  114.97599792    0.76999998    2.71000004
   14.66777802  119.34500122    0.76999998    2.71000004
   14.67083359  107.00900269    0.76999998    2.71000004
   14.67416668  108.97299957    0.76999998    2.71000004
   14.67750072  110.84799957    0.76999998    2.71000004
   14.68055630  112.03800201    0.76999998    2.73000002
   14.68388939  110.74800110    0.76999998    2.71000004
   14.68694496  108.67600250    0.76999998    2.73000002
   14.69027805  113.12699890    0.76999998    2.73000002
   14.69555569  113.12699890    0.79000002    2.73000002
   14.69972229  113.37100220    0.80000001    2.73000002
   14.70305538  117.17900085    0.81999999    2.73000002
   14.70611095  111.30699921    0.80000001    2.73000002
   14.70944405  116.84300232    0.79000002    2.73000002
   14.71277714  108.64399719    0.79000002    2.73000002
   14.71583271  115.54699707    0.76999998    2.71000004
   14.71916580  109.86399841    0.73000002    2.73000002
   14.72249985  110.50499725    0.73000002    2.71000004
   14.72555542  113.34799957    0.73000002    2.73000002
   14.72888851  109.68199921    0.70999998    2.73000002
   14.73194408  106.18099976    0.73000002    2.73000002
   14.73249912  116.27799988    0.73000002    2.73000002
   14.73861122  116.27799988    0.75000000    2.73000002
   14.74250031  105.11900330    0.76999998    2.73000002
   14.74583340  112.80200195    0.76999998    2.73000002
   14.74916649  112.95700073    0.76999998    2.73000002
   14.75222206  105.39399719    0.75000000    2.73000002
   14.75555515  109.53099823    0.73000002    2.73000002
   14.75888920  114.97599792    0.73000002    2.73000002
   14.76194477  106.47000122    0.73000002    2.73000002
   14.76527786  111.83499908    0.73000002    2.73000002
   14.76583290  115.17299652    0.73000002    2.75000000
   14.76888847  106.10299683    0.70999998    2.73000002
   14.77194405  110.80200195    0.73000002    2.73000002
   14.77527714  106.96800232    0.73000002    2.73000002
   14.78138828  106.96800232    0.80000001    2.73000002
   14.78555584  108.71199799    0.81999999    2.73000002
   14.78861141  109.45600128    0.86000001    2.73000002
   14.79555607  108.42800140    0.86000001    2.73000002
   14.80249977  111.74800110    0.86000001    2.73000002
   14.80277824  108.36699677    0.86000001    2.73000002
   14.80916691  106.89600372    0.86000001    2.73000002
   14.81611156  105.77300262    0.86000001    2.73000002
   14.82305527  107.50700378    0.86000001    2.73000002
   14.82999992  107.50700378    0.86000001    2.73000002
   14.83722210  108.99900055    0.86000001    2.73000002
   14.83888817  111.54399872    0.86000001    2.73000002
   14.87166691  112.34500122    0.00000000    0.00000000
   14.87555599  110.33499908    0.00000000    0.00000000
   14.87944412  112.12500000    0.00000000    0.00000000
   14.88333321  119.26100159    0.00000000    0.00000000
   14.88694477  109.27600098    0.00000000    0.00000000
   14.88749981  102.13899994    0.00000000    0.00000000
   14.89055538  112.57499695    0.83999997    2.73000002
   14.89388847  109.47699738    0.83999997    2.73000002
   14.89916611  109.47699738    0.83999997    2.73000002
   14.90333271  112.02799988    0.83999997    2.73000002
   14.90666676  103.91699982    0.83999997    2.73000002
   14.90972137  110.31300354    0.83999997    2.73000002
   14.91305542  111.01200104    0.83999997    2.73000002
   14.91611099  127.27300262    0.83999997    2.73000002
   14.91944504  117.36699677    0.86000001    2.75000000
   14.92083359  109.40299988    0.61000001    2.75000000
   14.92305565  115.95200348    0.56999999    2.75000000
   14.92611122  103.90200043    0.58999997    2.75000000
   14.92944431  111.35299683    0.55000001    2.75000000
   14.93277836  115.26699829    0.52999997    2.76999998
   14.93583298  122.69699860    0.52999997    2.75000000
   14.94194412  122.69699860    0.51999998    2.75000000
   14.94611073  109.14800262    0.51999998    2.75000000
   14.94944477  104.67299652    0.51999998    2.73000002
   14.95249939  109.64600372    0.51999998    2.76999998
   14.95444393  106.07199860    0.51999998    2.76999998
   14.95638847  115.29900360    0.52999997    2.75000000
   14.95944405  113.31800079    0.55000001    2.75000000
   14.96277714  106.52899933    0.55000001    2.75000000
   14.96611118  113.86199951    0.52999997    2.76999998
   14.96916580  112.95099640    0.56999999    2.75000000
   14.97249985  112.46600342    0.56999999    2.75000000
   14.97555542  108.75000000    0.56999999    2.75000000
   14.97888851  120.35700226    0.58999997    2.75000000
   14.98500061  120.35700226    0.56999999    2.75000000
   14.98888874  109.26699829    0.61000001    2.75000000
   14.99222279  115.58499908    0.61000001    2.75000000
   14.99555588  109.36299896    0.61000001    2.75000000
   14.99861145  108.40499878    0.61000001    2.75000000
   15.00194454  114.13300323    0.61000001    2.75000000
   15.00527763  113.75399780    0.58999997    2.75000000
   15.00833321  116.61199951    0.56999999    2.75000000
   15.01166630  108.63899994    0.56999999    2.75000000
   15.01500034  114.23100281    0.56999999    2.75000000
   15.01805496  105.02200317    0.55000001    2.76999998
   15.02111053  175.37600708    0.55000001    2.75000000
   15.02166653  105.05100250    0.55000001    2.75000000
   15.02777767  105.05100250    0.55000001    2.76999998
   15.03194427   98.57839966    0.55000001    2.76999998
   15.13138866   -1.00000000   -1.00000000   -1.00000000
   15.24111176   -1.00000000   -1.00000000   -1.00000000
   15.34333324   -1.00000000   -1.00000000   -1.00000000
   15.38833332  107.46700287    0.92000002    2.75000000
   15.39166641  113.47599792    0.92000002    2.75000000
   15.39499950  109.67299652    0.94000000    2.75000000
   15.39805508  107.98400116    0.94000000    2.75000000
   15.40194416  107.30899811    0.00000000    0.00000000
   15.40916634  107.30899811    0.00000000    0.00000000
   15.41388893  100.19599915    0.00000000    0.00000000
   15.41777802  106.45700073    0.00000000    0.00000000
   15.42166710  107.95899963    0.00000000    0.00000000
   15.42222214  109.20600128    0.00000000    0.00000000
   15.42555618  114.19300079    0.00000000    0.00000000
   15.42944431  109.86299896    0.00000000    0.00000000
   15.43277836  110.13099670    0.94000000    2.75000000
   15.43666649  106.48600006    0.94000000    2.75000000
   15.43972206  102.38200378    0.94000000    2.75000000
   15.44305515  106.72100067    0.94000000    2.75000000
   15.44611073  113.25499725    0.94000000    2.75000000
   15.45138836  113.25499725    0.94000000    2.75000000
   15.45555496  104.13899994    0.94000000    2.75000000
   15.45888901  107.31900024    0.86000001    2.73000002
   15.46194458  106.91000366    0.86000001    2.75000000
   15.46527767  105.25299835    0.86000001    2.75000000
   15.46861076  108.38600159    0.81999999    2.75000000
   15.47166634  106.10399628    0.81999999    2.75000000
   15.47499943  106.91500092    0.81999999    2.75000000
   15.47805500  102.71499634    0.80000001    2.75000000
   15.48138809  112.31999969    0.80000001    2.75000000
   15.48472214  106.80200195    0.80000001    2.76999998
   15.48777771  109.73600006    0.75000000    2.75000000
   15.48888874  110.91799927    0.75000000    2.75000000
   15.49416733  110.91799927    0.70999998    2.76999998
   15.49833393  109.43099976    0.69000000    2.76999998
   15.50166702  110.59600067    0.67000002    2.76999998
   15.50472260  111.37200165    0.67000002    2.75000000
   15.50805569  105.63600159    0.67000002    2.76999998
   15.51138878  109.05400085    0.67000002    2.76999998
   15.51444435  107.39700317    0.64999998    2.76999998
   15.51777744  101.18599701    0.64999998    2.76999998
   15.52111053  107.82099915    0.64999998    2.76999998
   15.52222157  105.30000305    0.64999998    2.76999998
   15.52444458  108.83499908    0.64999998    2.76999998
   15.52777767  108.45099640    0.64999998    2.76999998
   15.53111076  103.34899902    0.64999998    2.76999998
   15.53722286  103.34899902    0.58999997    2.78999996
   15.54138947  108.95700073    0.58999997    2.76999998
   15.54444504  110.96499634    0.58999997    2.76999998
   15.54777813  118.56500244    0.56999999    2.76999998
   15.55111122   99.13890076    0.55000001    2.78999996
   15.55416679  109.37300110    0.55000001    2.78999996
   15.55555534  110.64600372    0.56999999    2.76999998
   15.55777836  112.94400024    0.55000001    2.78999996
   15.56111145  110.70600128    0.55000001    2.76999998
   15.56444454  104.74700165    0.55000001    2.78999996
   15.56750011  116.13500214    0.55000001    2.76999998
   15.57083321  102.56700134    0.52999997    2.76999998
   15.57388878  114.48000336    0.52999997    2.76999998
   15.57999992  114.48000336    0.52999997    2.78999996
   15.58416653  109.99299622    0.51999998    2.76999998
   15.58722210  113.58399963    0.51999998    2.78999996
   15.58888817  111.64600372    0.51999998    2.78999996
   15.59083271  110.28500366    0.51999998    2.78999996
   15.59416676  110.13300323    0.51999998    2.78999996
   15.59749985  111.13600159    0.50000000    2.78999996
   15.60055637  109.65899658    0.50000000    2.76999998
   15.60388947  111.46499634    0.50000000    2.78999996
   15.60694504  111.38200378    0.50000000    2.78999996
   15.61027813  108.88899994    0.50000000    2.76999998
   15.61361122  106.85900116    0.50000000    2.78999996
   15.61666679  102.49600220    0.50000000    2.78999996
   15.62277794  102.49600220    0.51999998    2.76999998
   15.62694454  107.74800110    0.51999998    2.78999996
   15.63027763  102.13099670    0.51999998    2.78999996
   15.63333321  103.43499756    0.51999998    2.78999996
   15.63666630  108.93299866    0.52999997    2.78999996
   15.64000034  105.44599915    0.52999997    2.78999996
   15.64305496  106.67199707    0.51999998    2.78999996
   15.64638901  110.71399689    0.55000001    2.76999998
   15.64944458  108.58100128    0.55000001    2.76999998
   15.65277767  106.82599640    0.56999999    2.78999996
   15.65555477  112.10199738    0.58999997    2.78999996
   15.65666676   99.95310211    0.58999997    2.78999996
   15.65972137  103.91799927    0.61000001    2.76999998
   15.66555500  103.91799927    0.63000000    2.80999994
   15.66972256   92.72599792    0.63000000    2.78999996
   15.67305565  100.78700256    0.63000000    2.78999996
   15.67638874  101.68599701    0.63000000    2.76999998
   15.67944431  103.54799652    0.64999998    2.76999998
   15.68277836  105.00900269    0.64999998    2.76999998
   15.68583298  104.87300110    0.64999998    2.76999998
   15.68888855   97.59880066    0.63000000    2.76999998
   15.68944454  104.82700348    0.63000000    2.76999998
   15.69277763   98.79920197    0.63000000    2.76999998
   15.69611073  102.56300354    0.63000000    2.78999996
   15.69916630  110.57599640    0.63000000    2.78999996
   15.70249939  102.02999878    0.63000000    2.78999996
   15.70861053  102.02999878    0.61000001    2.78999996
   15.71277714  120.44899750    0.61000001    2.76999998
   15.71583271  103.18299866    0.61000001    2.76999998
   15.71916580  100.60800171    0.64999998    2.76999998
   15.72222137  110.03600311    0.64999998    2.78999996
   15.72249985  106.45899963    0.64999998    2.78999996
   15.72583294  105.29799652    0.64999998    2.76999998
   15.72916603  105.31300354    0.64999998    2.78999996
   15.73222160  100.43299866    0.64999998    2.78999996
   15.73555565  107.75900269    0.64999998    2.76999998
   15.73888874   98.55650330    0.64999998    2.78999996
   15.74194431  104.14900208    0.64999998    2.78999996
   15.74527836  107.88999939    0.67000002    2.76999998
   15.75138855  107.88999939    0.67000002    2.76999998
   15.75555515  100.65499878    0.67000002    2.76999998
   15.75611115  105.52200317    0.67000002    2.76999998
   15.75916672  109.56500244    0.67000002    2.76999998
   15.76249981  106.94200134    0.67000002    2.78999996
   15.76555538  106.09500122    0.64999998    2.76999998
   15.76888847  116.32700348    0.64999998    2.76999998
   15.77222157  111.72499847    0.64999998    2.78999996
   15.77527714  108.55999756    0.64999998    2.78999996
   15.77861118  105.29799652    0.63000000    2.78999996
   15.78194427  102.20999908    0.61000001    2.78999996
   15.78500080  106.80500031    0.56999999    2.76999998
   15.78833389  101.87400055    0.56999999    2.76999998
   15.78888893  102.50900269    0.56999999    2.76999998
   15.79416752  102.50900269    0.47999999    2.80999994
   15.79833412  110.68900299    0.47999999    2.80999994
   15.80166721  107.45099640    0.46000001    2.76999998
   15.80500031  108.43699646    0.46000001    2.78999996
   15.80805588  103.34600067    0.46000001    2.78999996
   15.81138897  110.06099701    0.44000000    2.78999996
   15.81444454  111.48699951    0.44000000    2.78999996
   15.81777763  109.74400330    0.44000000    2.78999996
   15.82111073  101.51899719    0.46000001    2.78999996
   15.82222176  110.85099792    0.46000001    2.78999996
   15.82444477  110.04100037    0.44000000    2.80999994
   15.82777786   96.24040222    0.46000001    2.78999996
   15.83111095   92.63249969    0.46000001    2.78999996
   15.83694458   92.63249969    0.46000001    2.78999996
   15.84111118  105.31600189    0.46000001    2.78999996
   15.84444427  112.41799927    0.46000001    2.78999996
   15.84749985  106.69300079    0.46000001    2.78999996
   15.85083389  107.37899780    0.46000001    2.78999996
   15.85416698  114.20500183    0.46000001    2.78999996
   15.85555553  111.77400208    0.46000001    2.78999996
   15.85777855  101.72599792    0.46000001    2.78999996
   15.86083412  109.77799988    0.47999999    2.78999996
   15.86416721  105.44499969    0.47999999    2.78999996
   15.86722279  109.81999969    0.46000001    2.78999996
   15.87055588  123.47000122    0.46000001    2.78999996
   15.87388897  110.79699707    0.46000001    2.78999996
   15.88000011  110.79699707    0.46000001    2.78999996
   15.88416672  112.51999664    0.47999999    2.78999996
   15.88722229  104.18499756    0.46000001    2.78999996
   15.88888836  113.46700287    0.46000001    2.78999996
   15.89111137   98.96379852    0.47999999    2.78999996
   15.89416695  116.41899872    0.47999999    2.78999996
   15.89750004  113.27899933    0.47999999    2.78999996
   15.90055561  116.47399902    0.47999999    2.78999996
   15.90388870  102.43699646    0.47999999    2.76999998
   15.90722179  106.97499847    0.47999999    2.78999996
   15.91027737  107.90799713    0.47999999    2.78999996
   15.91388893  107.62899780    0.47999999    2.78999996
   15.91694450  115.02100372    0.47999999    2.78999996
   15.92277813  115.02100372    0.47999999    2.78999996
   15.92694473  105.75800323    0.47999999    2.78999996
   15.93000031  109.38999939    0.47999999    2.78999996
   15.93333340  113.83499908    0.47999999    2.78999996
   15.93666649  104.31700134    0.47999999    2.78999996
   15.93972206  112.67299652    0.47999999    2.78999996
   15.94305515  102.86399841    0.47999999    2.78999996
   15.94638920  110.65100098    0.50000000    2.80999994
   15.94944477  105.71600342    0.50000000    2.80999994
   15.95277786  109.45200348    0.47999999    2.78999996
   15.95555496  105.56700134    0.50000000    2.78999996
   15.95638847  107.08499908    0.50000000    2.78999996
   15.95944405  110.39900208    0.47999999    2.78999996
   15.96555519  110.39900208    0.47999999    2.78999996
   15.96972179  104.82499695    0.47999999    2.78999996
   15.97305489  116.07299805    0.47999999    2.78999996
   15.97611046  111.10199738    0.47999999    2.78999996
   15.97944355  104.91200256    0.47999999    2.78999996
   15.98277760  101.25099945    0.47999999    2.78999996
   15.98583317  109.81500244    0.47999999    2.78999996
   15.98888874  113.53500366    0.47999999    2.78999996
   15.98972225  108.09999847    0.47999999    2.78999996
   15.99277782  129.98399353    0.47999999    2.78999996
   15.99611092  121.48100281    0.47999999    2.78999996
   15.99916649  108.01200104    0.47999999    2.80999994
   16.00250053  108.82499695    0.47999999    2.78999996
   16.00833321  108.82499695    0.47999999    2.80999994
   16.01250076  115.87100220    0.47999999    2.78999996
   16.01583290  114.06900024    0.47999999    2.78999996
   16.01916695  109.79100037    0.50000000    2.78999996
   16.02222252  106.43599701    0.47999999    2.78999996
   16.02277756  119.34200287    0.47999999    2.78999996
   16.02583313  100.91000366    0.50000000    2.78999996
   16.02916718  106.03800201    0.47999999    2.78999996
   16.03222275  105.18800354    0.50000000    2.78999996
   16.03555489   95.91149902    0.50000000    2.80999994
   16.03888893  112.25099945    0.50000000    2.78999996
   16.04194450  120.25700378    0.50000000    2.78999996
   16.04527664  112.54199982    0.50000000    2.78999996
   16.05138779  112.54199982    0.50000000    2.78999996
   16.05555534  100.62000275    0.50000000    2.78999996
   16.05583191  107.56400299    0.50000000    2.78999996
   16.05916595  112.96299744    0.47999999    2.78999996
   16.06250000  117.87300110    0.47999999    2.78999996
   16.06555557  114.37599945    0.47999999    2.78999996
   16.06888962  122.89499664    0.50000000    2.78999996
   16.07194519  114.56999969    0.47999999    2.78999996
   16.07527924  116.16799927    0.50000000    2.78999996
   16.07861137  113.12699890    0.50000000    2.78999996
   16.08166695  119.36399841    0.47999999    2.78999996
   16.08500099  113.13800049    0.50000000    2.78999996
   16.08833313  100.21299744    0.52999997    2.78999996
   16.08916664  113.70800018    0.52999997    2.78999996
   16.09416771  113.70800018    0.50000000    2.78999996
   16.09833336  115.38600159    0.47999999    2.80999994
   16.10138893  124.96900177    0.47999999    2.78999996
   16.10472298  131.71600342    0.47999999    2.78999996
   16.10805511  105.91400146    0.47999999    2.78999996
   16.11111069  102.26499939    0.47999999    2.78999996
   16.11444473  123.14399719    0.46000001    2.78999996
   16.11777878  121.30000305    0.46000001    2.78999996
   16.12083435  122.13800049    0.46000001    2.80999994
   16.12249947  112.19699860    0.46000001    2.78999996
   16.12444496  140.78900146    0.46000001    2.78999996
   16.12777710  120.89299774    0.46000001    2.80999994
   16.13083267  118.44699860    0.46000001    2.80999994
   16.13694382  118.44699860    0.46000001    2.78999996
   16.14111137  122.99900055    0.46000001    2.78999996
   16.14444351  113.12100220    0.46000001    2.80999994
   16.14749908  112.46700287    0.46000001    2.80999994
   16.15083313  108.34200287    0.46000001    2.80999994
   16.15416718  129.19900513    0.47999999    2.78999996
   16.15583229  131.10400391    0.47999999    2.80999994
   16.15777779  131.29899597    0.47999999    2.80999994
   16.16110992  112.84899902    0.47999999    2.80999994
   16.16416550  125.99199677    0.46000001    2.80999994
   16.16749954  106.75599670    0.46000001    2.78999996
   16.17083359  118.49800110    0.46000001    2.80999994
   16.17388916  127.50700378    0.46000001    2.80999994
   16.18000031  127.50700378    0.46000001    2.78999996
   16.18388748  111.97399902    0.44000000    2.80999994
   16.18722153  122.34500122    0.44000000    2.80999994
   16.18916512  123.63899994    0.44000000    2.78999996
   16.19083214  121.21299744    0.44000000    2.78999996
   16.19416618  141.67100525    0.46000001    2.80999994
   16.19722176  119.98899841    0.46000001    2.80999994
   16.20055580  116.23400116    0.46000001    2.78999996
   16.20388985  110.58799744    0.47999999    2.78999996
   16.20694542  122.01899719    0.47999999    2.78999996
   16.21027946  131.49600220    0.50000000    2.78999996
   16.21333504  121.86399841    0.51999998    2.78999996
   16.21666718  114.39399719    0.51999998    2.78999996
   16.22277832  114.39399719    0.55000001    2.78999996
   16.22694588  113.98200226    0.55000001    2.78999996
   16.23000145  111.60700226    0.52999997    2.78999996
   16.23333359  112.80000305    0.55000001    2.78999996
   16.23666763  114.94400024    0.61000001    2.78999996
   16.23999977  108.44599915    0.61000001    2.78999996
   16.24305534  118.19300079    0.61000001    2.78999996
   16.24638939  114.46700287    0.61000001    2.78999996
   16.24944496  108.16400146    0.63000000    2.80999994
   16.25277710  123.04900360    0.63000000    2.80999994
   16.25583267  119.58799744    0.63000000    2.78999996
   16.25638962  102.33899689    0.64999998    2.80999994
   16.25972176  115.01799774    0.70999998    2.80999994
   16.26555634  115.01799774    0.73000002    2.78999996
   16.26972198  128.01800537    0.75000000    2.80999994
   16.27305603  121.45200348    0.76999998    2.76999998
   16.27611160  139.21400452    0.79000002    2.78999996
   16.27944374  133.73899841    0.80000001    2.78999996
   16.28277779  120.49099731    0.80000001    2.78999996
   16.28583336  118.35600281    0.81999999    2.78999996
   16.28916550  126.79900360    0.80000001    2.78999996
   16.28972244  114.30799866    0.80000001    2.78999996
   16.29277802  145.54600525    0.80000001    2.78999996
   16.29611015  151.67599487    0.79000002    2.78999996
   16.29944420  140.99899292    0.79000002    2.78999996
   16.30249977  135.05999756    0.79000002    2.78999996
   16.30833244  135.05999756    0.79000002    2.78999996
   16.31250000  138.90199280    0.79000002    2.78999996
   16.31583214  148.93099976    0.79000002    2.78999996
   16.31916809  164.85200500    0.79000002    2.78999996
   16.32222366  142.77799988    0.76999998    2.78999996
   16.32305717  164.21400452    0.76999998    2.78999996
   16.32583427  165.42900085    0.76999998    2.76999998
   16.32916832  142.65199280    0.75000000    2.78999996
   16.33250046  134.15600586    0.75000000    2.78999996
   16.33555603  136.86300659    0.75000000    2.78999996
   16.33889008  135.78100586    0.75000000    2.78999996
   16.34194565  153.16900635    0.75000000    2.78999996
   16.34527779  146.94999695    0.75000000    2.78999996
   16.35138893  146.94999695    0.75000000    2.78999996
   16.35527802  145.24800110    0.75000000    2.78999996
   16.35639000  138.27999878    0.75000000    2.78999996
   16.35888863  164.54800415    0.75000000    2.78999996
   16.36222267  147.22200012    0.75000000    2.78999996
   16.36555672  173.26899719    0.75000000    2.78999996
   16.36861038  156.95300293    0.75000000    2.78999996
   16.37194443  162.63999939    0.75000000    2.78999996
   16.37500000  147.38299561    0.75000000    2.78999996
   16.37833405  139.77499390    0.75000000    2.78999996
   16.38166618  150.10299683    0.75000000    2.78999996
   16.38472176  147.61300659    0.75000000    2.78999996
   16.38805580  143.72000122    0.75000000    2.78999996
   16.40527725  140.98399353    0.75000000    2.78999996
   16.40944481  140.98399353    0.75000000    2.78999996
   16.41361046  141.78900146    0.75000000    2.78999996
   16.41694450  135.88600159    0.75000000    2.78999996
   16.42000008  162.60400391    0.75000000    2.78999996
   16.42333221  119.19400024    0.75000000    2.78999996
   16.42666626  150.52400208    0.75000000    2.78999996
   16.42972183  149.92300415    0.75000000    2.78999996
   16.43305397  147.93800354    0.75000000    2.78999996
   16.43610954  146.48800659    0.75000000    2.78999996
   16.43861008  163.36399841    0.75000000    2.78999996
   16.43999863  162.64700317    0.75000000    2.78999996
   16.44305420  154.43299866    0.75000000    2.78999996
   16.44638824  135.67999268    0.75000000    2.78999996
   16.45222282  135.67999268    0.75000000    2.78999996
   16.45639038  142.11500549    0.75000000    2.78999996
   16.45972252  158.98800659    0.75000000    2.78999996
   16.46305656  143.00700378    0.75000000    2.78999996
   16.46611214  150.89599609    0.75000000    2.78999996
   16.46944427  149.80000305    0.75000000    2.78999996
   16.47194481  140.82699585    0.75000000    2.78999996
   16.47305679  139.55000305    0.75000000    2.78999996
   16.47611237  124.81500244    0.75000000    2.78999996
   16.47944450  133.21299744    0.75000000    2.78999996
   16.48277855  152.38200378    0.75000000    2.78999996
   16.48583412  149.30000305    0.75000000    2.78999996
   16.48916626  133.44400024    0.75000000    2.78999996
   16.49527740  133.44400024    0.75000000    2.78999996
   16.49944496  137.09800720    0.75000000    2.78999996
   16.50250053  131.20399475    0.75000000    2.78999996
   16.50527763  154.34800720    0.75000000    2.78999996
   16.50611115  146.48399353    0.75000000    2.78999996
   16.50916672  145.72900391    0.75000000    2.78999996
   16.51250076  155.63499451    0.75000000    2.78999996
   16.51583290  135.78799438    0.75000000    2.78999996
   16.51888847  140.01400757    0.75000000    2.78999996
   16.52222252  149.30700684    0.75000000    2.78999996
   16.52527809  139.70300293    0.75000000    2.78999996
   16.52861023  136.77900696    0.75000000    2.78999996
   16.53194427  118.56800079    0.75000000    2.78999996
   16.53805542  118.56800079    0.75000000    2.78999996
   16.54222107  136.33299255    0.75000000    2.78999996
   16.54527664  139.14300537    0.75000000    2.78999996
   16.54861069  145.78599548    0.75000000    2.78999996
   16.55194283  118.07399750    0.75000000    2.78999996
   16.55499840  128.97999573    0.75000000    2.78999996
   16.55833244  152.07699585    0.75000000    2.78999996
   16.56166649  145.21299744    0.75000000    2.78999996
   16.56472206  123.38200378    0.75000000    2.78999996
   16.56805611  139.47500610    0.75000000    2.78999996
   16.57111168  129.95700073    0.75000000    2.78999996
   16.57305717  134.78199768    0.75000000    2.78999996
   16.57500076  140.03900146    0.75000000    2.78999996
   16.58083344  140.03900146    0.75000000    2.78999996
   16.58500099  152.07299805    0.75000000    2.78999996
   16.58833313  137.25100708    0.75000000    2.78999996
   16.59138870  128.14599609    0.75000000    2.78999996
   16.59472275  141.58299255    0.75000000    2.78999996
   16.59805679  144.91900635    0.75000000    2.78999996
   16.60111237  138.13699341    0.75000000    2.78999996
   16.60444450  136.23100281    0.75000000    2.78999996
   16.60639000  145.99499512    0.75000000    2.78999996
   16.60805511  139.37399292    0.75000000    2.78999996
   16.61138916  148.24400330    0.75000000    2.78999996
   16.61444473  127.52500153    0.75000000    2.78999996
   16.61777878  154.56500244    0.75000000    2.78999996
   16.62361145  154.56500244    0.75000000    2.78999996
   16.62777710  138.63800049    0.75000000    2.78999996
   16.63111115  133.30799866    0.75000000    2.78999996
   16.63444519  134.70300293    0.75000000    2.78999996
   16.63750076  135.18800354    0.75000000    2.78999996
   16.63999939  144.59500122    0.75000000    2.78999996
   16.64111137  112.82499695    0.75000000    2.78999996
   16.64444351  147.38800049    0.75000000    2.78999996
   16.64777756  132.10099792    0.75000000    2.78999996
   16.65083313  134.43299866    0.75000000    2.78999996
   16.65416718  137.61999512    0.75000000    2.78999996
   16.65722275  128.56300354    0.75000000    2.78999996
   16.66055489  127.30300140    0.75000000    2.78999996
   16.66666603  127.30300140    0.75000000    2.78999996
   16.67055511  126.35700226    0.75000000    2.78999996
   16.67333221  135.52200317    0.75000000    2.78999996
   16.67416573  125.15499878    0.75000000    2.78999996
   16.67749977  135.73699951    0.75000000    2.78999996
   16.68083191  124.41000366    0.75000000    2.78999996
   16.68388748  133.95799255    0.75000000    2.78999996
   16.68722153  121.70999908    0.75000000    2.78999996
   16.69027710  128.55499268    0.75000000    2.78999996
   16.69361115  124.81700134    0.75000000    2.78999996
   16.69694328  132.69700623    0.75000000    2.78999996
   16.70000076  134.11399841    0.75000000    2.78999996
   16.70333481  125.44999695    0.75000000    2.78999996
   16.70944595  125.44999695    0.75000000    2.78999996
   16.71361160  117.39900208    0.75000000    2.78999996
   16.71666718  124.97699738    0.75000000    2.78999996
   16.72000122  126.00099945    0.75000000    2.78999996
   16.72333336  123.72499847    0.75000000    2.78999996
   16.72638893  119.63099670    0.75000000    2.78999996
   16.72972298  122.28900146    0.75000000    2.78999996
   16.73305511  118.96700287    0.75000000    2.78999996
   16.73611069  116.44599915    0.75000000    2.78999996
   16.73944473  118.43299866    0.75000000    2.78999996
   16.74027824  119.14199829    0.75000000    2.78999996
   16.74305534   89.07340240    0.75000000    2.78999996
   16.74638939  120.76699829    0.75000000    2.78999996
   16.75222206  120.76699829    0.75000000    2.78999996
   16.75638962  128.53700256    0.75000000    2.78999996
   16.75972176  129.35299683    0.75000000    2.78999996
   16.76277733  123.12899780    0.75000000    2.78999996
   16.76611137  126.01699829    0.75000000    2.78999996
   16.76944351  120.55200195    0.75000000    2.78999996
   16.77249908  124.34700012    0.75000000    2.78999996
   16.77361107  117.69799805    0.75000000    2.78999996
   16.77611160  114.89600372    0.75000000    2.78999996
   16.77916718  119.62599945    0.75000000    2.78999996
   16.78249931  131.20799255    0.75000000    2.78999996
   16.78583336  131.20700073    0.75000000    2.78999996
   16.78888893  129.98300171    0.75000000    2.78999996
   16.79500008  129.98300171    0.75000000    2.78999996
   16.79916573  123.81199646    0.75000000    2.78999996
   16.80249977  122.15100098    0.75000000    2.78999996
   16.80583191  121.86900330    0.75000000    2.78999996
   16.80722237  118.80400085    0.75000000    2.78999996
   16.80944443  120.73600006    0.75000000    2.78999996
   16.81250000  121.69899750    0.75000000    2.78999996
   16.81583214  126.48500061    0.75000000    2.78999996
   16.81888962  124.23100281    0.75000000    2.78999996
   16.82222366  116.43399811    0.75000000    2.78999996
   16.82555580  124.93399811    0.75000000    2.78999996
   16.82888985  119.97200012    0.75000000    2.78999996
   16.83194542  123.35700226    0.75000000    2.78999996
   16.83805656  123.35700226    0.75000000    2.78999996
   16.84222221  118.43099976    0.75000000    2.78999996
   16.84527779  123.47399902    0.75000000    2.78999996
   16.84861183  112.99199677    0.75000000    2.78999996
   16.85166740  117.11900330    0.75000000    2.78999996
   16.85499954  117.89900208    0.75000000    2.78999996
   16.85833359  125.75000000    0.75000000    2.78999996
   16.86138916  117.04900360    0.75000000    2.78999996
   16.86472321  115.37200165    0.75000000    2.78999996
   16.86805534  118.78700256    0.75000000    2.78999996
   16.87111092  107.24099731    0.75000000    2.78999996
   16.87388992  109.09899902    0.75000000    2.78999996
   16.87500000  113.66699982    0.75000000    2.78999996
   16.88083267  113.66699982    0.75000000    2.78999996
   16.88500023  111.10800171    0.75000000    2.78999996
   16.88805580  116.99900055    0.75000000    2.78999996
   16.89138794  103.64700317    0.75000000    2.78999996
   16.89472198  119.34200287    0.75000000    2.78999996
   16.89777756  107.79599762    0.75000000    2.78999996
   16.90111160  106.70899963    0.75000000    2.78999996
   16.90444374  114.32700348    0.75000000    2.78999996
   16.90722275  106.63099670    0.75000000    2.78999996
   16.90805435  108.77999878    0.75000000    2.78999996
   16.91110992  119.40000153    0.75000000    2.78999996
   16.91444397  112.48699951    0.75000000    2.78999996
   16.91749954  112.25700378    0.75000000    2.78999996
   16.92361069  112.25700378    0.75000000    2.78999996
   16.92777634  116.23500061    0.75000000    2.78999996
   16.93111038  109.11799622    0.75000000    2.78999996
   16.93416595  103.29799652    0.75000000    2.78999996
   16.93750000  104.87000275    0.75000000    2.78999996
   16.94055557  106.57399750    0.75000000    2.78999996
   16.94111061  109.39199829    0.75000000    2.78999996
   16.94416618  119.47299957    0.75000000    2.78999996
   16.94749832  113.31199646    0.75000000    2.78999996
   16.95055580  104.86499786    0.75000000    2.78999996
   16.95388985  114.01200104    0.75000000    2.78999996
   16.95722389  110.57499695    0.75000000    2.78999996
   16.96027946  114.02400208    0.75000000    2.78999996
   16.96638870  114.02400208    0.75000000    2.78999996
   16.97055626  103.95899963    0.75000000    2.78999996
   16.97389030  106.98600006    0.75000000    2.78999996
   16.97444534  115.22399902    0.75000000    2.78999996
   16.97750092  106.49199677    0.75000000    2.78999996
   16.98083305  109.62300110    0.75000000    2.78999996
   16.98388863  106.80699921    0.75000000    2.78999996
   16.98722267  112.25299835    0.75000000    2.78999996
   16.99055672  117.46099854    0.75000000    2.78999996
   16.99361229  104.48000336    0.75000000    2.78999996
   16.99694443  103.66999817    0.75000000    2.78999996
   17.00027847  103.69899750    0.75000000    2.78999996
   17.00333405  105.86100006    0.75000000    2.78999996
   17.00944519  105.86100006    0.75000000    2.78999996
   17.01361084  107.12699890    0.75000000    2.78999996
   17.01666641  113.53099823    0.75000000    2.78999996
   17.02000046  112.90200043    0.75000000    2.78999996
   17.02305603  105.10600281    0.75000000    2.78999996
   17.02638817  101.14099884    0.75000000    2.78999996
   17.02972221  104.35600281    0.75000000    2.78999996
   17.03277779  105.69699860    0.75000000    2.78999996
   17.03610992  108.62300110    0.75000000    2.78999996
   17.03944397   96.50180054    0.75000000    2.78999996
   17.04055595  102.23600006    0.75000000    2.78999996
   17.04305458   94.95429993    0.75000000    2.78999996
   17.04611015  106.96499634    0.75000000    2.78999996
   17.05222130  106.96499634    0.75000000    2.78999996
   17.05638885  112.95400238    0.75000000    2.78999996
   17.05944443  105.38600159    0.75000000    2.78999996
   17.06277657  111.37899780    0.75000000    2.78999996
   17.06611061  101.39700317    0.75000000    2.78999996
   17.06916809  104.62400055    0.75000000    2.78999996
   17.07250023  109.15699768    0.75000000    2.78999996
   17.07389069  108.63600159    0.75000000    2.78999996
   17.07611275  109.47200012    0.75000000    2.78999996
   17.07916832  103.91300201    0.75000000    2.78999996
   17.08250046  101.20500183    0.75000000    2.78999996
   17.08583450  104.84300232    0.75000000    2.78999996
   17.08889008  108.28500366    0.75000000    2.78999996
   17.09500122  108.28500366    0.75000000    2.78999996
   17.09916687   99.67829895    0.75000000    2.78999996
   17.10250092  112.71800232    0.75000000    2.78999996
   17.10555649  107.86399841    0.75000000    2.78999996
   17.10750008  108.35299683    0.75000000    2.78999996
   17.10944557  107.39800262    0.75000000    2.78999996
   17.11250114  103.50700378    0.75000000    2.78999996
   17.11583328  105.51300049    0.75000000    2.78999996
   17.11888885   99.45040131    0.75000000    2.78999996
   17.12222290  109.01899719    0.75000000    2.78999996
   17.12555504  102.21299744    0.75000000    2.78999996
   17.12861061  104.84200287    0.75000000    2.78999996
   17.13194466  107.16000366    0.75000000    2.78999996
   17.13777733  107.16000366    0.75000000    2.78999996
   17.14194489  108.08100128    0.75000000    2.78999996
   17.14527702  107.94899750    0.75000000    2.78999996
   17.14861107  103.13800049    0.75000000    2.78999996
   17.15166664  103.40100098    0.75000000    2.78999996
   17.15499878   95.35620117    0.75000000    2.78999996
   17.15805435   99.54930115    0.75000000    2.78999996
   17.16138840   97.76119995    0.75000000    2.78999996
   17.16472244  102.51499939    0.75000000    2.78999996
   17.16777802  105.06199646    0.75000000    2.78999996
   17.17111015  102.23699951    0.75000000    2.78999996
   17.17416573  102.76399994    0.75000000    2.78999996
   17.17472076   97.01480103    0.75000000    2.78999996
   17.18083191   97.01480103    0.75000000    2.78999996
   17.18499947  102.87200165    0.75000000    2.78999996
   17.18805504  108.23200226    0.75000000    2.78999996
   17.19138718  101.07599640    0.75000000    2.78999996
   17.19444275  102.25399780    0.75000000    2.78999996
   17.19777679  105.80599976    0.75000000    2.78999996
   17.20111275  100.48899841    0.75000000    2.78999996
   17.20416832   93.74160004    0.75000000    2.78999996
   17.20750046  103.11399841    0.75000000    2.78999996
   17.20777893  102.22599792    0.75000000    2.78999996
   17.21111107   96.91629791    0.75000000    2.78999996
   17.21444511   98.22270203    0.75000000    2.78999996
   17.21750069   90.40399933    0.75000000    2.78999996
   17.22361183   90.40399933    0.75000000    2.78999996
   17.22777748   86.27529907    0.75000000    2.78999996
   17.23083305   98.45300293    0.75000000    2.78999996
   17.23416710   96.41940308    0.75000000    2.78999996
   17.23750114  103.08000183    0.75000000    2.78999996
   17.24055672  101.36499786    0.75000000    2.78999996
   17.24111176  100.80899811    0.75000000    2.78999996
   17.24444389  101.18699646    0.75000000    2.78999996
   17.24777794  107.11100006    0.75000000    2.78999996
   17.25083351  103.69999695    0.75000000    2.78999996
   17.25416756   98.08059692    0.75000000    2.78999996
   17.25749969  105.23300171    0.75000000    2.78999996
   17.26055527  100.72000122    0.75000000    2.78999996
   17.26638794  100.72000122    0.75000000    2.78999996
   17.27055550  100.72000122    0.75000000    2.78999996
   17.27388954   99.09259796    0.75000000    2.78999996
   17.27444458  100.96499634    0.75000000    2.78999996
   17.27750015  102.12400055    0.75000000    2.78999996
   17.28055573  100.97200012    0.75000000    2.78999996
   17.28388786   97.64520264    0.75000000    2.78999996
   17.28722191   97.83660126    0.75000000    2.78999996
   17.29027748   97.07969666    0.75000000    2.78999996
   17.29361153  101.59300232    0.75000000    2.78999996
   17.29666710  100.40599823    0.75000000    2.78999996
   17.29999924   99.28469849    0.75000000    2.78999996
   17.30333328   95.26599884    0.75000000    2.78999996
   17.30916595   95.26599884    0.75000000    2.78999996
   17.31333351   95.18949890    0.75000000    2.78999996
   17.31666756   99.62550354    0.75000000    2.78999996
   17.32000160  104.36299896    0.75000000    2.78999996
   17.32305717   96.27349854    0.75000000    2.78999996
   17.32638931   99.64099884    0.75000000    2.78999996
   17.32972336  104.50800323    0.75000000    2.78999996
   17.33277893  104.70800018    0.75000000    2.78999996
   17.33611107   99.72589874    0.75000000    2.78999996
   17.33916664  100.96299744    0.75000000    2.78999996
   17.34111214  105.99299622    0.75000000    2.78999996
   17.34305573  104.67900085    0.75000000    2.78999996
   17.34611130  103.67299652    0.75000000    2.78999996
   17.35222244  103.67299652    0.75000000    2.78999996
   17.35639000   96.17690277    0.75000000    2.78999996
   17.35944557   99.04489899    0.75000000    2.78999996
   17.36277771  103.47599792    0.75000000    2.78999996
   17.36583328   93.66089630    0.75000000    2.78999996
   17.36916733  102.94999695    0.75000000    2.78999996
   17.37249947  103.64700317    0.75000000    2.78999996
   17.37444496   94.02259827    0.75000000    2.78999996
   17.37611198  101.47000122    0.75000000    2.78999996
   17.37916756  102.96900177    0.75000000    2.78999996
   17.38249969   97.75990295    0.75000000    2.78999996
   17.38583374  106.83899689    0.75000000    2.78999996
   17.38888931  104.87999725    0.75000000    2.78999996
   17.39500046  104.87999725    0.75000000    2.78999996
   17.39916611   94.14199829    0.75000000    2.78999996
   17.40222168  102.36799622    0.75000000    2.78999996
   17.40555573   86.14820099    0.75000000    2.78999996
   17.42249870   98.89360046    0.75000000    2.78999996
   17.42555428  101.78399658    0.75000000    2.78999996
   17.42888832   93.41719818    0.75000000    2.78999996
   17.43194389  100.62799835    0.75000000    2.78999996
   17.43805504  100.62799835    0.75000000    2.78999996
   17.44222069  100.20700073    0.75000000    2.78999996
   17.44527626   99.77510071    0.75000000    2.78999996
   17.44861031  101.25299835    0.75000000    2.78999996
   17.45166779  100.54900360    0.75000000    2.78999996
   17.45499992   94.56529999    0.75000000    2.78999996
   17.45583344   92.63130188    0.75000000    2.78999996
   17.45861244   99.70629883    0.75000000    2.78999996
   17.46166801   95.82060242    0.75000000    2.78999996
   17.46500015   99.09580231    0.75000000    2.78999996
   17.46833420   98.97010040    0.75000000    2.78999996
   17.47138977  105.04199982    0.75000000    2.78999996
   17.47472191   95.01180267    0.75000000    2.78999996
   17.48083305   95.01180267    0.75000000    2.78999996
   17.48500061  107.54799652    0.75000000    2.78999996
   17.48805618   93.53250122    0.75000000    2.78999996
   17.48916626   97.54679871    0.75000000    2.78999996
   17.49194527  104.61699677    0.75000000    2.78999996
   17.49500084   98.97489929    0.75000000    2.78999996
   17.49833298  105.46900177    0.75000000    2.78999996
   17.50166702  108.69699860    0.75000000    2.78999996
   17.50472260  107.29199982    0.75000000    2.78999996
   17.50805473  101.09600067    0.75000000    2.78999996
   17.51138878  110.48899841    0.75000000    2.78999996
   17.51444435  115.17700195    0.75000000    2.78999996
   17.51777840  104.92199707    0.75000000    2.78999996
   17.52361107  104.92199707    0.75000000    2.78999996
   17.52777672  106.65100098    0.75000000    2.78999996
   17.53111076  110.20899963    0.75000000    2.78999996
   17.53416634  114.82099915    0.75000000    2.78999996
   17.53750038  111.90699768    0.75000000    2.78999996
   17.54083252  110.63400269    0.75000000    2.78999996
   17.54388809  108.11799622    0.75000000    2.78999996
   17.54722214  123.48500061    0.75000000    2.78999996
   17.55027771  123.37899780    0.75000000    2.78999996
   17.55360985  103.70700073    0.75000000    2.78999996
   17.55583191  107.95400238    0.75000000    2.78999996
   17.55722237  103.34600067    0.75000000    2.78999996
   17.56027794  116.84799957    0.75000000    2.78999996
   17.56638718  116.84799957    0.75000000    2.78999996
   17.57055664  115.36299896    0.75000000    2.78999996
   17.57389069  117.97499847    0.75000000    2.78999996
   17.57722282  115.29000092    0.75000000    2.78999996
   17.58027840  124.16999817    0.75000000    2.78999996
   17.58361244  132.10600281    0.75000000    2.78999996
   17.58666801  135.34599304    0.75000000    2.78999996
   17.58916664  141.91099548    0.75000000    2.78999996
   17.59055710  153.08500671    0.75000000    2.78999996
   17.59361267  165.43800354    0.75000000    2.78999996
   17.59694481  149.61399841    0.75000000    2.78999996
   17.60027885  131.70700073    0.75000000    2.78999996
   17.60333443  124.01999664    0.75000000    2.78999996
   17.60944557  124.01999664    0.75000000    2.78999996
   17.61361122  147.86799622    0.75000000    2.78999996
   17.61666679  132.96200562    0.75000000    2.78999996
   17.62000084  149.02299500    0.75000000    2.78999996
   17.62249947  135.88299561    0.75000000    2.78999996
   17.62361145  142.05400085    0.75000000    2.78999996
   17.62666702  125.16300201    0.75000000    2.78999996
   17.63000107  133.26400757    0.75000000    2.78999996
   17.63333321  143.49200439    0.75000000    2.78999996
   17.63638878  139.08000183    0.75000000    2.78999996
   17.63972282  140.67100525    0.75000000    2.78999996
   17.64277840  142.83500671    0.75000000    2.78999996
   17.64611053  133.94299316    0.75000000    2.78999996
   17.65222168  133.94299316    0.75000000    2.78999996
   17.65638924  132.47500610    0.75000000    2.78999996
   17.65944481  130.09300232    0.75000000    2.78999996
   17.66277695  134.57899475    0.75000000    2.78999996
   17.66611099  128.51800537    0.75000000    2.78999996
   17.66916656  145.99099731    0.75000000    2.78999996
   17.67249870  132.13999939    0.75000000    2.78999996
   17.67555428  141.33099365    0.75000000    2.78999996
   17.67888832  143.59599304    0.75000000    2.78999996
   17.68222237  145.57000732    0.75000000    2.78999996
   17.68527603  148.41299438    0.75000000    2.78999996
   17.68861008  136.86900330    0.75000000    2.78999996
   17.68916512  141.05200195    0.75000000    2.78999996
   17.69499969  141.05200195    0.75000000    2.78999996
   17.69916534  128.84500122    0.75000000    2.78999996
   17.70250130  153.26100159    0.75000000    2.78999996
   17.70555687  135.91200256    0.75000000    2.78999996
   17.70888901  142.22399902    0.75000000    2.78999996
   17.71194458  130.04400635    0.75000000    2.78999996
   17.71527863  148.02799988    0.75000000    2.78999996
   17.71861076  139.31900024    0.75000000    2.78999996
   17.72166634  146.28300476    0.75000000    2.78999996
   17.72249985  129.54899597    0.75000000    2.78999996
   17.72527885  135.96200562    0.75000000    2.78999996
   17.72833443  133.59599304    0.75000000    2.78999996
   17.73166656  124.23799896    0.75000000    2.78999996
   17.73777771  124.23799896    0.75000000    2.78999996
   17.74194527  146.76699829    0.75000000    2.78999996
   17.74527740  132.61599731    0.75000000    2.78999996
   17.74833298  126.33000183    0.75000000    2.78999996
   17.75166702  140.54800415    0.75000000    2.78999996
   17.75499916  130.27900696    0.75000000    2.78999996
   17.75583267  156.25000000    0.75000000    2.78999996
   17.75861168  123.38899994    0.75000000    2.78999996
   17.76166725  144.92799377    0.75000000    2.78999996
   17.76499939  138.24099731    0.75000000    2.78999996
   17.76833344  140.79299927    0.75000000    2.78999996
   17.77138901  126.96600342    0.75000000    2.78999996
   17.77472115  117.31099701    0.75000000    2.78999996
   17.78083229  117.31099701    0.75000000    2.78999996
   17.78472137  129.45300293    0.75000000    2.78999996
   17.78805542  127.35500336    0.75000000    2.78999996
   17.78916550  132.77600098    0.75000000    2.78999996
   17.79166603  134.27699280    0.75000000    2.78999996
   17.79472160  131.75500488    0.75000000    2.78999996
   17.79805565  131.50100708    0.75000000    2.78999996
   17.80138779  139.49600220    0.75000000    2.78999996
   17.80444336  138.79200745    0.75000000    2.78999996
   17.80777740  132.92399597    0.75000000    2.78999996
   17.81110954  126.50700378    0.75000000    2.78999996
   17.81416512  131.64199829    0.75000000    2.78999996
   17.81750107  124.84700012    0.75000000    2.78999996
   17.82361221  124.84700012    0.75000000    2.78999996
   17.82777786  136.08500671    0.75000000    2.78999996
   17.83083344  134.89599609    0.75000000    2.78999996
   17.83416748  120.03199768    0.75000000    2.78999996
   17.83750153  120.97200012    0.75000000    2.78999996
   17.84055710  123.62100220    0.75000000    2.78999996
   17.84388924  119.23600006    0.75000000    2.78999996
   17.84722328  133.52799988    0.75000000    2.78999996
   17.85027885  116.91699982    0.75000000    2.78999996
   17.85416794  116.15299988    0.00000000    0.00000000
   17.85583305  121.31300354    0.00000000    0.00000000
   17.85833359  123.31400299    0.00000000    0.00000000
   17.86222267  130.58799744    0.00000000    0.00000000
   17.86694527  130.58799744    0.00000000    0.00000000
   17.87166595  120.62599945    0.00000000    0.00000000
   17.87555504  119.47799683    0.00000000    0.00000000
   17.87944412  120.58599854    0.00000000    0.00000000
   17.88333321  123.49400330    0.00000000    0.00000000
   17.88666725  118.58899689    0.75000000    2.78999996
   17.88916588  119.85900116    0.75000000    2.78999996
   17.89027786  112.69400024    0.75000000    2.78999996
   17.89333344  132.01199341    0.75000000    2.78999996
   17.89666748   95.60690308    0.75000000    2.78999996
   17.90027809  117.61699677    0.75000000    2.78999996
   17.90361023  115.55599976    0.75000000    2.78999996
   17.90972137  115.55599976    0.75000000    2.78999996
   17.91388893  126.56099701    0.75000000    2.78999996
   17.91694450  121.33300018    0.75000000    2.78999996
   17.92027664  111.59200287    0.75000000    2.78999996
   17.92249870  117.23100281    0.75000000    2.78999996
   17.92388916  120.61299896    0.75000000    2.78999996
   17.92722130  114.85900116    0.56999999    2.78999996
   17.93027687  124.95099640    0.56999999    2.78999996
   17.93361092  118.95400238    0.56999999    2.78999996
   17.93666649  111.26499939    0.56999999    2.78999996
   17.93999863  117.86499786    0.56999999    2.78999996
   17.94333267  119.94599915    0.56999999    2.76999998
   17.94638824  117.55799866    0.55000001    2.78999996
   17.95250130  117.55799866    0.55000001    2.76999998
   17.95666695  123.59799957    0.55000001    2.76999998
   17.96000099  125.69799805    0.55000001    2.78999996
   17.96305656  119.31099701    0.55000001    2.76999998
   17.96638870  129.47399902    0.55000001    2.78999996
   17.96944427  114.14199829    0.55000001    2.78999996
   17.97277832  127.07800293    0.55000001    2.78999996
   17.97611237  113.73300171    0.55000001    2.78999996
   17.97916794  119.22599792    0.55000001    2.78999996
   17.98250008  114.30999756    0.56999999    2.78999996
   17.98583412  123.66500092    0.55000001    2.76999998
   17.98888969  114.01999664    0.55000001    2.76999998
   17.98944473  115.14299774    0.55000001    2.76999998
   17.99527740  115.14299774    0.56999999    2.78999996
   17.99944496  104.61000061    0.56999999    2.78999996
   18.00277710  112.24199677    0.58999997    2.78999996
   18.00583267  112.05200195    0.61000001    2.76999998
   18.00916672  118.40200043    0.61000001    2.78999996
   18.01250076  116.54000092    0.61000001    2.78999996
   18.01555634  110.60199738    0.61000001    2.78999996
   18.01888847  110.96600342    0.63000000    2.76999998
   18.02222252  113.69899750    0.63000000    2.76999998
   18.02277756  111.43199921    0.63000000    2.76999998
   18.02583313  112.99700165    0.63000000    2.76999998
   18.02888870  109.14299774    0.69000000    2.78999996
   18.03222275  106.43499756    0.67000002    2.76999998
   18.03833199  106.43499756    0.67000002    2.76999998
   18.04249954  113.23000336    0.69000000    2.78999996
   18.04555511  103.84700012    0.69000000    2.76999998
   18.04888916  103.39499664    0.70999998    2.76999998
   18.05222130  110.04399872    0.70999998    2.76999998
   18.05527687  106.92400360    0.70999998    2.76999998
   18.05611038  117.00800323    0.70999998    2.76999998
   18.05888748  114.08799744    0.70999998    2.76999998
   18.06194305  109.89900208    0.70999998    2.76999998
   18.06527710  112.00900269    0.73000002    2.76999998
   18.06861115  117.12699890    0.73000002    2.76999998
   18.07166672  112.01300049    0.73000002    2.76999998
   18.07500076  109.82700348    0.73000002    2.76999998
   18.08111191  109.82700348    0.75000000    2.76999998
   18.08527756  105.13200378    0.75000000    2.76999998
   18.08833313  113.82099915    0.79000002    2.76999998
   18.08944511  105.27400208    0.79000002    2.76999998
   18.09222221  114.54000092    0.76999998    2.76999998
   18.09527779  101.66200256    0.79000002    2.78999996
   18.09861183  109.70999908    0.79000002    2.78999996
   18.10166740  105.23799896    0.79000002    2.76999998
   18.10499954  103.13300323    0.79000002    2.76999998
   18.10833359  108.28099823    0.79000002    2.76999998
   18.11138916  111.34999847    0.80000001    2.76999998
   18.11472321  104.18900299    0.80000001    2.76999998
   18.11805534   99.49230194    0.80000001    2.78999996
   18.12388992   99.49230194    0.80000001    2.76999998
   18.12805557   99.53559875    0.80000001    2.78999996
   18.13138962  105.93000031    0.80000001    2.75000000
   18.13444519  100.18299866    0.80000001    2.75000000
   18.13777733  107.75099945    0.80000001    2.78999996
   18.14111137   98.47119904    0.80000001    2.76999998
   18.14416695   96.86180115    0.95999998    2.76999998
   18.14749908  105.05999756    1.01999998    2.78999996
   18.15055466  107.32800293    1.01999998    2.76999998
   18.15388870  103.59300232    1.05999994    2.76999998
   18.15611076  101.22200012    0.98000002    2.76999998
   18.15749931  102.04499817    0.92000002    2.76999998
   18.16083336   98.26010132    0.86000001    2.76999998
   18.16666603   98.26010132    0.86000001    2.76999998
   18.17083359   96.24749756    0.86000001    2.76999998
   18.17527771  102.36799622    0.86000001    2.76999998
   18.17860985  103.70899963    0.86000001    2.76999998
   18.18194389   98.74629974    0.86000001    2.76999998
   18.18555450  104.61599731    0.86000001    2.76999998
   18.18888855   92.48390198    0.86000001    2.76999998
   18.18972206  101.18900299    0.86000001    2.76999998
   18.19305420  104.43099976    0.86000001    2.76999998
   18.19610977  101.43399811    0.86000001    2.76999998
   18.19944382  102.99600220    0.86000001    2.76999998
   18.20250130  101.87000275    0.86000001    2.76999998
   18.20583344  101.92800140    0.86000001    2.76999998
   18.21000099  101.92800140    0.86000001    2.76999998
   18.21416664   97.97239685    0.86000001    2.76999998
   18.21750069   95.42720032    0.86000001    2.76999998
   18.22111130   93.81210327    0.86000001    2.76999998
   18.22277832  100.87799835    0.86000001    2.76999998
   18.22472191  101.49299622    0.86000001    2.76999998
   18.22805595   98.21450043    0.86000001    2.76999998
   18.23166656   91.91049957    0.86000001    2.76999998
   18.23500061   92.84750366    0.86000001    2.76999998
   18.23805618   98.78040314    0.86000001    2.76999998
   18.24166679  104.95099640    0.86000001    2.76999998
   18.24472237  101.56600189    0.86000001    2.76999998
   18.24805641  101.76799774    0.86000001    2.76999998
   18.25277710  101.76799774    0.86000001    2.76999998
   18.25694466   99.69640350    0.86000001    2.76999998
   18.26000023  102.88600159    0.86000001    2.76999998
   18.26333427  101.94499969    0.86000001    2.76999998
   18.26666641  100.51699829    0.86000001    2.76999998
   18.26972198   96.95279694    0.86000001    2.76999998
   18.27305603  101.66400146    0.86000001    2.76999998
   18.27638817   98.95059967    0.86000001    2.76999998
   18.27944374   98.66329956    0.86000001    2.76999998
   18.28277779   99.79660034    0.86000001    2.76999998
   18.28610992  104.53399658    0.86000001    2.76999998
   18.28916550  107.04799652    0.86000001    2.76999998
   18.28972244  105.03099823    0.86000001    2.76999998
   18.29555511  105.03099823    0.86000001    2.76999998
   18.29972076  104.68399811    0.86000001    2.76999998
   18.30305481  101.41999817    0.86000001    2.76999998
   18.30611038  105.76699829    0.86000001    2.76999998
   18.30944443  104.38999939    0.86000001    2.76999998
   18.31277657  104.55200195    0.86000001    2.76999998
   18.31583214  102.60800171    0.86000001    2.76999998
   18.31916809  106.56500244    0.86000001    2.76999998
   18.32222366  107.04499817    0.86000001    2.76999998
   18.32305717  105.75199890    0.86000001    2.76999998
   18.32611275  104.30899811    0.86000001    2.76999998
   18.32916832  104.00700378    0.75000000    2.76999998
   18.33250046  109.84799957    0.73000002    2.76999998
   18.33833313  109.84799957    0.73000002    2.76999998
   18.34250069  108.99299622    0.73000002    2.76999998
   18.34583473  108.83200073    0.70999998    2.76999998
   18.34889030  105.69699860    0.70999998    2.75000000
   18.35222244  108.69000244    0.70999998    2.75000000
   18.35555649  113.43900299    0.70999998    2.75000000
   18.35639000  111.31199646    0.70999998    2.76999998
   18.35916710  111.37799835    0.70999998    2.75000000
   18.36222267  110.67299652    0.73000002    2.76999998
   18.36555672  107.21800232    0.70999998    2.75000000
   18.36861038  115.73999786    0.70999998    2.76999998
   18.37194443  113.57900238    0.70999998    2.76999998
   18.37527847  116.47499847    0.70999998    2.76999998
   18.38138962  116.47499847    0.70999998    2.76999998
   18.38555527  111.51100159    0.70999998    2.76999998
   18.38861084  113.78099823    0.70999998    2.76999998
   18.38972282  112.09100342    0.70999998    2.76999998
   18.39222145  114.73200226    0.70999998    2.76999998
   18.39527702  107.04499817    0.70999998    2.76999998
   18.39861107  118.16799927    0.70999998    2.76999998
   18.40222168  116.65100098    0.70999998    2.76999998
   18.40555573  116.52400208    0.70999998    2.76999998
   18.40861130  113.99500275    0.70999998    2.76999998
   18.41194344  113.19499969    0.70999998    2.76999998
   18.41527748  116.38899994    0.70999998    2.76999998
   18.41888809  116.53299713    0.70999998    2.76999998
   18.44055557   69.20539856    0.00000000    0.00000000
   18.44083214   82.92269897    0.00000000    0.00000000
   18.44472122  111.60199738    0.00000000    0.00000000
   18.44861031  111.67600250    0.00000000    0.00000000
   18.45250130  110.52200317    0.00000000    0.00000000
   18.45639038  108.86399841    0.00000000    0.00000000
   18.45666695  110.03800201    0.00000000    0.00000000
   18.46027946  111.09200287    0.00000000    0.00000000
   18.46694565  111.09200287    0.70999998    2.76999998
   18.47111130  109.53600311    0.70999998    2.76999998
   18.47444534  109.57499695    0.70999998    2.76999998
   18.47750092  107.81199646    0.70999998    2.76999998
   18.48083305  106.55699921    0.70999998    2.76999998
   18.48416710  107.78199768    0.70999998    2.76999998
   18.48722267  107.40499878    0.70999998    2.75000000
   18.48999977  112.73600006    0.94000000    2.75000000
   18.49083328  116.73500061    0.95999998    2.76999998
   18.49416733  105.85500336    0.98000002    2.76999998
   18.49722290  108.87000275    1.00000000    2.75000000
   18.50055504  112.07299805    1.11000001    2.75000000
   18.50388908  111.88200378    1.13000000    2.75000000
   18.50972176  111.88200378    1.14999998    2.75000000
   18.51388931  111.19300079    1.11000001    2.75000000
   18.51722145  103.64800262    1.11000001    2.75000000
   18.52055550  111.51100159    1.07000005    2.75000000
   18.52361107  107.05699921    1.05999994    2.75000000
   18.52388954  103.87200165    1.05999994    2.75000000
   18.52722168  105.94699860    1.01999998    2.76999998
   18.53055573  112.60500336    1.01999998    2.75000000
   18.53361130  108.52200317    0.98000002    2.75000000
   18.53694344  114.11499786    0.95999998    2.75000000
   18.54027748  104.72899628    0.94000000    2.75000000
   18.54333305  115.13099670    0.92000002    2.75000000
   18.54666710  107.44899750    0.94000000    2.75000000
   18.55277634  107.44899750    0.92000002    2.75000000
   18.55694389  104.47699738    0.92000002    2.75000000
   18.55999947  111.28099823    0.92000002    2.75000000
   18.56333351  114.32099915    0.92000002    2.75000000
   18.56638718  105.90299988    0.92000002    2.75000000
   18.56972313  109.84700012    0.92000002    2.75000000
   18.57305717  109.65200043    0.94000000    2.75000000
   18.57611275  106.49800110    0.92000002    2.75000000
   18.57944489  105.15100098    0.89999998    2.75000000
   18.58277893  104.09999847    0.89999998    2.75000000
   18.58583450   98.83689880    0.88000000    2.75000000
   18.58916664  104.43699646    0.89999998    2.75000000
   18.59027863  115.09200287    0.89999998    2.75000000
   18.59555626  115.09200287    0.92000002    2.75000000
   18.59972191  103.69499969    0.94000000    2.75000000
   18.60277748  107.60900116    0.92000002    2.75000000
   18.60611153  113.42099762    0.94000000    2.73000002
   18.60944557  111.99500275    0.98000002    2.75000000
   18.61250114  107.39099884    0.98000002    2.75000000
   18.61583328  108.07900238    0.98000002    2.75000000
   18.61916733  110.36000061    1.00000000    2.75000000
   18.62222290  109.56800079    0.98000002    2.75000000
   18.62361145  107.03800201    0.98000002    2.75000000
   18.62583351  109.50299835    0.95999998    2.73000002
   18.62916756  109.43299866    0.94000000    2.75000000
   18.63222313  103.44799805    0.92000002    2.75000000
   18.63833237  103.44799805    0.86000001    2.75000000
   18.64249992  108.90299988    0.89999998    2.75000000
   18.64583397  108.50099945    0.88000000    2.75000000
   18.64888954  112.02600098    0.88000000    2.75000000
   18.65222168  108.63500214    0.88000000    2.75000000
   18.65555573  105.47299957    0.86000001    2.75000000
   18.65694427  105.85700226    0.83999997    2.73000002
   18.65888786  110.49900055    0.83999997    2.75000000
   18.66222191  109.11900330    0.83999997    2.75000000
   18.66527748  102.80400085    0.80000001    2.75000000
   18.66860962  103.30799866    0.83999997    2.75000000
   18.67194366  105.53500366    0.80000001    2.75000000
   18.67499924  105.72799683    0.79000002    2.75000000
   18.68111038  105.72799683    0.79000002    2.75000000
   18.68527603  108.47200012    0.79000002    2.75000000
   18.68861008  108.36399841    0.79000002    2.75000000
   18.69027710  103.66600037    0.79000002    2.75000000
   18.69222069  112.42299652    0.79000002    2.73000002
   18.69555473  103.43099976    0.80000001    2.75000000
   18.69888878  102.78199768    0.80000001    2.73000002
   18.70194435  103.82499695    0.79000002    2.75000000
   18.70527840  109.76799774    0.79000002    2.73000002
   18.70833397  106.21099854    0.79000002    2.75000000
   18.71166801  106.39099884    0.76999998    2.75000000
   18.71500015  103.75800323    0.76999998    2.75000000
   18.71805573  108.37400055    0.79000002    2.75000000
   18.72416687  108.37400055    0.76999998    2.75000000
   18.72833443  108.04299927    0.76999998    2.73000002
   18.73139000  112.08699799    0.79000002    2.75000000
   18.73472214  105.20899963    0.79000002    2.75000000
   18.73777771  103.25700378    0.76999998    2.75000000
   18.74111176  107.59700012    0.79000002    2.75000000
   18.74444389  107.55200195    0.79000002    2.73000002
   18.74749947  100.26499939    0.79000002    2.75000000
   18.75083351  104.92700195    0.79000002    2.75000000
   18.75416756  107.88700104    0.79000002    2.75000000
   18.75694466  106.80300140    0.79000002    2.75000000
   18.75749969  103.14299774    0.79000002    2.75000000
   18.76083374  111.61599731    0.79000002    2.75000000
   18.76694489  111.61599731    0.80000001    2.75000000
   18.77111053  110.19599915    0.81999999    2.75000000
   18.77416611  106.02899933    0.83999997    2.73000002
   18.77750015  107.42400360    0.83999997    2.73000002
   18.78083229  107.12100220    0.83999997    2.73000002
   18.78388786  105.95700073    0.86000001    2.75000000
   18.78722191  107.62200165    0.86000001    2.75000000
   18.79027748  106.72499847    0.86000001    2.75000000
   18.79083252  110.11799622    0.86000001    2.75000000
   18.79416656  111.34400177    0.86000001    2.75000000
   18.79722214  107.87999725    0.86000001    2.73000002
   18.80055428  114.51899719    0.86000001    2.75000000
   18.80388832  110.42700195    0.86000001    2.73000002
   18.80972099  110.42700195    0.86000001    2.75000000
   18.81388855  113.40799713    0.86000001    2.75000000
   18.81722260  105.04199982    0.86000001    2.75000000
   18.82027817  102.79199982    0.86000001    2.73000002
   18.82361221  101.69799805    0.83999997    2.75000000
   18.82389069  104.39700317    0.83999997    2.75000000
   18.82722282  105.03500366    0.86000001    2.73000002
   18.83027840  107.33000183    0.86000001    2.75000000
   18.83361244  101.76699829    0.88000000    2.71000004
   18.83694458  105.48300171    0.88000000    2.75000000
   18.84000015  106.26499939    0.88000000    2.73000002
   18.84333420  110.22299957    0.89999998    2.75000000
   18.84666824  105.88300323    0.92000002    2.75000000
   18.85250092  105.88300323    0.95999998    2.75000000
   18.85666656  107.67299652    0.98000002    2.73000002
   18.85722351  107.55899811    0.98000002    2.73000002
   18.86055565  101.75900269    1.00000000    2.73000002
   18.86361122  105.43399811    0.98000002    2.73000002
   18.86694527  100.12599945    0.98000002    2.73000002
   18.87000084  106.40100098    0.98000002    2.73000002
   18.87333298  112.15799713    1.00000000    2.73000002
   18.87666702  105.96499634    0.98000002    2.73000002
   18.87972260  109.73000336    0.98000002    2.73000002
   18.88305473  109.86199951    1.00000000    2.73000002
   18.88638878  116.91999817    1.01999998    2.73000002
   18.88944435  111.97799683    1.01999998    2.75000000
   18.89055634  112.83699799    1.00000000    2.75000000
   18.89555550  112.83699799    0.98000002    2.73000002
   18.89944458  107.34100342    0.95999998    2.73000002
   18.90277672  105.77300262    0.95999998    2.73000002
   18.90611076  111.53399658    0.95999998    2.73000002
   18.90916634  106.83000183    0.95999998    2.73000002
   18.91250038  113.32900238    0.95999998    2.73000002
   18.91583252  110.94000244    0.95999998    2.73000002
   18.91888809  103.55300140    0.98000002    2.73000002
   18.92222214  103.52100372    0.98000002    2.73000002
   18.92388916  111.77799988    0.98000002    2.75000000
   18.92583275  110.65499878    1.00000000    2.73000002
   18.92888832  101.37599945    0.98000002    2.75000000
   18.93222237  109.80100250    1.00000000    2.73000002
   18.93833160  109.80100250    1.03999996    2.73000002
   18.94249916  103.05300140    1.09000003    2.73000002
   18.94555473  106.94699860    1.09000003    2.73000002
   18.94888878  113.64700317    1.11000001    2.73000002
   18.95222282  108.72799683    1.11000001    2.71000004
   18.95527840  107.05000305    1.11000001    2.73000002
   18.95722389  107.61499786    1.11000001    2.73000002
   18.95916748  107.63899994    1.09000003    2.73000002
   18.96222305  104.04799652    1.07000005    2.73000002
   18.96555710  108.72100067    1.05999994    2.73000002
   18.96861076  107.27400208    1.01999998    2.73000002
   18.97194481  102.42500305    0.98000002    2.73000002
   18.97527885  110.24500275    0.98000002    2.73000002
   18.98111153  110.24500275    0.94000000    2.75000000
   18.98527718  110.61299896    0.94000000    2.75000000
   18.98861122   96.63590240    0.94000000    2.73000002
   18.99055672  103.83999634    0.94000000    2.73000002
   18.99222183   98.20279694    0.94000000    2.75000000
   18.99527740   99.41940308    0.94000000    2.75000000
   18.99861145  110.24299622    0.94000000    2.73000002
   19.00166702  106.47799683    0.94000000    2.73000002
   19.00499916   98.33129883    0.94000000    2.73000002
   19.00833321   95.13430023    0.94000000    2.73000002
   19.01138878  101.49199677    0.94000000    2.75000000
   19.01472282  100.27999878    0.94000000    2.73000002
   19.01805496   92.88480377    0.92000002    2.73000002
   19.02388954   92.88480377    0.94000000    2.73000002
   19.02805519  103.29799652    0.92000002    2.73000002
   19.03138924   97.64350128    0.92000002    2.73000002
   19.03444481   98.82219696    0.92000002    2.73000002
   19.03777695   96.43900299    0.89999998    2.73000002
   19.04111099  102.57700348    0.89999998    2.73000002
   19.04416656   96.25689697    0.89999998    2.73000002
   19.04749870   99.75630188    0.89999998    2.73000002
   19.05083275   96.94889832    0.92000002    2.73000002
   19.05388832  105.66500092    0.92000002    2.73000002
   19.05722237  103.84899902    0.92000002    2.71000004
   19.05777740   95.03340149    0.92000002    2.73000002
   19.06083298   99.69450378    0.92000002    2.73000002
   19.06694603   99.69450378    0.94000000    2.73000002
   19.07083511   94.53369904    0.94000000    2.73000002
   19.07416725  102.54699707    0.94000000    2.71000004
   19.07750130  100.27700043    0.94000000    2.73000002
   19.08055687   96.99700165    0.94000000    2.71000004
   19.08388901   98.58260345    0.94000000    2.73000002
   19.08722305   98.99340057    0.94000000    2.73000002
   19.09027863   99.55329895    0.95999998    2.71000004
   19.09111214   98.53019714    0.94000000    2.71000004
   19.09388924  100.85900116    0.94000000    2.73000002
   19.09722328  101.21399689    0.94000000    2.73000002
   19.10027885  103.37300110    0.94000000    2.71000004
   19.10361099  107.64600372    0.92000002    2.73000002
   19.10972214  107.64600372    0.94000000    2.73000002
   19.11388969  102.27100372    0.95999998    2.73000002
   19.11694527  102.36299896    0.98000002    2.73000002
   19.12027740  107.48600006    1.00000000    2.71000004
   19.12361145  101.50299835    1.00000000    2.73000002
   19.12444496   97.83550262    1.00000000    2.73000002
   19.12694550  105.57800293    1.01999998    2.73000002
   19.13027763  102.48300171    1.01999998    2.73000002
   19.13333321  105.96499634    1.00000000    2.73000002
   19.13666725  102.09400177    0.98000002    2.73000002
   19.13999939  103.34500122    0.98000002    2.71000004
   19.14305496  103.88899994    0.98000002    2.71000004
   19.14638901  100.58300018    1.00000000    2.73000002
   19.15250015  100.58300018    1.01999998    2.73000002
   19.15666580  102.78800201    1.01999998    2.73000002
   19.15777779  101.29199982    1.01999998    2.73000002
   19.16027832   97.64089966    1.01999998    2.71000004
   19.16361046  101.40299988    1.03999996    2.71000004
   19.16666603  104.53500366    1.05999994    2.73000002
   19.17000008   98.68000031    1.09000003    2.71000004
   19.17333221   99.03500366    1.09000003    2.71000004
   19.17638779  106.08499908    1.11000001    2.73000002
   19.17972183  102.39299774    1.14999998    2.71000004
   19.18305397   98.92639923    1.14999998    2.71000004
   19.18610954  105.85099792    1.16999996    2.71000004
   19.18944359  104.81199646    1.16999996    2.71000004
   19.19111061  107.73100281    1.16999996    2.71000004
   19.19527626  107.73100281    1.21000004    2.71000004
   19.19944382  101.60800171    1.21000004    2.71000004
   19.20277786   95.35530090    1.21000004    2.71000004
   19.20583344  108.28600311    1.23000002    2.71000004
   19.20916748  106.18599701    1.21000004    2.71000004
   19.21250153  101.09400177    1.25000000    2.71000004
   19.21583366  103.30599976    1.23000002    2.71000004
   19.21888924   99.94750214    1.25000000    2.71000004
   19.22222328  101.15299988    1.25000000    2.71000004
   19.22444534  102.95300293    1.25000000    2.71000004
   19.22583389   99.70339966    1.25000000    2.71000004
   19.22916794   97.04689789    1.25000000    2.71000004
   19.23250008  108.67900085    1.25000000    2.71000004
   19.23833275  108.67900085    1.26999998    2.71000004
   19.24222183  101.34600067    1.26999998    2.71000004
   19.24555588  102.46299744    1.28999996    2.71000004
   19.24888992   95.62409973    1.30999994    2.71000004
   19.25194359  100.86299896    1.33000004    2.71000004
   19.25527763  107.99199677    1.33000004    2.71000004
   19.25777817   99.06130219    1.33000004    2.69000006
   19.25888824  109.50800323    1.33000004    2.69000006
   19.26222229   99.34279633    1.30999994    2.69000006
   19.26555634   97.68759918    1.30999994    2.71000004
   19.26861000   94.86689758    1.26999998    2.71000004
   19.27194405   96.25119781    1.26999998    2.71000004
   19.27499962  103.81500244    1.30999994    2.71000004
   19.28111076  103.81500244    1.34000003    2.71000004
   19.28527641   99.39479828    1.34000003    2.71000004
   19.28833199   98.56060028    1.34000003    2.71000004
   19.29111099   98.43309784    1.33000004    2.69000006
   19.29194450  100.27899933    1.33000004    2.69000006
   19.29527664   96.21219635    1.28999996    2.71000004
   19.29861069   93.16429901    1.26999998    2.71000004
   19.30166626   98.58679962    1.25000000    2.71000004
   19.30499840  104.45200348    1.25000000    2.71000004
   19.30833244   98.10359955    1.26999998    2.71000004
   19.31138802   86.70069885    1.28999996    2.71000004
   19.31472206   98.80629730    1.26999998    2.71000004
   19.31805611   94.93099976    1.23000002    2.71000004
   19.32389069   94.93099976    1.28999996    2.71000004
   19.32805634   95.95950317    1.34000003    2.69000006
   19.33139038  101.88500214    1.39999998    2.69000006
   19.33444595   97.21949768    1.46000004    2.69000006
   19.33777809   99.27310181    1.48000002    2.69000006
   19.34083366   90.80809784    1.44000006    2.71000004
   19.34416771  100.09100342    1.38000000    2.71000004
   19.34749985   90.13480377    1.33000004    2.69000006
   19.35055542   92.25569916    1.26999998    2.71000004
   19.35388947   94.79479980    1.23000002    2.71000004
   19.35722351   94.88860321    1.19000006    2.69000006
   19.35888863   92.33789825    1.16999996    2.71000004
   19.36083412   93.57389832    1.16999996    2.69000006
   19.36666679   93.57389832    1.14999998    2.71000004
   19.37083435  102.98200226    1.13000000    2.71000004
   19.37416649  100.81900024    1.14999998    2.71000004
   19.37722206   99.49590302    1.14999998    2.69000006
   19.38055611   98.12439728    1.13000000    2.69000006
   19.38388824   97.20359802    1.14999998    2.69000006
   19.38694382   99.18289948    1.14999998    2.69000006
   19.39027786   90.53620148    1.14999998    2.69000006
   19.39222145   92.87069702    1.13000000    2.69000006
   19.39388847  104.18900299    1.13000000    2.71000004
   19.39694405   98.74099731    1.13000000    2.69000006
   19.40027809   95.43240356    1.14999998    2.69000006
   19.40361023   90.94670105    1.13000000    2.69000006
   19.40972137   90.94670105    1.13000000    2.69000006
   19.41361046   99.48220062    1.09000003    2.69000006
   19.41694450   98.87819672    1.11000001    2.69000006
   19.42027664   99.84929657    1.11000001    2.69000006
   19.42333221   98.76409912    1.19000006    2.69000006
   19.42583275  100.15599823    1.16999996    2.69000006
   19.42722130  102.40000153    1.13000000    2.69000006
   19.43027687   96.38420105    1.16999996    2.69000006
   19.43361092  100.88600159    1.38000000    2.69000006
   19.43666649   99.13960266    1.39999998    2.69000006
   19.43999863   99.94370270    1.28999996    2.69000006
   19.46055603   99.94370270    1.03999996    2.69000006
   19.46472359   98.88890076    1.05999994    2.67000008
   19.46805573   95.83509827    1.03999996    2.67000008
   19.47111130  101.51399994    1.05999994    2.69000006
   19.47444534   95.17070007    1.07000005    2.67000008
   19.47777748  101.70999908    1.09000003    2.69000006
   19.48083305   99.59349823    1.14999998    2.69000006
   19.48416710  105.24700165    1.16999996    2.67000008
   19.48722267   98.30909729    1.21000004    2.67000008
   19.49055672   98.56459808    1.23000002    2.67000008
   19.49277878   92.47720337    1.25000000    2.67000008
   19.49416733   97.51470184    1.28999996    2.67000008
   19.49749947  102.09500122    1.30999994    2.67000008
   19.50333405  102.09500122    1.34000003    2.67000008
   19.50749969  100.05999756    1.30999994    2.67000008
   19.51083374  100.60500336    1.34000003    2.67000008
   19.51388931   95.17140198    1.30999994    2.67000008
   19.51722145   98.79090118    1.28999996    2.67000008
   19.52027702  106.55599976    1.28999996    2.67000008
   19.52361107   98.31520081    1.30999994    2.66000009
   19.52611160   98.24800110    1.28999996    2.66000009
   19.52750015  100.19999695    1.30999994    2.66000009
   19.53055573  102.06500244    1.30999994    2.67000008
   19.53388786  103.64800262    1.33000004    2.67000008
   19.53694344   97.79479980    1.36000001    2.66000009
   19.54027748   96.60199738    1.39999998    2.66000009
   19.54611015   96.60199738    1.36000001    2.67000008
   19.55027771   98.99469757    1.39999998    2.66000009
   19.55360985  100.18399811    1.39999998    2.67000008
   19.55666542   99.11209869    1.48000002    2.66000009
   19.55944443  101.43199921    1.53999996    2.66000009
   19.56027794   97.16950226    1.60000002    2.66000009
   19.56361008   95.08399963    1.60000002    2.66000009
   19.56694603   99.02639771    1.60000002    2.66000009
   19.57000160  104.99299622    1.58000004    2.67000008
   19.57333374   99.04250336    1.75000000    2.66000009
   19.57666779   95.06880188    1.83000004    2.66000009
   19.57972336   98.19519806    1.71000004    2.66000009
   19.58305550   93.32219696    1.88000000    2.66000009
   19.58916664   93.32219696    1.91999996    2.67000008
   19.59305573   96.30200195    1.80999994    2.67000008
   19.59638977   95.58529663    1.80999994    2.66000009
   19.59972191  101.81800079    1.98000002    2.64000010
   19.60277748   94.58499908    1.91999996    2.66000009
   19.60611153   94.43240356    1.89999998    2.64000010
   19.60944557   99.02050018    1.83000004    2.66000009
   19.61250114  100.89900208    1.73000002    2.66000009
   19.61583328   95.42829895    1.64999998    2.66000009
   19.61888885   93.68520355    1.64999998    2.67000008
   19.62222290   94.57579803    1.73000002    2.66000009
   19.62555504   97.06320190    2.05999994    2.66000009
   19.62611198  102.46299744    2.15000010    2.66000009
   19.63194466  102.46299744    2.15000010    2.64000010
   19.63611031   94.95429993    2.01999998    2.66000009
   19.63916588   95.99639893    1.83000004    2.66000009
   19.64249992   99.47740173    1.83000004    2.66000009
   19.64583397   97.28450012    1.88000000    2.66000009
   19.64888954   98.49720001    2.11999989    2.66000009
   19.65222168   96.79329681    2.23000002    2.66000009
   19.65555573   90.35109711    2.39000010    2.64000010
   19.65861130   91.27839661    2.53999996    2.64000010
   19.65944481   94.69010162    2.51999998    2.66000009
   19.66250038  100.97299957    2.39000010    2.64000010
   19.66555595   95.25969696    2.13000011    2.64000010
   19.66888809   93.50440216    1.96000004    2.66000009
   19.67472076   93.50440216    2.09999990    2.66000009
   19.67888832   97.75460052    2.26999998    2.66000009
   19.68222237   97.28450012    2.28999996    2.64000010
   19.68527603   99.26090240    2.11999989    2.66000009
   19.68861008  102.71800232    1.94000006    2.66000009
   19.69166565  106.75000000    1.83000004    2.67000008
   19.69277763  104.80400085    1.69000006    2.67000008
   19.69555473   97.44519806    1.51999998    2.67000008
   19.69861031   98.96320343    1.58000004    2.67000008
   19.70194435   99.02220154    1.60000002    2.66000009
   19.70499992   99.70919800    1.61000001    2.66000009
   19.70833397   93.46479797    1.73000002    2.66000009
   19.71166801   99.08950043    1.75000000    2.66000009
   19.71750069   99.08950043    1.78999996    2.66000009
   19.72166634  101.11199951    1.76999998    2.66000009
   19.72500038  100.21099854    1.76999998    2.67000008
   19.72611237  101.64199829    1.80999994    2.67000008
   19.72861099  104.34400177    1.85000002    2.66000009
   19.73166656   93.26570129    1.64999998    2.67000008
   19.73500061   96.15889740    1.71000004    2.66000009
   19.73805618   99.06069946    1.78999996    2.66000009
   19.74138832  106.38099670    1.89999998    2.66000009
   19.74472237   99.94999695    1.73000002    2.66000009
   19.74777794   97.04900360    1.76999998    2.67000008
   19.75111198  105.30999756    1.71000004    2.66000009
   19.75444412  102.05899811    1.51999998    2.66000009
   19.76055527  102.05899811    1.46000004    2.67000008
   19.76444435  101.54399872    1.48000002    2.66000009
   19.76777840  105.63300323    1.53999996    2.66000009
   19.77111053   93.88809967    1.50000000    2.66000009
   19.77416611   95.60810089    1.51999998    2.66000009
   19.77750015   97.64810181    1.55999994    2.66000009
   19.78083229   98.05789948    1.60000002    2.66000009
   19.78388786  102.90000153    1.61000001    2.66000009
   19.78722191   98.39369965    1.64999998    2.66000009
   19.79027748   96.60639954    1.64999998    2.66000009
   19.79277802   92.93679810    1.63000000    2.64000010
   19.79416656  102.17500305    1.63000000    2.64000010
   19.79722214   97.39540100    1.61000001    2.66000009
   19.80333328   97.39540100    1.58000004    2.66000009
   19.80749893   98.02310181    1.58000004    2.64000010
   19.81055450  100.33499908    1.58000004    2.66000009
   19.81388855  105.36799622    1.63000000    2.66000009
   19.81722260  103.75099945    1.61000001    2.66000009
   19.82027817   94.30860138    1.58000004    2.66000009
   19.82361221   98.43810272    1.51999998    2.66000009
   19.82611275   97.77429962    1.48000002    2.64000010
   19.82722282  100.31700134    1.48000002    2.64000010
   19.83027840  101.87200165    1.51999998    2.66000009
   19.83361244  100.38400269    1.41999996    2.64000010
   19.83694458   99.03859711    1.39999998    2.66000009
   19.84000015   99.30370331    1.36000001    2.66000009
   19.84611130   99.30370331    1.39999998    2.64000010
   19.85027885   98.58850098    1.48000002    2.64000010
   19.85361099   95.00129700    1.64999998    2.64000010
   19.85666656   99.94809723    1.89999998    2.64000010
   19.85944557  101.50599670    1.64999998    2.64000010
   19.86055565  103.62400055    1.64999998    2.64000010
   19.86361122   98.67449951    2.05999994    2.64000010
   19.86694527   96.94110107    1.86000001    2.66000009
   19.87000084   95.53060150    1.86000001    2.64000010
   19.87333298   97.13289642    2.26999998    2.64000010
   19.87666702  106.54199982    2.39000010    2.64000010
   19.87972260   99.95850372    3.20000005    2.64000010
   19.88305473  103.01699829    2.82999992    2.64000010
   19.88888931  103.01699829    3.11999989    2.61999989
   19.89305496  103.70899963    3.26999998    2.61999989
   19.89638901   96.14309692    3.09999990    2.64000010
   19.89944458   96.85479736    3.20000005    2.61999989
   19.90277672   96.41280365    2.50000000    2.64000010
   19.90611076   95.38050079    2.39000010    2.61999989
   19.90916634   96.69819641    2.26999998    2.64000010
   19.91250038  102.60099792    2.00000000    2.61999989
   19.91583252   93.81300354    1.80999994    2.64000010
   19.91888809  100.83999634    1.88000000    2.64000010
   19.92222214   91.76580048    1.86000001    2.64000010
   19.92527771   96.59700012    1.75000000    2.64000010
   19.92611122   99.92690277    1.75000000    2.64000010
   19.93194389   99.92690277    1.58000004    2.64000010
   19.93583298   95.25469971    1.55999994    2.64000010
   19.93916512  100.63999939    1.60000002    2.64000010
   19.94249916   92.44950104    1.53999996    2.64000010
   19.94555473   93.99680328    1.55999994    2.64000010
   19.94888878   97.73770142    1.48000002    2.61999989
   19.95222282  101.86900330    1.46000004    2.64000010
   19.95527840  100.89399719    1.48000002    2.61999989
   19.95861244   95.31780243    1.48000002    2.61999989
   19.95944595   96.65969849    1.48000002    2.61999989
   19.96222305  106.00000000    1.50000000    2.64000010
   19.96527863   97.20629883    1.50000000    2.61999989
   19.96861076   96.06060028    1.53999996    2.64000010
   19.97472191   96.06060028    1.69000006    2.61999989
   19.97888947  100.03500366    1.75000000    2.61999989
   19.98194504  103.83899689    1.75000000    2.61999989
   19.98527718   98.54769897    1.71000004    2.61999989
   19.98861122  101.16899872    1.69000006    2.61999989
   19.99166679  102.22299957    1.64999998    2.61999989
   19.99277878  100.64700317    1.64999998    2.61999989
   19.99527740   98.74440002    1.66999996    2.61999989
   19.99833298   99.39689636    1.71000004    2.61999989
   20.00166702  109.84999847    1.78999996    2.61999989
   20.00499916   99.59629822    1.78999996    2.64000010
   20.00805473  104.24199677    1.86000001    2.61999989
   20.01138878  101.97599792    1.85000002    2.61999989
   20.01749992  101.97599792    1.91999996    2.61999989
   20.02166557  100.45500183    1.94000006    2.61999989
   20.02499962  103.08000183    1.89999998    2.61999989
   20.02611160  106.89199829    1.86000001    2.61999989
   20.02861023  102.34100342    1.86000001    2.61999989
   20.03166580  102.84600067    1.83000004    2.61999989
   20.03499985  102.07900238    1.80999994    2.61999989
   20.03833199  103.32599640    1.75000000    2.61999989
   20.04138756  103.05699921    1.69000006    2.61999989
   20.04472160  103.46700287    1.69000006    2.61999989
   20.04777718   96.25910187    1.69000006    2.61999989
   20.05111122   98.75710297    1.73000002    2.61999989
   20.05444336   99.50749969    1.76999998    2.61999989
   20.06027794   99.50749969    1.78999996    2.61999989
   20.06444359  107.56199646    1.83000004    2.59999990
   20.06777954  100.16600037    1.94000006    2.59999990
   20.07083511   99.39340210    2.01999998    2.61999989
   20.07416725  102.00700378    1.89999998    2.61999989
   20.07750130  104.76499939    1.89999998    2.59999990
   20.08083344  102.73000336    1.86000001    2.59999990
   20.08388901  103.56099701    1.85000002    2.59999990
   20.08722305  104.36399841    1.83000004    2.59999990
   20.09055710  106.24400330    1.75000000    2.61999989
   20.09277916  104.38200378    1.76999998    2.61999989
   20.09416771   94.25000000    1.78999996    2.59999990
   20.09722328   98.88670349    2.11999989    2.59999990
   20.10305595   98.88670349    2.00000000    2.61999989
   20.10722351  103.01200104    2.05999994    2.59999990
   20.11055565   91.73139954    2.00000000    2.59999990
   20.11388969  100.05100250    1.94000006    2.59999990
   20.11722183  100.53600311    1.94000006    2.59999990
   20.12027740   95.95619965    1.94000006    2.59999990
   20.12361145  103.47200012    1.80999994    2.59999990
   20.12638855   97.60350037    1.88000000    2.61999989
   20.12722206  100.95700073    1.85000002    2.59999990
   20.13055611  104.20999908    1.85000002    2.59999990
   20.13388824   94.00499725    1.80999994    2.59999990
   20.13694382   97.76499939    1.83000004    2.59999990
   20.14027786   92.81890106    1.88000000    2.59999990
   20.14611053   92.81890106    1.94000006    2.59999990
   20.15027809   99.48870087    1.94000006    2.59999990
   20.15361023   99.75579834    1.91999996    2.57999992
   20.15666580   96.25399780    1.94000006    2.59999990
   20.15972137   96.74359894    1.96000004    2.59999990
   20.16027832  101.97699738    1.98000002    2.59999990
   20.16361046   97.23940277    2.28999996    2.59999990
   20.16694450  102.31700134    2.28999996    2.59999990
   20.17000008   96.05809784    2.28999996    2.59999990
   20.17333221   98.62030029    2.13000011    2.57999992
   20.17666626   98.62789917    2.00000000    2.57999992
   20.17972183   96.23770142    1.98000002    2.57999992
   20.18305397  101.38800049    1.94000006    2.57999992
   20.18916512  101.38800049    2.07999992    2.57999992
   20.19305420   98.02989960    2.01999998    2.57999992
   20.19638824   95.26699829    2.03999996    2.57999992
   20.19944382   99.04100037    2.01999998    2.57999992
   20.20277786   96.39679718    1.96000004    2.59999990
   20.20583344  100.54599762    1.94000006    2.57999992
   20.20916748  100.78900146    1.94000006    2.57999992
   20.21250153  100.70400238    1.96000004    2.57999992
   20.21555710  103.22899628    1.94000006    2.57999992
   20.21888924  101.21900177    1.89999998    2.57999992
   20.22222328  104.19499969    1.88000000    2.57999992
   20.22527885   96.61900330    1.86000001    2.57999992
   20.22611237   96.25659943    1.86000001    2.57999992
   20.23166656   96.25659943    1.96000004    2.59999990
   20.23583412  103.12799835    1.86000001    2.57999992
   20.23916626  101.88200378    1.83000004    2.59999990
   20.24222183   98.52110291    1.85000002    2.57999992
   20.24555588   96.42259979    2.00000000    2.57999992
   20.24888992  101.88500214    1.96000004    2.57999992
   20.25194359   96.90429688    1.98000002    2.57999992
   20.25527763   97.33670044    2.05999994    2.57999992
   20.25861168   97.10160065    1.91999996    2.57999992
   20.25972176  104.51899719    1.91999996    2.57999992
   20.26250076  106.72899628    1.88000000    2.57999992
   20.26583290   96.80789948    1.88000000    2.57999992
   20.26888847  105.54299927    1.88000000    2.57999992
   20.27444458  105.54299927    1.88000000    2.57999992
   20.27861023   98.12090302    1.91999996    2.57999992
   20.28194427   98.77510071    1.91999996    2.57999992
   20.28527641   99.17849731    1.94000006    2.57999992
   20.28833199   98.58670044    1.96000004    2.55999994
   20.29166603  100.60299683    1.94000006    2.57999992
   20.29277802   99.34300232    1.96000004    2.57999992
   20.29527664  100.64800262    1.96000004    2.55999994
   20.29861069   97.05139923    1.96000004    2.57999992
   20.30166626  101.24900055    1.96000004    2.55999994
   20.30499840  101.19000244    1.98000002    2.57999992
   20.30805397   96.82640076    1.96000004    2.55999994
   20.31138802   95.26119995    1.96000004    2.55999994
   20.31750107   95.26119995    1.94000006    2.55999994
   20.32166672  102.27700043    1.94000006    2.57999992
   20.32472229  100.14299774    1.94000006    2.55999994
   20.32611275  102.60800171    1.94000006    2.55999994
   20.32833481  103.01200104    1.98000002    2.55999994
   20.33166695  105.59899902    2.00000000    2.55999994
   20.33472252   99.88259888    2.00000000    2.57999992
   20.33805656   98.63970184    2.01999998    2.55999994
   20.34138870  103.64299774    2.05999994    2.55999994
   20.34444427   98.96269989    2.05999994    2.55999994
   20.34777832   99.11150360    2.05999994    2.55999994
   20.35083389  103.44999695    2.03999996    2.57999992
   20.35416794  101.86699677    2.03999996    2.55999994
   20.36027908  101.86699677    2.07999992    2.55999994
   20.36444473  100.22399902    2.11999989    2.55999994
   20.36750031  103.16999817    2.11999989    2.55999994
   20.37083435  104.87799835    2.11999989    2.53999996
   20.37416649  103.34100342    2.11999989    2.55999994
   20.37722206   97.38780212    2.09999990    2.55999994
   20.38055611  101.42500305    2.09999990    2.55999994
   20.38388824  101.85199738    2.11999989    2.55999994
   20.38694382   97.87149811    2.11999989    2.55999994
   20.39027786   98.46690369    2.11999989    2.53999996
   20.39277840   99.82389832    2.11999989    2.55999994
   20.39388847  103.23699951    2.11999989    2.55999994
   20.39694405  103.14099884    2.17000008    2.55999994
   20.40305519  103.14099884    2.19000006    2.55999994
   20.40722275   98.80680084    2.21000004    2.53999996
   20.41055489   95.36620331    2.25000000    2.53999996
   20.41361046  101.59600067    2.39000010    2.53999996
   20.41694450  106.26100159    2.53999996    2.53999996
   20.42027664  103.91100311    2.55999994    2.53999996
   20.42333221  105.86699677    2.66000009    2.53999996
   20.42611122  103.39099884    2.73000002    2.53999996
   20.42694473  100.65799713    2.73000002    2.53999996
   20.43000031  106.82900238    2.64000010    2.53999996
   20.43333244  113.70099640    2.53999996    2.53999996
   20.43666649  127.67500305    2.64000010    2.53999996
   20.43972206  138.25700378    2.55999994    2.53999996
   20.44583321  138.25700378    2.36999989    2.55999994
   20.45000076  270.71398926    2.30999994    2.53999996
   20.45333481  323.61801147    2.32999992    2.53999996
   20.45666695  367.37500000    2.36999989    2.53999996
   20.47638893   -1.00000000    2.36999989    2.53999996
