    HOUR (UT)   FLARE FACTOR    SKY TESTER    SUN TESTER
   12.27972221   -1.00000000   -1.00000000   -1.00000000
   12.31138897  124.60800171    2.32999992    1.83000004
   12.31472206  115.71299744    2.34999990    1.80999994
   12.31777763  120.47899628    2.36999989    1.80999994
   12.32111073  118.76899719    2.42000008    1.83000004
   12.32444477  127.05599976    2.42000008    1.83000004
   12.32750034  124.73400116    2.42000008    1.83000004
   12.33166695  124.73400116    2.42000008    1.83000004
   12.33583260  131.40199280    2.42000008    1.85000002
   12.33916664  124.83599854    2.40000010    1.85000002
   12.34222221  125.16899872    2.42000008    1.85000002
   12.34472179  126.80799866    2.40000010    1.85000002
   12.34583282  123.40299988    2.40000010    1.85000002
   12.34916592  119.04199982    2.42000008    1.85000002
   12.35249996  124.16699982    2.51999998    1.85000002
   12.35555553  122.25199890    2.51999998    1.85000002
   12.35888958  116.82700348    2.44000006    1.86000001
   12.36222267  120.56700134    2.42000008    1.86000001
   12.36527824  122.31500244    2.42000008    1.86000001
   12.36861134  113.49600220    2.42000008    1.86000001
   12.37444496  113.49600220    2.44000006    1.86000001
   12.37861156  122.14399719    2.44000006    1.88000000
   12.38194466  117.94899750    2.44000006    1.88000000
   12.38500023  120.72899628    2.44000006    1.88000000
   12.38833332  120.58399963    2.44000006    1.88000000
   12.39166641  115.01300049    2.44000006    1.88000000
   12.39472198  119.61199951    2.44000006    1.89999998
   12.39805508  122.96700287    2.44000006    1.89999998
   12.40138817  111.77899933    2.44000006    1.89999998
   12.40444374  113.58399963    2.44000006    1.89999998
   12.40777779  114.31400299    2.44000006    1.89999998
   12.41083336  119.55400085    2.44000006    1.89999998
   12.41138840  117.15399933    2.42000008    1.89999998
   12.41750050  117.15399933    2.42000008    1.91999996
   12.42138958  123.63400269    2.46000004    1.91999996
   12.42472267  115.35199738    2.40000010    1.91999996
   12.42805576  117.70600128    2.39000010    1.91999996
   12.43111134  113.36199951    2.39000010    1.91999996
   12.43444443  115.63099670    2.40000010    1.94000006
   12.43777752  113.71600342    2.39000010    1.91999996
   12.44083309  110.49600220    2.36999989    1.94000006
   12.44416714  116.87699890    2.36999989    1.91999996
   12.44472218  116.15000153    2.36999989    1.94000006
   12.44777775  115.10500336    2.36999989    1.94000006
   12.45111084  117.78900146    2.36999989    1.94000006
   12.45416641  120.44799805    2.39000010    1.96000004
   12.46027756  120.44799805    2.39000010    1.96000004
   12.46444416  114.14199829    2.39000010    1.96000004
   12.46749973  113.06199646    2.39000010    1.96000004
   12.47083282  112.55200195    2.36999989    1.96000004
   12.47416592  117.41400146    2.36999989    1.96000004
   12.47722149  120.30500031    2.36999989    1.96000004
   12.47805500  120.28399658    2.36999989    1.96000004
   12.48083305  115.78099823    2.36999989    1.96000004
   12.48416710  113.99600220    2.34999990    1.96000004
   12.48722267  122.25199890    2.34999990    1.98000002
   12.49055576  124.66799927    2.34999990    1.96000004
   12.49361134  125.55599976    2.32999992    1.96000004
   12.49694443  123.46299744    2.30999994    1.98000002
   12.50305557  123.46299744    2.30999994    1.98000002
   12.50722218  129.50799561    2.30999994    1.98000002
   12.51055527  131.08399963    2.30999994    1.98000002
   12.51138878  129.69799805    2.28999996    1.98000002
   12.51416683  144.41700745    2.28999996    1.98000002
   12.51749992  120.67400360    2.28999996    2.00000000
   12.52055550  117.53900146    2.28999996    1.98000002
   12.52388859  132.81599426    2.28999996    1.98000002
   12.52694416  126.10900116    2.28999996    2.00000000
   12.53027725  128.51199341    2.26999998    2.00000000
   12.53361130  133.96000671    2.26999998    2.00000000
   12.53666687  129.77499390    2.26999998    2.00000000
   12.54000092  132.15499878    2.25000000    2.00000000
   12.54583359  132.15499878    2.23000002    2.00000000
   12.55000019  126.31099701    2.23000002    2.01999998
   12.55333328  120.91000366    2.23000002    2.00000000
   12.55638885  119.27100372    2.23000002    2.01999998
   12.55972195  121.38099670    2.23000002    2.01999998
   12.56305599  120.16899872    2.21000004    2.03999996
   12.56611156  123.45300293    2.21000004    2.01999998
   12.56944466  122.98699951    2.21000004    2.03999996
   12.57250023  117.63800049    2.23000002    2.03999996
   12.57583332  123.61699677    2.23000002    2.03999996
   12.57805538  126.22200012    2.23000002    2.03999996
   12.57944393  129.80400085    2.23000002    2.03999996
   12.58249950  124.91600037    2.23000002    2.03999996
   12.58888817  124.91600037    2.23000002    2.03999996
   12.59277725  123.26200104    2.21000004    2.03999996
   12.59611034  128.88800049    2.23000002    2.03999996
   12.59944439  121.24400330    2.21000004    2.05999994
   12.60249996  128.38200378    2.21000004    2.05999994
   12.60583401  130.00399780    2.21000004    2.05999994
   12.60916710  118.25900269    2.21000004    2.05999994
   12.61138916  119.23799896    2.21000004    2.05999994
   12.61277771  119.77500153    2.21000004    2.05999994
   12.61583328  123.32099915    2.21000004    2.05999994
   12.61916637  120.45200348    2.23000002    2.05999994
   12.62250042  120.45800018    2.23000002    2.05999994
   12.62555599  120.09100342    2.23000002    2.05999994
   12.63166714  120.09100342    2.25000000    2.05999994
   12.63583279  127.91899872    2.23000002    2.05999994
   12.63888836  122.86199951    2.23000002    2.07999992
   12.64222240  124.37300110    2.21000004    2.07999992
   12.64472198  121.68199921    2.23000002    2.05999994
   12.64583302  120.02999878    2.21000004    2.05999994
   12.64916611  121.97599792    2.19000006    2.05999994
   12.65222168  117.01200104    2.19000006    2.07999992
   12.65555477  127.42700195    2.15000010    2.07999992
   12.65861034  124.03399658    2.15000010    2.07999992
   12.66194439  125.28099823    2.13000011    2.07999992
   12.66527748  123.21499634    2.11999989    2.09999990
   12.66833401  124.46299744    2.11999989    2.09999990
   12.67444515  124.46299744    2.09999990    2.11999989
   12.67861176  126.02999878    2.07999992    2.09999990
   12.68194485  134.31100464    2.05999994    2.09999990
   12.68500042  120.74400330    2.03999996    2.09999990
   12.68833351  119.64800262    2.03999996    2.09999990
   12.69138908  129.78900146    2.01999998    2.09999990
   12.69472218  122.72799683    2.01999998    2.09999990
   12.69805527  118.74700165    2.00000000    2.09999990
   12.70111084  115.65699768    2.00000000    2.09999990
   12.70444393  120.63500214    2.00000000    2.09999990
   12.70777798  116.79699707    2.00000000    2.11999989
   12.71083355  125.96099854    2.00000000    2.09999990
   12.71138859  117.45099640    2.00000000    2.09999990
   12.71722221  117.45099640    2.01999998    2.11999989
   12.72138882  121.45700073    2.01999998    2.11999989
   12.72472191  125.08699799    2.01999998    2.11999989
   12.72777748  113.55799866    2.01999998    2.11999989
   12.73111057  126.23100281    2.01999998    2.11999989
   12.73444462  119.75299835    2.00000000    2.11999989
   12.73777771  125.53700256    2.00000000    2.11999989
   12.74083328  127.22899628    2.00000000    2.13000011
   12.74416733  129.45300293    1.98000002    2.11999989
   12.74472237  124.07599640    1.98000002    2.11999989
   12.74777794  122.20600128    1.98000002    2.11999989
   12.75111103  124.20800018    1.98000002    2.13000011
   12.75416660  119.99299622    1.98000002    2.11999989
   12.76027775  119.99299622    1.98000002    2.13000011
   12.76416683  120.16500092    1.98000002    2.11999989
   12.76749992  120.99600220    2.00000000    2.13000011
   12.77083302  123.51699829    1.98000002    2.13000011
   12.77388859  128.95500183    1.98000002    2.13000011
   12.77722168  113.13200378    1.98000002    2.13000011
   12.77805519  116.49900055    1.98000002    2.13000011
   12.78083324  114.00900269    1.98000002    2.13000011
   12.78416729  122.17800140    1.96000004    2.13000011
   12.78722286  133.02400208    1.96000004    2.15000010
   12.79055595  109.92299652    1.98000002    2.15000010
   12.79388905  119.04299927    1.98000002    2.15000010
   12.79694462  118.94699860    2.00000000    2.13000011
   12.80305576  118.94699860    2.01999998    2.17000008
   12.80722237  121.20600128    2.01999998    2.15000010
   12.81027794  121.54100037    2.01999998    2.17000008
   12.81138897  116.05400085    2.01999998    2.15000010
   12.81388950  115.65499878    2.00000000    2.15000010
   12.81722260  127.62799835    2.01999998    2.15000010
   12.82027817  114.97200012    2.01999998    2.17000008
   12.82361126  122.47599792    2.01999998    2.17000008
   12.82694435  131.10499573    2.01999998    2.17000008
   12.82999992  132.09100342    2.01999998    2.15000010
   12.83333302  122.59400177    2.01999998    2.17000008
   12.83638859  126.37100220    2.01999998    2.17000008
   12.83972168  128.51899719    2.01999998    2.17000008
   12.84583282  128.51899719    2.01999998    2.17000008
   12.85000038  124.19100189    2.03999996    2.17000008
   12.85305595  114.67600250    2.03999996    2.17000008
   12.85638905  120.64900208    2.03999996    2.17000008
   12.85972214  125.14800262    2.05999994    2.17000008
   12.86277771  127.05200195    2.05999994    2.17000008
   12.86611176  122.36900330    2.05999994    2.17000008
   12.86944485  129.28399658    2.07999992    2.17000008
   12.87250042  128.55799866    2.05999994    2.19000006
   12.87583351  142.67500305    2.07999992    2.17000008
   12.87805557  127.66699982    2.07999992    2.19000006
   12.87944412  124.59100342    2.07999992    2.19000006
   12.88277817  129.29600525    2.09999990    2.17000008
   12.88861084  129.29600525    2.05999994    2.19000006
   12.89277744  124.72399902    2.07999992    2.19000006
   12.89611053  128.57200623    2.05999994    2.19000006
   12.89944458  118.08100128    2.07999992    2.19000006
   12.90249920  118.04499817    2.07999992    2.21000004
   12.90583324  119.33100128    2.09999990    2.21000004
   12.90888882  119.15499878    2.09999990    2.21000004
   12.91138840  115.36199951    2.11999989    2.21000004
   12.91249943  113.59200287    2.11999989    2.19000006
   12.91583252  126.59500122    2.11999989    2.21000004
   12.91888905  130.24699402    2.09999990    2.19000006
   12.92222214  125.80799866    2.07999992    2.19000006
   12.92555618  133.06700134    2.05999994    2.19000006
   12.93166733  133.06700134    1.98000002    2.21000004
   12.93555546  124.07399750    1.96000004    2.21000004
   12.93888855  127.66400146    1.89999998    2.21000004
   12.94222260  124.20500183    1.88000000    2.21000004
   12.94472218  125.56700134    1.88000000    2.21000004
   12.94583321  127.04599762    1.88000000    2.21000004
   12.94916630  120.90299988    1.88000000    2.19000006
   12.95222187  123.20700073    1.88000000    2.23000002
   12.95555496  126.81500244    1.88000000    2.21000004
   12.95888901  120.60099792    1.88000000    2.21000004
   12.96194458  122.92900085    1.89999998    2.21000004
   12.96527767  121.09899902    1.91999996    2.23000002
   12.96833324  126.48000336    1.94000006    2.21000004
   12.97444439  126.48000336    1.94000006    2.21000004
   12.97861099  128.04699707    2.00000000    2.21000004
   12.98166656  123.58000183    2.01999998    2.21000004
   12.98500061  125.27400208    2.03999996    2.23000002
   12.98833370  129.77600098    2.05999994    2.23000002
   12.99138927  121.87599945    2.05999994    2.21000004
   12.99472237  121.43299866    2.07999992    2.21000004
   12.99777794  118.18199921    2.07999992    2.23000002
   13.00111103  112.64199829    2.07999992    2.23000002
   13.00444412  122.94100189    2.07999992    2.23000002
   13.00749969  122.27700043    2.05999994    2.23000002
   13.01083374  133.20899963    2.07999992    2.23000002
   13.01138878  129.80099487    2.05999994    2.23000002
   13.01722240  129.80099487    2.05999994    2.23000002
   13.02138901  125.14299774    2.05999994    2.25000000
   13.02472210  120.42800140    2.05999994    2.23000002
   13.02777767  128.55400085    2.05999994    2.23000002
   13.03111076  134.92700195    2.03999996    2.23000002
   13.03416729  126.94000244    2.03999996    2.25000000
   13.03750038  118.55000305    2.01999998    2.23000002
   13.04083347  127.08699799    2.01999998    2.25000000
   13.04388905  123.94899750    2.01999998    2.25000000
   13.04472256  121.36699677    2.01999998    2.23000002
   13.04750061  127.58499908    2.01999998    2.25000000
   13.05083370  125.16999817    2.01999998    2.23000002
   13.05388927  130.76600647    2.01999998    2.23000002
   13.06000042  130.76600647    2.00000000    2.25000000
   13.06416702  125.37400055    2.00000000    2.25000000
   13.06750011  128.95799255    1.98000002    2.25000000
   13.07083321  119.08200073    2.00000000    2.26999998
   13.07388878  120.41500092    2.01999998    2.25000000
   13.07722187  128.67100525    2.03999996    2.25000000
   13.07805538  124.90399933    2.05999994    2.25000000
   13.08083344  131.53100586    2.07999992    2.26999998
   13.08416653  121.27200317    2.07999992    2.26999998
   13.08722210  125.06099701    2.09999990    2.26999998
   13.09055519  125.73200226    2.11999989    2.26999998
   13.09388828  128.25000000    2.13000011    2.26999998
   13.09694386  126.34500122    2.15000010    2.28999996
   13.10277843  126.34500122    2.21000004    2.26999998
   13.10694504  123.46900177    2.21000004    2.26999998
   13.11027813  122.56900024    2.21000004    2.26999998
   13.11138916  124.38099670    2.21000004    2.26999998
   13.11388969  121.00499725    2.21000004    2.26999998
   13.11722279  119.55400085    2.21000004    2.28999996
   13.12027836  121.23600006    2.23000002    2.26999998
   13.12361145  121.00399780    2.25000000    2.28999996
   13.12694454  118.18599701    2.25000000    2.26999998
   13.13000011  123.16100311    2.28999996    2.26999998
   13.13333321  120.49099731    2.30999994    2.26999998
   13.13638878  119.29000092    2.32999992    2.28999996
   13.13972187  118.42299652    2.34999990    2.28999996
   13.14583302  118.42299652    2.36999989    2.26999998
   13.14999962  119.83100128    2.36999989    2.28999996
   13.15305519  120.40499878    2.36999989    2.26999998
   13.15638828  119.96499634    2.36999989    2.26999998
   13.15944386  119.60399628    2.34999990    2.26999998
   13.16277695  120.28800201    2.36999989    2.28999996
   13.16611099  124.76200104    2.39000010    2.28999996
   13.16916656  124.07499695    2.40000010    2.28999996
   13.17250061  127.71800232    2.46000004    2.28999996
   13.17583370  124.98799896    2.48000002    2.28999996
   13.17805576  123.94799805    2.48000002    2.28999996
   13.17916679  116.56900024    2.48000002    2.30999994
   13.18249989  118.52400208    2.51999998    2.28999996
   13.18861103  118.52400208    2.64000010    2.28999996
   13.19277763  131.88400269    2.67000008    2.28999996
   13.19583321  117.94999695    2.69000006    2.28999996
   13.19916630  118.27899933    2.69000006    2.28999996
   13.20249939  129.64199829    2.67000008    2.28999996
   13.20555496  125.94699860    2.67000008    2.28999996
   13.20888901  115.47299957    2.66000009    2.28999996
   13.21166611  114.06199646    2.66000009    2.30999994
   13.21249962  112.10600281    2.64000010    2.28999996
   13.21583271  110.39199829    2.64000010    2.30999994
   13.21888828  112.64199829    2.61999989    2.30999994
   13.22222137  125.48000336    2.64000010    2.28999996
   13.22555542  114.83100128    2.66000009    2.30999994
   13.23138809  114.83100128    2.69000006    2.30999994
   13.23555565  123.41200256    2.71000004    2.28999996
   13.23888874  123.19200134    2.75000000    2.30999994
   13.24194431  125.48999786    2.76999998    2.28999996
   13.24499989  118.88600159    2.80999994    2.30999994
   13.24555588  118.03600311    2.80999994    2.30999994
   13.24888897  118.15200043    2.80999994    2.30999994
   13.25194454  118.22499847    2.80999994    2.30999994
   13.25527763  118.58100128    2.84999990    2.30999994
   13.25861073  120.03199768    2.89000010    2.30999994
   13.26166630  126.94200134    2.94000006    2.30999994
   13.26500034  121.25900269    2.98000002    2.30999994
   13.26805496  123.99800110    3.00000000    2.30999994
   13.27444458  123.99800110    3.00000000    2.30999994
   13.27833271  118.08499908    2.96000004    2.30999994
   13.28166676  120.73200226    2.93000007    2.30999994
   13.28500080  118.15799713    2.89000010    2.32999992
   13.28805637  117.01499939    2.84999990    2.32999992
   13.29138947  119.73000336    2.82999992    2.32999992
   13.29472256  115.03099823    2.78999996    2.32999992
   13.29777813  111.50800323    2.75000000    2.32999992
   13.30111122  119.42900085    2.78999996    2.32999992
   13.30416679  113.37100220    2.82999992    2.32999992
   13.30749989  119.06800079    2.84999990    2.32999992
   13.31083393  115.22699738    2.89000010    2.32999992
   13.31166649  117.37200165    2.89000010    2.32999992
   13.33222198  117.37200165    3.23000002    2.32999992
   13.33638859  115.85700226    3.26999998    2.32999992
   13.33972168  121.35500336    3.25000000    2.32999992
   13.34277725  121.00199890    3.23000002    2.32999992
   13.34499931  120.29000092    3.23000002    2.32999992
   13.34638882  119.51000214    3.21000004    2.32999992
   13.34972191  116.21199799    3.20000005    2.32999992
   13.35277843  120.45800018    3.14000010    2.32999992
   13.35611153  119.06199646    3.16000009    2.32999992
   13.35944462  120.52100372    3.18000007    2.32999992
   13.36250019  119.70300293    3.16000009    2.32999992
   13.36583328  114.23699951    3.14000010    2.34999990
   13.36916637  116.32800293    3.14000010    2.34999990
   13.37500000  116.32800293    3.18000007    2.36999989
   13.37916660  120.33100128    3.14000010    2.34999990
   13.38249969  120.42099762    3.09999990    2.34999990
   13.38555527  115.91200256    3.07999992    2.34999990
   13.38888836  116.01599884    3.03999996    2.34999990
   13.39222240  118.74900055    3.01999998    2.36999989
   13.39527798  117.08599854    3.00000000    2.34999990
   13.39861107  112.20200348    2.98000002    2.36999989
   13.40166664  118.98000336    2.98000002    2.34999990
   13.40499973  117.27300262    2.98000002    2.36999989
   13.40833282  113.01399994    2.96000004    2.36999989
   13.41138840  116.98000336    2.94000006    2.34999990
   13.41194439  123.38400269    2.93000007    2.39000010
   13.41777802  123.38400269    2.91000009    2.36999989
   13.42194462  122.57800293    2.91000009    2.36999989
   13.42527771  119.10500336    2.96000004    2.36999989
   13.42833328  119.97100067    3.00000000    2.36999989
   13.43166733  116.13400269    3.05999994    2.36999989
   13.43500042  122.24199677    3.07999992    2.36999989
   13.43805599  116.47000122    3.09999990    2.36999989
   13.44138908  114.33000183    3.09999990    2.36999989
   13.44472218  119.20200348    3.05999994    2.36999989
   13.44527817  122.82599640    3.05999994    2.36999989
   13.44833374  115.87200165    3.01999998    2.39000010
   13.45138836  118.23200226    2.98000002    2.36999989
   13.45472240  117.53299713    2.96000004    2.39000010
   13.46083355  117.53299713    2.94000006    2.39000010
   13.46472168  118.42199707    3.00000000    2.39000010
   13.46805477  120.41200256    3.03999996    2.39000010
   13.47138882  119.82199860    3.07999992    2.39000010
   13.47444439  113.51200104    3.21000004    2.39000010
   13.47777748  116.19599915    3.32999992    2.39000010
   13.47861099  118.08100128    3.34999990    2.39000010
   13.48138809  119.25299835    3.43000007    2.39000010
   13.48444462  118.23000336    3.50000000    2.36999989
   13.48777771  117.88999939    3.57999992    2.39000010
   13.49111176  118.53600311    3.61999989    2.39000010
   13.49416733  120.28900146    3.66000009    2.39000010
   13.49750042  117.37300110    3.72000003    2.39000010
   13.50361156  117.37300110    3.93000007    2.39000010
   13.50777817  122.12599945    4.03999996    2.39000010
   13.51083374  116.67600250    4.11999989    2.39000010
   13.51194477  118.56800079    4.11999989    2.39000010
   13.51444435  122.57499695    4.15999985    2.39000010
   13.51749992  119.40100098    4.19999981    2.36999989
   13.52083302  120.00199890    4.19999981    2.39000010
   13.52416611  122.71299744    4.15999985    2.36999989
   13.52722168  128.65400696    4.15999985    2.39000010
   13.53055573  124.57299805    4.17999983    2.39000010
   13.53388977  123.98300171    4.21999979    2.39000010
   13.53694534  122.19899750    4.23999977    2.39000010
   13.54027843  124.07599640    4.32999992    2.39000010
   13.54638958  124.07599640    4.82999992    2.39000010
   13.55055618  123.11299896    4.90999985    2.39000010
   13.55388927  124.36199951    4.90999985    2.39000010
   13.55694485  127.15200043    4.90999985    2.36999989
   13.56027794  126.11399841    4.90999985    2.36999989
   13.56333351  120.98400116    4.90999985    2.36999989
   13.56666660  126.08799744    4.90999985    2.36999989
   13.56999969  123.63700104    4.90999985    2.39000010
   13.57305527  119.37500000    4.90999985    2.39000010
   13.57638836  122.24400330    4.90999985    2.39000010
   13.57861137  120.41400146    4.90999985    2.39000010
   13.57999992  119.69599915    4.90999985    2.39000010
   13.58305550  125.55300140    4.90999985    2.39000010
   13.58916664  125.55300140    4.90999985    2.39000010
   13.59333324  123.97799683    4.90999985    2.39000010
   13.59666634  122.10900116    4.90999985    2.39000010
   13.59972191  121.29699707    4.90999985    2.39000010
   13.60305595  124.10500336    4.90999985    2.39000010
   13.60638905  123.33300018    4.90999985    2.39000010
   13.60944462  120.36799622    4.90999985    2.39000010
   13.61194515  123.20099640    4.90999985    2.39000010
   13.61305618  125.45300293    4.90999985    2.36999989
   13.61611176  124.32399750    4.90999985    2.36999989
   13.61944485  125.50299835    4.90999985    2.36999989
   13.62277794  124.00599670    4.90999985    2.36999989
   13.62583351  123.23699951    4.90999985    2.36999989
   13.63222218  123.23699951    4.90999985    2.36999989
   13.63611126  120.24400330    4.90999985    2.34999990
   13.63944435  121.24400330    4.90999985    2.34999990
   13.64277744  127.07599640    4.90999985    2.36999989
   13.64527798  124.53700256    4.90999985    2.36999989
   13.64638901  128.06900024    4.90999985    2.36999989
   13.64972210  129.20700073    4.90999985    2.36999989
   13.65277767  120.35900116    4.90999985    2.36999989
   13.65611076  123.61499786    4.90999985    2.36999989
   13.65916634  119.31900024    4.90999985    2.36999989
   13.66249943  114.64900208    4.90999985    2.36999989
   13.66583252  125.41799927    4.90999985    2.36999989
   13.66916656  127.43800354    4.90999985    2.36999989
   13.67500019  127.43800354    4.90999985    2.36999989
   13.67916679  125.83000183    4.90999985    2.34999990
   13.68222237  123.01899719    4.90999985    2.36999989
   13.68555546  125.46299744    4.90999985    2.36999989
   13.68888855  123.94300079    4.90999985    2.34999990
   13.69194412  124.95200348    4.90999985    2.34999990
   13.69527817  127.77500153    4.90999985    2.34999990
   13.69833374  119.48999786    4.90999985    2.34999990
   13.70166683  127.47899628    4.90999985    2.34999990
   13.70499992  131.08000183    4.90999985    2.34999990
   13.70805550  122.78399658    4.90999985    2.36999989
   13.71138859  130.56300354    4.90999985    2.36999989
   13.71194458  129.05799866    4.90999985    2.36999989
   13.71777725  129.05799866    4.90999985    2.34999990
   13.72194386  127.95400238    4.90999985    2.34999990
   13.72527695  130.78700256    4.90999985    2.36999989
   13.72833252  110.16999817    4.90999985    2.34999990
   13.73166656  119.02500153    4.90999985    2.36999989
   13.73472214  116.60600281    4.90999985    2.34999990
   13.73805618  113.81800079    4.90999985    2.36999989
   13.74138927  119.36199951    4.90999985    2.39000010
   13.74444485  119.32099915    4.90999985    2.36999989
   13.74527836  118.40299988    4.90999985    2.36999989
   13.74805546  117.41300201    4.90999985    2.39000010
   13.75138855  114.31700134    4.90999985    2.39000010
   13.75444412  119.31700134    4.90999985    2.39000010
   13.76055527  119.31700134    4.90999985    2.39000010
   13.76472187  114.19799805    4.90999985    2.36999989
   13.76805496  112.30999756    4.90999985    2.36999989
   13.77111053  116.74500275    4.90999985    2.39000010
   13.77444458  118.36599731    4.90999985    2.39000010
   13.77777767  119.86000061    4.90999985    2.39000010
   13.77861118  122.47399902    4.90999985    2.39000010
   13.78138828  118.74199677    4.90999985    2.39000010
   13.78472233  123.48899841    4.90999985    2.39000010
   13.78777790  124.09899902    4.90999985    2.39000010
   13.79111195  118.58000183    4.90999985    2.39000010
   13.79416752  125.59999847    4.90999985    2.36999989
   13.79750061  119.45300293    4.90999985    2.34999990
   13.80361176  119.45300293    4.90999985    2.36999989
   13.80749989  113.65699768    4.90999985    2.39000010
   13.81083393  117.55799866    4.90999985    2.36999989
   13.81194496  118.38500214    4.90999985    2.34999990
   13.81444454  118.24700165    4.90999985    2.36999989
   13.81777763  119.43099976    4.90999985    2.36999989
   13.82083321  120.68499756    4.90999985    2.36999989
   13.82416630  118.63700104    4.90999985    2.39000010
   13.82750034  122.13300323    4.90999985    2.34999990
   13.83055592  121.01200104    4.90999985    2.34999990
   13.83388901  117.64900208    4.90999985    2.34999990
   13.83694458  111.78199768    4.90999985    2.34999990
   13.84027767  117.58100128    4.90999985    2.36999989
   13.84638882  117.58100128    4.90999985    2.32999992
   13.85055637  124.99900055    4.90999985    2.30999994
   13.85361195  123.47000122    4.90999985    2.32999992
   13.85694504  120.47200012    4.90999985    2.32999992
   13.86027813  115.75700378    4.90999985    2.34999990
   13.86333370  115.55599976    4.90999985    2.39000010
   13.86666679  119.68199921    4.90999985    2.39000010
   13.86972237  117.08300018    4.90999985    2.34999990
   13.87305546  121.44300079    4.90999985    2.34999990
   13.87638855  127.96800232    4.90999985    2.34999990
   13.87861156  123.67099762    4.90999985    2.32999992
   13.88000011  127.32599640    4.90999985    2.32999992
   13.88333321  120.40299988    4.90999985    2.32999992
   13.88916683  120.40299988    4.90999985    2.36999989
   13.89333344  117.54199982    4.90999985    2.40000010
   13.89666653  124.44899750    4.90999985    2.40000010
   13.89972210  122.65200043    4.90999985    2.40000010
   13.90305519  125.57700348    4.90999985    2.40000010
   13.90611076  106.91500092    4.90999985    2.42000008
   13.90944386  116.91300201    4.90999985    2.40000010
   13.91194439  117.25099945    4.90999985    2.42000008
   13.91305542  118.91899872    4.90999985    2.40000010
   13.91638851  121.99099731    4.90999985    2.39000010
   13.91944504  127.13500214    4.90999985    2.36999989
   13.92277813  116.76899719    4.90999985    2.42000008
   13.92583370  114.92800140    4.90999985    2.44000006
   13.93194485  114.92800140    4.90999985    2.36999989
   13.93611145  118.91000366    4.90999985    2.34999990
   13.93944454  124.75299835    4.90999985    2.39000010
   13.94250011  125.39499664    4.90999985    2.40000010
   13.94527817  120.40699768    4.90999985    2.40000010
   13.94611073  115.58699799    4.90999985    2.40000010
   13.94944477  112.60199738    4.90999985    2.44000006
   13.95249939  118.51399994    4.90999985    2.44000006
   13.95583344  124.56900024    4.90999985    2.40000010
   13.95888901  119.19499969    4.90999985    2.39000010
   13.96222210  121.98100281    4.90999985    2.40000010
   13.96555519  125.07099915    4.90999985    2.42000008
   13.96861076  122.47499847    4.90999985    2.46000004
   13.97499943  122.47499847    4.90999985    2.40000010
   13.97888851  123.49800110    4.90999985    2.44000006
   13.98222160  116.22499847    4.84999990    2.46000004
   13.98555565  119.81999969    4.90999985    2.46000004
   13.98861122  120.54100037    4.90999985    2.44000006
   13.99194431  120.88600159    4.90999985    2.42000008
   13.99499989  111.24299622    4.90999985    2.42000008
   13.99833393  119.48500061    4.90999985    2.44000006
   14.00166702  121.08599854    4.90999985    2.44000006
   14.00472260  113.35800171    4.90999985    2.46000004
   14.00805569  113.76100159    4.90999985    2.44000006
   14.01138878  119.88200378    4.90999985    2.46000004
   14.01194477  110.16200256    4.90999985    2.44000006
   14.01777744  110.16200256    4.90999985    2.42000008
   14.02194405  117.73100281    4.90999985    2.44000006
   14.02499962  115.72799683    4.90999985    2.46000004
   14.02833271  122.04799652    4.90999985    2.46000004
   14.03138828  112.98500061    4.90999985    2.44000006
   14.03472233  112.82599640    4.90999985    2.42000008
   14.03805637  113.06900024    4.90999985    2.42000008
   14.04111195  110.39199829    4.90999985    2.44000006
   14.04444504  114.58599854    4.90999985    2.44000006
   14.04527855  116.42900085    4.90999985    2.46000004
   14.04805565  124.49500275    4.90999985    2.44000006
   14.05138874  124.44599915    4.90999985    2.44000006
   14.05444431  115.68900299    4.90999985    2.44000006
   14.06055546  115.68900299    4.90999985    2.46000004
   14.06472206  112.52700043    4.48999977    2.46000004
   14.06777763  118.32900238    4.90999985    2.46000004
   14.07111073  113.74400330    4.03999996    2.48000002
   14.07444477  119.17700195    3.73000002    2.48000002
   14.07750034  109.49099731    4.19999981    2.48000002
   14.07861137  113.23000336    4.34999990    2.46000004
   14.08111095  113.44999695    4.05999994    2.48000002
   14.08444405  111.98100281    4.53000021    2.48000002
   14.08749962  122.06400299    4.82999992    2.48000002
   14.09083271  110.51300049    4.90999985    2.48000002
   14.09416676  105.72499847    4.90999985    2.44000006
   14.09722233  108.40499878    4.90999985    2.44000006
   14.10333347  108.40499878    4.90999985    2.46000004
   14.10750008  121.06300354    4.90999985    2.46000004
   14.11083412  121.23100281    4.90999985    2.44000006
   14.11194515  115.32199860    4.90999985    2.46000004
   14.11444473  112.45600128    4.90999985    2.44000006
   14.11777782  111.44599915    4.90999985    2.44000006
   14.12083340  117.66799927    4.90999985    2.44000006
   14.12416649  119.65200043    4.90999985    2.44000006
   14.12750053  120.45700073    4.90999985    2.42000008
   14.13055611  112.69799805    4.90999985    2.44000006
   14.13388920  119.50599670    4.90999985    2.39000010
   14.13694477  111.91300201    4.90999985    2.46000004
   14.14027786  110.34999847    4.90999985    2.46000004
   14.14638901  110.34999847    4.90999985    2.46000004
   14.15027714  117.50599670    4.90999985    2.46000004
   14.15361118  116.20800018    4.90999985    2.46000004
   14.15694427  109.08200073    4.90999985    2.46000004
   14.15999985  110.26200104    4.90999985    2.46000004
   14.16333294  117.48600006    4.90999985    2.46000004
   14.16666698  116.73799896    4.90999985    2.46000004
   14.16972256  110.52300262    4.90999985    2.44000006
   14.17305565  111.94000244    4.90999985    2.44000006
   14.17638874  109.80300140    4.90999985    2.48000002
   14.17861176  115.43000031    4.90999985    2.46000004
   14.17972279  111.67600250    4.90999985    2.44000006
   14.18305588  118.52500153    4.90999985    2.40000010
   14.18916702  118.52500153    4.90999985    2.39000010
   14.19333363  115.70600128    4.90999985    2.40000010
   14.19638920  116.52600098    4.90999985    2.42000008
   14.19972229  118.87100220    4.90999985    2.46000004
   14.20277786  120.52200317    4.90999985    2.46000004
   14.20611095  118.33999634    4.90999985    2.46000004
   14.20944405  114.63600159    4.90999985    2.46000004
   14.21194458  119.37100220    4.90999985    2.46000004
   14.21305561  116.32299805    4.90999985    2.48000002
   14.21638870  110.52700043    4.90999985    2.48000002
   14.21944427  118.95200348    4.90999985    2.48000002
   14.22277737  116.68800354    4.90999985    2.48000002
   14.22611046  118.28399658    4.90999985    2.48000002
   14.23194408  118.28399658    4.90999985    2.50000000
   14.23611164  111.46900177    4.90999985    2.50000000
   14.23944473  117.66200256    4.90999985    2.48000002
   14.24250031  118.36499786    4.90999985    2.50000000
   14.24527836  113.37599945    4.90999985    2.50000000
   14.24611092  121.16300201    4.90999985    2.50000000
   14.24944496  114.45500183    4.90999985    2.48000002
   14.25249958  111.64700317    4.90999985    2.48000002
   14.25583363  116.16999817    4.90999985    2.48000002
   14.25916672  118.55300140    4.90999985    2.46000004
   14.26222229  114.03700256    4.90999985    2.48000002
   14.26555538  113.71900177    4.90999985    2.48000002
   14.26888847  111.36599731    4.90999985    2.48000002
   14.27472210  111.36599731    4.90999985    2.48000002
   14.27888870  111.83799744    4.90999985    2.48000002
   14.28222179  114.51300049    4.90999985    2.46000004
   14.28527832  115.43299866    4.90999985    2.46000004
   14.28861141  117.04199982    4.90999985    2.42000008
   14.29194450  116.43599701    4.90999985    2.42000008
   14.29500008  115.21800232    4.90999985    2.44000006
   14.29833412  111.75800323    4.90999985    2.46000004
   14.30138874  112.31400299    4.90999985    2.48000002
   14.30472279  106.46900177    4.90999985    2.48000002
   14.30805588  109.30200195    4.90999985    2.50000000
   14.31111145  111.96700287    4.90999985    2.48000002
   14.31222248  108.87999725    4.90999985    2.48000002
   14.31750011  108.87999725    4.90999985    2.48000002
   14.32166672  114.91799927    4.90999985    2.46000004
   14.32499981  115.43599701    4.90999985    2.50000000
   14.32833290  117.44300079    4.90999985    2.50000000
   14.34583282  108.61499786    4.90999985    2.48000002
   14.34833336  109.44499969    4.90999985    2.48000002
   14.35138893  113.73999786    4.90999985    2.48000002
   14.35472298  116.15799713    4.90999985    2.48000002
   14.36055565  116.15799713    4.90999985    2.48000002
   14.36472225  112.11799622    4.90999985    2.48000002
   14.36805534  115.28199768    4.90999985    2.50000000
   14.37111092  110.48300171    4.90999985    2.51999998
   14.37444496  107.44000244    4.90999985    2.51999998
   14.37777805  109.18399811    4.90999985    2.51999998
   14.37916660  116.49800110    4.90999985    2.51999998
   14.38111115  122.70200348    4.90999985    2.50000000
   14.38444424  123.38400269    4.90999985    2.51999998
   14.38749981  126.01300049    4.61999989    2.51999998
   14.39083290  134.08099365    3.97000003    2.51999998
   14.39416695  130.75799561    4.09999990    2.51999998
   14.39722252  134.14500427    4.69999981    2.51999998
   14.40361118  134.14500427    4.26000023    2.51999998
   14.40749931  128.02000427    3.50000000    2.53999996
   14.41083336  130.13600159    3.16000009    2.53999996
   14.41249943  126.54599762    3.11999989    2.53999996
   14.41444397  129.70399475    3.20000005    2.53999996
   14.41777802  133.52600098    3.84999990    2.51999998
   14.42111111  119.57099915    3.80999994    2.51999998
   14.42416668  129.26499939    3.89000010    2.53999996
   14.42750072  149.72599792    4.90999985    2.51999998
   14.43083382  115.99600220    4.90999985    2.50000000
   14.43388939  118.76100159    4.32999992    2.53999996
   14.43722248  125.43099976    3.61999989    2.51999998
   14.44055557  119.23999786    3.84999990    2.53999996
   14.44638920  119.23999786    4.76000023    2.51999998
   14.45055580  111.52500153    4.09999990    2.51999998
   14.45361137  116.08599854    4.90999985    2.50000000
   14.45694447  113.07700348    4.90999985    2.46000004
   14.46000004  112.74600220    4.90999985    2.46000004
   14.46333313  116.69699860    4.90999985    2.46000004
   14.46666622  119.34500122    4.90999985    2.46000004
   14.46972179  118.37699890    4.90999985    2.42000008
   14.47305489  127.11199951    4.90999985    2.39000010
   14.47638798  114.54100037    4.90999985    2.40000010
   14.47916603  112.00199890    4.90999985    2.51999998
   14.47972202  116.19200134    4.90999985    2.51999998
   14.48305511  113.80699921    4.90999985    2.44000006
   14.48916721  113.80699921    4.90999985    2.44000006
   14.49333382  114.22200012    4.90999985    2.46000004
   14.49638939  119.06600189    4.90999985    2.48000002
   14.49972248  103.63899994    4.90999985    2.48000002
   14.50305557  115.27500153    4.90999985    2.48000002
   14.50611115  112.32199860    4.90999985    2.50000000
   14.50944424  112.40699768    4.90999985    2.48000002
   14.51249981  115.16699982    4.90999985    2.46000004
   14.51305580  110.50399780    4.90999985    2.46000004
   14.51638889  112.77400208    4.90999985    2.46000004
   14.51944447  116.63500214    4.90999985    2.51999998
   14.52277756  113.41400146    4.90999985    2.51999998
   14.52611065  110.61399841    4.84999990    2.51999998
   14.53194427  110.61399841    4.90999985    2.53999996
   14.53611183  116.30400085    4.90999985    2.50000000
   14.53944492  105.72399902    4.90999985    2.50000000
   14.54250050  111.56700134    4.90999985    2.50000000
   14.54583359  112.89199829    4.90999985    2.50000000
   14.54611111  111.66699982    4.90999985    2.50000000
   14.54944515  104.53199768    4.90999985    2.51999998
   14.55249977  112.45999908    4.90999985    2.51999998
   14.55583382  107.88400269    4.90999985    2.50000000
   14.55916691  113.41799927    4.90999985    2.51999998
   14.56222248  113.51200104    4.90999985    2.48000002
   14.56555557  115.62599945    4.90999985    2.46000004
   14.56888866  115.37999725    4.90999985    2.40000010
   14.57472229  115.37999725    4.90999985    2.46000004
   14.57888889  117.30200195    4.90999985    2.42000008
   14.57944393  119.22799683    4.90999985    2.46000004
   14.58277798  111.11000061    4.90999985    2.50000000
   14.58583260  115.82399750    4.90999985    2.48000002
   14.58916664  118.62300110    4.90999985    2.46000004
   14.59249973  116.33799744    4.90999985    2.48000002
   14.59555531  117.63200378    4.90999985    2.42000008
   14.59888840  116.23200226    4.90999985    2.46000004
   14.60222244  115.90699768    4.90999985    2.46000004
   14.60527802  116.75000000    4.90999985    2.40000010
   14.60861111  128.53999329    4.90999985    2.44000006
   14.61194515  115.25599670    4.90999985    2.46000004
   14.61277771  133.51199341    4.90999985    2.44000006
   14.61777782  133.51199341    4.90999985    2.46000004
   14.62194443  119.47200012    3.89000010    2.55999994
   14.62500000  120.99600220    3.91000009    2.55999994
   14.62833309  121.11100006    4.30999994    2.55999994
   14.63138866  108.68499756    4.90999985    2.51999998
   14.63472176  114.55500031    4.90999985    2.51999998
   14.63805580  113.61699677    4.90999985    2.50000000
   14.64111137  113.72899628    4.90999985    2.51999998
   14.64444447  106.18900299    4.90999985    2.51999998
   14.64611053  109.66699982    4.90999985    2.51999998
   14.64805508  116.79299927    4.90999985    2.51999998
   14.65111065  112.85500336    4.90999985    2.53999996
   14.65444374  110.27500153    4.90999985    2.53999996
   14.66055489  110.27500153    4.90999985    2.53999996
   14.66472149  116.62999725    4.90999985    2.53999996
   14.66777802  111.98799896    4.90999985    2.53999996
   14.67111111  119.93800354    4.90999985    2.53999996
   14.67444515  121.77100372    4.90999985    2.51999998
   14.67750072  121.56500244    4.90999985    2.53999996
   14.67944431  114.55599976    4.90999985    2.53999996
   14.68111134  113.10299683    4.90999985    2.53999996
   14.68416691  113.46499634    4.90999985    2.53999996
   14.68750000  120.91999817    4.09999990    2.55999994
   14.69083309  122.92900085    3.36999989    2.55999994
   14.69388866  119.90799713    4.42999983    2.55999994
   14.69722271  121.44000244    4.90999985    2.53999996
   14.70333290  121.44000244    4.90999985    2.50000000
   14.70749950  120.82199860    4.90999985    2.48000002
   14.71083355  115.31600189    4.90999985    2.51999998
   14.71277714  117.00599670    4.90999985    2.53999996
   14.71444416  114.64900208    4.90999985    2.53999996
   14.71749973  115.67400360    4.90999985    2.53999996
   14.72083282  123.37799835    4.90999985    2.50000000
   14.72416592  121.36100006    4.90999985    2.50000000
   14.72722149  116.12400055    4.90999985    2.48000002
   14.73055553  118.63899994    4.90999985    2.44000006
   14.73388958  118.32399750    4.90999985    2.51999998
   14.73694515  120.32700348    4.90999985    2.51999998
   14.74027824  117.45700073    4.90999985    2.51999998
   14.74611092  117.45700073    4.90999985    2.50000000
   14.75027752  119.05500031    4.90999985    2.51999998
   14.75361156  117.64499664    4.90999985    2.46000004
   14.75694466  116.99299622    4.90999985    2.48000002
   14.76000023  115.80699921    4.90999985    2.53999996
   14.76333332  122.20899963    4.73999977    2.53999996
   14.76666641  118.31600189    3.97000003    2.55999994
   14.76972198  118.62200165    4.61999989    2.53999996
   14.77305508  111.92800140    4.01999998    2.55999994
   14.77611065  114.35900116    4.36999989    2.53999996
   14.77944374  124.13500214    3.70000005    2.55999994
   14.77999973  129.01800537    3.45000005    2.55999994
   14.78305531  113.29900360    3.66000009    2.55999994
   14.78916740  113.29900360    3.41000009    2.55999994
   14.79333401  115.02100372    2.96000004    2.55999994
   14.79638958  118.36100006    2.80999994    2.57999992
   14.79972267  127.63099670    2.93000007    2.55999994
   14.80277824  118.95700073    2.82999992    2.55999994
   14.80611134  116.28900146    2.76999998    2.55999994
   14.80944443  114.04399872    2.91000009    2.57999992
   14.81250000  120.88500214    4.90999985    2.50000000
   14.81305599  123.65599823    4.90999985    2.50000000
   14.81638908  123.54499817    4.90999985    2.50000000
   14.81944466  125.17299652    4.90999985    2.51999998
   14.82277775  112.88999939    4.90999985    2.53999996
   14.82611084  116.49099731    3.45000005    2.55999994
   14.83194447  116.49099731    4.90999985    2.51999998
   14.83611107  121.90399933    4.90999985    2.51999998
   14.83916664  120.79299927    4.90999985    2.53999996
   14.84249973  117.31999969    4.90999985    2.53999996
   14.84583282  113.00000000    4.90999985    2.53999996
   14.84638882  109.88899994    4.90999985    2.51999998
   14.84944439  112.88899994    4.42999983    2.55999994
   14.85277843  116.65299988    3.39000010    2.57999992
   14.85583401  109.99900055    3.05999994    2.57999992
   14.85916710  108.85399628    3.18000007    2.55999994
   14.86222267  114.48799896    3.25000000    2.57999992
   14.86555576  116.18499756    3.70000005    2.55999994
   14.86888885  118.32599640    4.67999983    2.55999994
   14.87472248  118.32599640    4.90999985    2.53999996
   14.87888908  113.73799896    4.26999998    2.55999994
   14.87972260  117.64900208    4.07999992    2.55999994
   14.88249969  120.38899994    3.89000010    2.55999994
   14.88555527  116.69100189    4.48999977    2.53999996
   14.88888836  122.27300262    3.97000003    2.55999994
   14.89222240  121.54299927    3.75000000    2.55999994
   14.89527798  122.43599701    4.13999987    2.55999994
   14.89861107  120.55000305    4.73999977    2.55999994
   14.90194416  115.99099731    4.73999977    2.55999994
   14.90499973  117.24800110    4.90999985    2.53999996
   14.90833282  120.79199982    4.90999985    2.53999996
   14.91138840  124.32499695    4.90999985    2.53999996
   14.91305542  121.24199677    4.90999985    2.53999996
   14.91750050  121.24199677    4.90999985    2.51999998
   14.92166710  113.00900269    4.90999985    2.51999998
   14.92500019  117.14299774    4.90999985    2.53999996
   14.92833328  111.66799927    4.90999985    2.53999996
   14.93138885  116.85299683    4.90999985    2.53999996
   14.93472195  118.71900177    4.80999994    2.55999994
   14.93805599  115.99800110    4.73999977    2.55999994
   14.94111156  117.77100372    4.90999985    2.53999996
   14.94444466  123.18900299    4.90999985    2.51999998
   14.94638920  118.67099762    4.90999985    2.53999996
   14.94805527  112.81999969    4.90999985    2.53999996
   14.95111084  119.21800232    4.90999985    2.53999996
   14.95444393  117.88999939    4.90999985    2.51999998
   14.96055508  117.88999939    4.90999985    2.55999994
   14.96472168  124.65599823    4.90999985    2.53999996
   14.96777725  130.85099792    4.90999985    2.51999998
   14.97111034  121.99099731    4.90999985    2.50000000
   14.97416592  123.81700134    4.90999985    2.44000006
   14.97749996  123.25099945    4.90999985    2.48000002
   14.97972202  116.88999939    4.90999985    2.46000004
   14.98111057  117.67199707    4.90999985    2.44000006
   14.98416710  120.05100250    4.90999985    2.46000004
   14.98750019  127.36399841    4.90999985    2.51999998
   14.99083328  127.31600189    4.90999985    2.51999998
   14.99388885  126.54900360    4.90999985    2.44000006
   14.99722290  129.55700684    4.90999985    2.48000002
   15.00333309  129.55700684    4.90999985    2.42000008
   15.00749969  117.96099854    4.90999985    2.50000000
   15.01055527  126.57099915    4.90999985    2.48000002
   15.01305580  124.66300201    4.90999985    2.44000006
   15.01444435  123.83399963    4.90999985    2.34999990
   15.01749992  117.68299866    4.90999985    2.46000004
   15.02083302  116.85500336    4.90999985    2.51999998
   15.02416611  117.90499878    4.90999985    2.46000004
   15.02722168  113.97799683    4.90999985    2.53999996
   15.03055573  126.29599762    4.90999985    2.50000000
   15.03388977  135.53300476    4.90999985    2.36999989
   15.03694534  129.54299927    4.90999985    2.30999994
   15.04027843  125.52300262    4.90999985    2.36999989
   15.04611111  125.52300262    4.90999985    2.53999996
   15.05027771  116.35199738    4.90999985    2.55999994
   15.05361176  115.45899963    4.90999985    2.53999996
   15.05666733  116.94799805    4.90999985    2.48000002
   15.06000042  116.86900330    4.90999985    2.50000000
   15.06333351  122.93900299    4.90999985    2.51999998
   15.06638908  120.72699738    4.90999985    2.48000002
   15.06972218  112.14700317    4.05999994    2.55999994
   15.07277775  116.60399628    4.76000023    2.55999994
   15.07611084  111.55599976    4.90999985    2.51999998
   15.07944393  131.15800476    4.90999985    2.39000010
   15.08111095  144.92999268    4.90999985    2.34999990
   15.08305550  150.12300110    4.90999985    2.23000002
   15.08888817  150.12300110    4.90999985    2.40000010
   15.09305477  124.29399872    4.90999985    2.40000010
   15.09638882  129.71200562    4.90999985    2.40000010
   15.09972191  119.34300232    4.90999985    2.46000004
   15.10277843  121.71499634    4.90999985    2.46000004
   15.10611153  121.71399689    4.90999985    2.48000002
   15.10944462  114.96399689    4.90999985    2.44000006
   15.11250019  121.55599976    4.90999985    2.42000008
   15.11444473  122.26200104    4.90999985    2.44000006
   15.11611176  116.48799896    4.90999985    2.42000008
   15.11944485  110.49500275    4.90999985    2.50000000
   15.12250042  112.68800354    4.90999985    2.51999998
   15.12583351  109.03900146    4.90999985    2.51999998
   15.13194466  109.03900146    4.90999985    2.55999994
   15.13611126  116.23600006    4.90999985    2.55999994
   15.13916683  125.46900177    4.90999985    2.51999998
   15.14249992  118.03600311    4.90999985    2.48000002
   15.14555550  126.64399719    4.90999985    2.48000002
   15.14805508  125.31300354    4.90999985    2.39000010
   15.14944458  121.91200256    4.90999985    2.39000010
   15.15249920  130.97200012    4.90999985    2.34999990
   15.15583324  129.75500488    4.90999985    2.26999998
   15.15888882  136.97200012    4.90999985    2.30999994
   15.16222191  118.74199677    4.90999985    2.36999989
   15.16555500  123.33899689    4.90999985    2.42000008
   15.16861153  119.14900208    4.90999985    2.44000006
   15.17472267  119.14900208    4.90999985    2.36999989
   15.17888927  122.58699799    4.90999985    2.36999989
   15.18138885  123.25599670    4.90999985    2.39000010
   15.18249989  121.17199707    4.90999985    2.44000006
   15.18555546  121.34799957    4.90999985    2.44000006
   15.18888855  117.89299774    4.90999985    2.42000008
   15.19194412  124.77899933    4.90999985    2.46000004
   15.19527817  110.50199890    4.90999985    2.46000004
   15.19861126  113.54699707    4.90999985    2.53999996
   15.20166683  113.99700165    4.90999985    2.53999996
   15.20499992  114.77600098    4.90999985    2.46000004
   15.20833302  111.50700378    4.90999985    2.51999998
   15.21138859  120.00299835    4.90999985    2.53999996
   15.21749973  120.00299835    4.90999985    2.55999994
   15.22166634  115.98200226    4.90999985    2.53999996
   15.22499943  116.82399750    4.90999985    2.51999998
   15.22805500  118.20700073    4.90999985    2.48000002
   15.23138809  115.30500031    4.90999985    2.51999998
   15.23472214  117.11900330    4.90999985    2.51999998
   15.23777771  116.51100159    4.90999985    2.48000002
   15.24111176  115.89199829    4.90999985    2.48000002
   15.24416733  121.91400146    4.90999985    2.46000004
   15.24750042  118.23999786    4.90999985    2.51999998
   15.24833393  116.03500366    4.90999985    2.50000000
   15.25111103  115.71900177    4.90999985    2.51999998
   15.25444412  112.18000031    4.90999985    2.53999996
   15.26027775  112.18000031    4.90999985    2.57999992
   15.26444435  113.99099731    4.90999985    2.55999994
   15.26777744  111.64700317    4.90999985    2.55999994
   15.27111053  115.60299683    4.90999985    2.55999994
   15.27444458  119.11900330    4.90999985    2.51999998
   15.27750015  113.15799713    4.90999985    2.48000002
   15.28083324  122.80999756    4.90999985    2.50000000
   15.28166676  119.97200012    4.90999985    2.51999998
   15.28444481  121.85800171    4.90999985    2.44000006
   15.28777790  132.79699707    4.90999985    2.44000006
   15.29083347  133.91400146    4.90999985    2.28999996
   15.29416752  138.08099365    4.90999985    2.28999996
   15.29750061  143.25500488    4.90999985    2.32999992
   15.30333328  143.25500488    4.90999985    2.23000002
   15.30749989  117.51399994    4.90999985    2.32999992
   15.31055546  107.27799988    4.90999985    2.46000004
   15.31388950  123.73999786    4.90999985    2.42000008
   15.31527805  118.63600159    4.90999985    2.40000010
   15.31750011  124.73200226    4.90999985    2.40000010
   15.32083321  130.44299316    4.90999985    2.34999990
   15.32388878  133.19999695    4.90999985    2.39000010
   15.32722187  131.55900574    4.90999985    2.32999992
   15.33027744  135.69700623    4.90999985    2.30999994
   15.33361053  134.71200562    4.90999985    2.32999992
   15.33694458  126.12599945    4.90999985    2.28999996
   15.34000015  122.68199921    4.90999985    2.28999996
   15.34611034  122.68199921    4.90999985    2.36999989
   15.36444473  281.28698730    4.90999985    1.96000004
   15.36777782  297.12899780    4.90999985    1.76999998
   15.37083340  207.37800598    4.90999985    1.88000000
   15.37416649  154.83700562    4.90999985    2.11999989
   15.37750053  150.73399353    4.90999985    2.13000011
   15.38055611  165.38400269    4.90999985    2.19000006
   15.38388920  184.32000732    4.90999985    2.07999992
   15.38916683  184.32000732    4.90999985    1.94000006
   15.39333344  199.17999268    4.90999985    2.00000000
   15.39638901  128.53100586    4.90999985    2.19000006
   15.39750004  132.52699280    4.90999985    2.30999994
   15.40027714  127.68800354    4.90999985    2.42000008
   15.40333271  119.69599915    4.90999985    2.42000008
   15.40666676  120.48600006    4.90999985    2.59999990
   15.40972137  117.56500244    4.90999985    2.57999992
   15.41305542  116.42099762    4.90999985    2.55999994
   15.41638851  124.90599823    4.90999985    2.53999996
   15.41944504  120.99400330    4.90999985    2.48000002
   15.42277813  118.36699677    4.90999985    2.51999998
   15.42583370  113.92400360    4.90999985    2.51999998
   15.43194485  113.92400360    4.90999985    2.55999994
   15.43611145  111.09799957    2.93000007    2.59999990
   15.43944454  114.29100037    1.89999998    2.61999989
   15.44250011  115.05599976    1.75000000    2.61999989
   15.44583321  113.40899658    1.76999998    2.59999990
   15.44916630  120.02100372    2.13000011    2.59999990
   15.45222187  113.69300079    2.67000008    2.59999990
   15.45555496  114.02600098    4.26999998    2.55999994
   15.45861053  117.23400116    4.26999998    2.57999992
   15.46194458  118.49400330    3.82999992    2.57999992
   15.46416664  114.13099670    3.93000007    2.57999992
   15.46555519  113.79000092    4.05999994    2.57999992
   15.46861076  114.51000214    3.80999994    2.59999990
   15.47472191  114.51000214    3.00000000    2.59999990
   15.47888851  112.47399902    2.91000009    2.59999990
   15.48222160  115.58499908    1.66999996    2.61999989
   15.48527813  105.37300110    1.88000000    2.59999990
   15.48861122  109.63200378    1.80999994    2.61999989
   15.49194431  112.92800140    1.63000000    2.61999989
   15.49499989  118.89700317    1.63000000    2.61999989
   15.49750042  114.88600159    1.75000000    2.61999989
   15.49888897  116.18800354    1.75000000    2.61999989
   15.50194454  113.77600098    3.05999994    2.59999990
   15.50527763  111.56099701    4.90999985    2.55999994
   15.50861073  111.62000275    4.90999985    2.53999996
   15.51166630  110.90899658    4.90999985    2.55999994
   15.51777744  110.90899658    4.90999985    2.55999994
   15.52194405  110.90399933    3.46000004    2.59999990
   15.52499962  117.01799774    2.69000006    2.61999989
   15.52833271  112.09799957    1.96000004    2.59999990
   15.53083324  112.68800354    1.75000000    2.59999990
   15.53194427  116.94000244    1.78999996    2.61999989
   15.53527832  117.46800232    1.39999998    2.61999989
   15.53833389  113.71700287    1.53999996    2.59999990
   15.54166698  117.28399658    1.38000000    2.59999990
   15.54472256  116.89800262    1.25000000    2.61999989
   15.54805565  114.30100250    1.33000004    2.61999989
   15.55166721  111.31700134    1.28999996    2.61999989
   15.55472279  115.33000183    1.63000000    2.61999989
   15.56055546  115.33000183    2.05999994    2.61999989
   15.56472206  118.76000214    2.05999994    2.61999989
   15.56777763  114.58899689    2.21000004    2.59999990
   15.66416645   -1.00000000   -1.00000000   -1.00000000
   15.76638889   -1.00000000   -1.00000000   -1.00000000
   15.89555550   -1.00000000   -1.00000000   -1.00000000
   15.96361065   70.19439697    4.90999985    2.57999992
   15.96666622  116.01499939    4.90999985    2.57999992
   15.96999931  119.32499695    4.90999985    2.57999992
   15.97333336  115.22000122    4.90999985    2.55999994
   15.97638798  118.99800110    4.90999985    2.55999994
   15.97972202  115.34300232    4.90999985    2.55999994
   15.98388958  115.34300232    4.90999985    2.55999994
   15.98805618  116.18900299    4.90999985    2.55999994
   15.99111176  116.37599945    4.90999985    2.55999994
   15.99444485  121.75299835    4.90999985    2.55999994
   15.99694443  114.07599640    4.90999985    2.53999996
   15.99777794  111.44300079    4.90999985    2.55999994
   16.00111198  114.98999786    4.90999985    2.57999992
   16.00444412  114.79000092    4.90999985    2.59999990
   16.00749969  111.95600128    4.80999994    2.59999990
   16.01083374  114.69000244    4.90999985    2.57999992
   16.01416588  115.34600067    4.90999985    2.57999992
   16.01722145  113.37400055    4.90999985    2.57999992
   16.02055550  116.68699646    4.90999985    2.57999992
   16.02666664  116.68699646    4.90999985    2.57999992
   16.03083229  115.15399933    4.90999985    2.55999994
   16.03416634  114.97599792    4.90999985    2.57999992
   16.03722191  115.34600067    4.84999990    2.59999990
   16.04055595  110.42800140    4.40999985    2.59999990
   16.04361153  109.37699890    4.13999987    2.59999990
   16.04694366  110.48899841    3.32999992    2.59999990
   16.05027771  111.18099976    3.01999998    2.61999989
   16.05333328  108.99700165    3.16000009    2.61999989
   16.05666542  108.84200287    3.48000002    2.59999990
   16.05999947  109.74700165    3.89000010    2.61999989
   16.06305504  107.27400208    4.36999989    2.59999990
   16.06361008  108.81199646    4.36999989    2.59999990
   16.06944466  108.81199646    4.48999977    2.59999990
   16.07361221  113.42500305    3.64000010    2.61999989
   16.07694626  112.35600281    3.72000003    2.61999989
   16.08000183  113.73899841    4.01999998    2.59999990
   16.08333397  110.81400299    3.82999992    2.59999990
   16.08666801  114.45600128    3.82999992    2.59999990
   16.08972359  115.11100006    3.82999992    2.61999989
   16.09305573  113.11799622    3.89000010    2.59999990
   16.09611130  127.00800323    4.90999985    2.57999992
   16.09694481  110.78700256    4.90999985    2.57999992
   16.10000038  111.96900177    4.90999985    2.59999990
   16.10305595  110.36100006    4.90999985    2.59999990
   16.10639000  106.84799957    4.90999985    2.57999992
   16.11250114  106.84799957    4.90999985    2.57999992
   16.11638832  108.77899933    4.90999985    2.57999992
   16.11972237  109.65200043    4.71999979    2.59999990
   16.12305641  111.93499756    4.03999996    2.59999990
   16.12611198  106.70099640    4.13999987    2.59999990
   16.12944412  106.74800110    4.11999989    2.59999990
   16.13027763  108.33799744    4.05999994    2.61999989
   16.13305473  107.30300140    3.97000003    2.59999990
   16.13611031  107.01200104    3.93000007    2.59999990
   16.13944435  114.33000183    3.80999994    2.61999989
   16.14277840  113.18599701    3.75000000    2.61999989
   16.14583397  110.28600311    3.75000000    2.61999989
   16.14916611  111.35099792    4.40999985    2.59999990
   16.15527725  111.35099792    3.97000003    2.61999989
   16.15944481  125.97899628    4.13999987    2.61999989
   16.16250038  113.44699860    4.03999996    2.61999989
   16.16361046  118.90299988    4.07999992    2.61999989
   16.16638756  110.63999939    4.30999994    2.59999990
   16.16944313  111.12999725    4.03999996    2.61999989
   16.17277718  113.85399628    3.66000009    2.61999989
   16.17611122  108.45700073    3.53999996    2.61999989
   16.17916679  113.08399963    3.46000004    2.61999989
   16.18249893  114.42600250    3.55999994    2.61999989
   16.18555450  108.03399658    3.53999996    2.61999989
   16.18888855  119.19499969    4.07999992    2.59999990
   16.19222069  113.02899933    4.84999990    2.59999990
   16.19805527  113.02899933    4.67999983    2.59999990
   16.20222282  110.40000153    4.90999985    2.57999992
   16.20555687  113.86299896    4.90999985    2.59999990
   16.20861244  109.29299927    4.90999985    2.57999992
   16.21194458  113.00900269    4.17999983    2.61999989
   16.21500015  108.41699982    3.70000005    2.61999989
   16.21833420  106.89600372    3.30999994    2.61999989
   16.22166634  108.26000214    3.26999998    2.61999989
   16.22472191  105.93399811    3.72000003    2.61999989
   16.22805595  106.61199951    3.53999996    2.61999989
   16.23027802  107.35900116    3.30999994    2.61999989
   16.23166656  108.05000305    3.23000002    2.61999989
   16.23472214  110.87500000    2.96000004    2.61999989
   16.24083328  110.87500000    2.75000000    2.61999989
   16.24500084  107.12400055    2.80999994    2.61999989
   16.24833298  111.19400024    2.91000009    2.61999989
   16.25138855  109.53299713    3.43000007    2.61999989
   16.25472260  113.36900330    3.86999989    2.59999990
   16.25805473  114.06300354    4.13999987    2.61999989
   16.26111031  114.10800171    4.65999985    2.59999990
   16.26361084  115.13600159    4.55999994    2.61999989
   16.26499939  109.09200287    4.48999977    2.59999990
   16.26805496  112.30899811    4.76000023    2.59999990
   16.27138901  116.26699829    4.90999985    2.57999992
   16.27472115  111.34899902    4.44999981    2.59999990
   16.27777672  114.48400116    4.15999985    2.61999989
   16.28388786  114.48400116    3.55999994    2.61999989
   16.28777695  115.07499695    3.25000000    2.61999989
   16.29111099  109.79799652    3.14000010    2.61999989
   16.29444313  107.97399902    3.26999998    2.61999989
   16.29694366  111.21499634    3.55999994    2.61999989
   16.29805565  107.65699768    3.72000003    2.61999989
   16.30111122  103.66799927    3.57999992    2.61999989
   16.30444336  107.08300018    3.45000005    2.61999989
   16.30777740   99.72709656    3.51999998    2.61999989
   16.31083298  109.07900238    3.75000000    2.61999989
   16.31416512  118.39199829    4.09999990    2.61999989
   16.31722260  111.39399719    3.86999989    2.61999989
   16.32055664  107.40000153    4.11999989    2.61999989
   16.32666779  107.40000153    4.59999990    2.59999990
   16.33083344  108.73500061    4.90999985    2.59999990
   16.33388901  110.13400269    4.90999985    2.59999990
   16.33722305  112.13300323    4.69999981    2.59999990
   16.34055710  113.61699677    4.90999985    2.59999990
   16.34361267  125.13200378    4.55999994    2.61999989
   16.34694481  128.22700500    4.61999989    2.59999990
   16.35000038  117.66799927    4.90999985    2.59999990
   16.35333443  114.82800293    4.44999981    2.59999990
   16.35666656  111.33000183    4.09999990    2.61999989
   16.35972214  109.93299866    4.00000000    2.61999989
   16.36305618  111.13899994    4.23999977    2.59999990
   16.36361122  110.22299957    4.44999981    2.59999990
   16.36944389  110.22299957    4.76000023    2.59999990
   16.37361145  114.46399689    4.42999983    2.61999989
   16.37694550  110.83999634    4.69999981    2.61999989
   16.38000107  110.04699707    4.90999985    2.59999990
   16.38333321  114.25000000    4.90999985    2.61999989
   16.38638878  112.00900269    4.82999992    2.59999990
   16.38972282  110.29799652    4.61999989    2.59999990
   16.39305496  111.54799652    4.67999983    2.59999990
   16.39638901  113.61499786    4.78000021    2.59999990
   16.39694405  115.88700104    4.82999992    2.59999990
   16.39999962  113.57499695    4.90999985    2.59999990
   16.40305519  111.77200317    4.90999985    2.57999992
   16.40638924  111.15899658    4.90999985    2.57999992
   16.41222191  111.15899658    4.26000023    2.61999989
   16.41638756  112.42800140    4.05999994    2.61999989
   16.41972160  108.70099640    4.23999977    2.61999989
   16.42277718  111.23400116    3.86999989    2.61999989
   16.42611122  105.47799683    3.68000007    2.61999989
   16.42944336  108.61399841    4.00000000    2.61999989
   16.43027687  107.37500000    3.99000001    2.61999989
   16.43305397  113.15200043    4.53000021    2.59999990
   16.43610954  112.08599854    4.59999990    2.59999990
   16.43944359  111.61799622    4.19999981    2.61999989
   16.44277763  114.26799774    4.26999998    2.61999989
   16.44583321  114.01899719    4.28999996    2.59999990
   16.44916534  113.26000214    4.26000023    2.61999989
   16.45527840  113.26000214    4.65999985    2.59999990
   16.45916748  117.27899933    4.61999989    2.59999990
   16.46250153  114.90799713    4.90999985    2.59999990
   16.46361160  113.12899780    4.86999989    2.59999990
   16.46611214  110.56800079    4.59999990    2.61999989
   16.46916771  113.64600372    4.57999992    2.61999989
   16.47249985  112.08799744    4.65999985    2.59999990
   16.47583389  111.72699738    4.59999990    2.61999989
   16.47888947  110.51799774    4.61999989    2.59999990
   16.48222351  112.46499634    4.80999994    2.59999990
   16.48555565  109.37899780    4.80000019    2.59999990
   16.48861122  114.65299988    4.65999985    2.59999990
   16.49194527  110.36599731    3.84999990    2.61999989
   16.49805641  110.36599731    3.50000000    2.61999989
   16.50222206  112.20999908    3.80999994    2.61999989
   16.50527763  110.31900024    3.95000005    2.61999989
   16.50861168  110.49800110    4.01999998    2.61999989
   16.51194382  110.85900116    4.21999979    2.61999989
   16.51499939  113.67400360    4.80999994    2.59999990
   16.51833344  117.24700165    4.90999985    2.59999990
   16.52166557  110.27700043    3.89000010    2.61999989
   16.52472115  110.62999725    4.01999998    2.61999989
   16.52805519  109.43699646    3.73000002    2.61999989
   16.53027725  109.21600342    3.70000005    2.61999989
   16.53166580  113.36000061    3.80999994    2.61999989
   16.53472137  117.83999634    3.73000002    2.59999990
   16.54083252  117.83999634    3.99000001    2.61999989
   16.54500008  115.22200012    4.17999983    2.59999990
   16.54833221  115.23999786    4.13999987    2.61999989
   16.55138779  115.83100128    4.17999983    2.59999990
   16.55472183  113.18900299    4.34999990    2.61999989
   16.55805397  118.92800140    4.30999994    2.61999989
   16.56110954  112.56700134    4.55999994    2.61999989
   16.56361008  117.98699951    4.80000019    2.59999990
   16.56472206  112.69100189    4.67999983    2.61999989
   16.56777954  113.88899994    4.90999985    2.59999990
   16.57111168  114.43699646    4.90999985    2.59999990
   16.57444572  109.11299896    4.90999985    2.59999990
   16.57750130  110.74600220    4.90999985    2.59999990
   16.58361244  110.74600220    4.57999992    2.61999989
   16.58777809  106.96099854    4.90999985    2.61999989
   16.59111214  118.90000153    4.90999985    2.59999990
   16.59444427  118.03199768    4.78000021    2.61999989
   16.59694481  111.68000031    4.90999985    2.59999990
   16.59805679  110.43499756    4.86999989    2.59999990
   16.60111237  116.43099976    4.90999985    2.59999990
   16.60444450  113.15200043    4.90999985    2.59999990
   16.60777855  120.18800354    4.90999985    2.59999990
   16.61083412  118.25700378    4.90999985    2.59999990
   16.61416626  119.53299713    4.90999985    2.59999990
   16.61750031  117.37200165    4.90999985    2.59999990
   16.62083435  117.30899811    4.90999985    2.57999992
   16.62666702  117.30899811    4.90999985    2.59999990
   16.63055611  112.57399750    4.90999985    2.57999992
   16.63388824  113.11199951    4.90999985    2.59999990
   16.63722229  109.86199951    4.90999985    2.59999990
   16.64027786  117.16799927    4.84999990    2.59999990
   16.64361191  118.69499969    4.90999985    2.61999989
   16.64694405  109.76999664    4.61999989    2.61999989
   16.64999962  116.22499847    4.46999979    2.61999989
   16.65333366  116.81700134    4.48999977    2.61999989
   16.65638924  112.91899872    4.51000023    2.61999989
   16.65972137  113.43499756    4.90999985    2.59999990
   16.66305542  111.81800079    4.90999985    2.59999990
   16.66361046  113.91300201    4.90999985    2.59999990
   16.66944313  113.91300201    4.90999985    2.59999990
   16.67361069  113.25099945    4.90999985    2.59999990
   16.67666626  114.10399628    4.90999985    2.59999990
   16.68000031  115.05200195    4.90999985    2.59999990
   16.68333244  114.44899750    4.90999985    2.59999990
   16.68638802  119.21800232    4.51000023    2.59999990
   16.68972206  119.32299805    4.55999994    2.59999990
   16.69277763  118.36000061    4.82999992    2.61999989
   16.69610977  117.62300110    4.69999981    2.61999989
   16.69694328  119.50299835    4.69999981    2.61999989
   16.69972038  116.56300354    4.82999992    2.61999989
   16.70305634  112.20500183    4.90999985    2.59999990
   16.70611191  115.29499817    4.88999987    2.59999990
   16.71222305  115.29499817    4.90999985    2.59999990
   16.71638870  111.60800171    4.90999985    2.59999990
   16.71972275  115.34899902    4.90999985    2.59999990
   16.72277832  115.00099945    4.90999985    2.59999990
   16.72611237  117.96700287    4.90999985    2.59999990
   16.72944450  110.88300323    4.90999985    2.59999990
   16.73027802  117.40699768    4.73999977    2.59999990
   16.73305511  116.24800110    4.69999981    2.59999990
   16.73638916  118.26999664    4.86999989    2.59999990
   16.73944473  113.57399750    4.90999985    2.59999990
   16.74277878  114.14399719    4.90999985    2.59999990
   16.74583435  109.83000183    4.90999985    2.59999990
   16.74916649  111.56199646    4.90999985    2.59999990
   16.75499916  111.56199646    4.90999985    2.59999990
   16.75916672  113.33399963    4.88999987    2.61999989
   16.76250076  113.09799957    4.90999985    2.59999990
   16.76361084  114.19999695    4.90999985    2.59999990
   16.76611137  116.00199890    4.84999990    2.61999989
   16.76944351  115.99700165    4.90999985    2.61999989
   16.77249908  119.09700012    4.90999985    2.59999990
   16.77583313  114.33200073    4.90999985    2.59999990
   16.77888870  112.65200043    4.90999985    2.57999992
   16.78222275  115.19999695    4.90999985    2.59999990
   16.78555489  113.91100311    4.90999985    2.59999990
   16.78861046  114.00900269    4.78000021    2.59999990
   16.79194450  107.49700165    4.90999985    2.61999989
   16.79805565  107.49700165    4.90999985    2.59999990
   16.80194283  113.62100220    4.90999985    2.59999990
   16.80527687  112.32800293    4.90999985    2.59999990
   16.80861092  115.23000336    4.90999985    2.59999990
   16.81166649  114.43099976    4.90999985    2.57999992
   16.81499863  109.67900085    4.90999985    2.59999990
   16.81833458  116.40399933    4.90999985    2.57999992
   16.82139015  117.10800171    4.90999985    2.59999990
   16.82472229  109.22799683    4.90999985    2.59999990
   16.82777786  114.83399963    4.84999990    2.59999990
   16.83027840  108.93599701    4.90999985    2.59999990
   16.83139038  112.66799927    4.73999977    2.59999990
   16.83472252  107.62400055    4.90999985    2.59999990
   16.84083366  107.62400055    4.88999987    2.59999990
   16.84500122  108.15799713    4.90999985    2.57999992
   16.84805679  119.72599792    4.90999985    2.59999990
   16.85138893  115.65699768    4.90999985    2.59999990
   16.85472298  115.03700256    4.90999985    2.59999990
   16.85777855  118.25399780    4.90999985    2.59999990
   16.86111069  117.86199951    4.90999985    2.59999990
   16.86361122  116.98300171    4.90999985    2.57999992
   16.86472321  114.05999756    4.90999985    2.59999990
   16.86805534  114.70200348    4.90999985    2.61999989
   16.87111092  118.59500122    4.90999985    2.57999992
   16.87444496  121.62400055    4.90999985    2.59999990
   16.87750053  118.84400177    4.78000021    2.59999990
   16.88361168  118.84400177    4.90999985    2.59999990
   16.88777733  120.91899872    4.48999977    2.61999989
   16.89111137  118.40699768    4.32999992    2.59999990
   16.89444351  113.38200378    4.86999989    2.59999990
   16.89694405  112.30300140    4.90999985    2.59999990
   16.89805603  110.77100372    4.90999985    2.61999989
   16.90138817  105.29499817    4.90999985    2.59999990
   16.90444374  106.12200165    4.90999985    2.59999990
   16.90777779  113.44499969    4.90999985    2.59999990
   16.91083336  111.10399628    4.90999985    2.61999989
   16.91416550  111.79799652    4.90999985    2.59999990
   16.91749954  107.86399841    4.80999994    2.61999989
   16.92055511  113.89099884    4.90999985    2.59999990
   16.92638779  113.89099884    4.90999985    2.61999989
   16.93055534  110.08999634    4.90999985    2.59999990
   16.93388748  111.51300049    4.90999985    2.59999990
   16.93694305  110.19999695    4.90999985    2.57999992
   16.94027710  108.00299835    4.90999985    2.59999990
   16.94361115  114.56600189    4.80999994    2.59999990
   16.94666672  107.11299896    4.67999983    2.61999989
   16.95000076  107.65200043    4.40999985    2.61999989
   16.95333481  113.54699707    4.36999989    2.61999989
   16.95639038  112.49500275    4.36999989    2.61999989
   16.95972252  114.57900238    4.48999977    2.61999989
   16.96277809  112.38200378    4.61999989    2.61999989
   16.96389008  112.33599854    4.76000023    2.59999990
   16.98444557  112.33599854    4.51000023    2.61999989
   16.98861122  113.48500061    4.61999989    2.59999990
   16.99194527  115.53900146    4.44999981    2.61999989
   16.99500084  118.59899902    4.76000023    2.59999990
   16.99694443  110.73400116    4.84999990    2.59999990
   16.99861145  113.55899811    4.86999989    2.59999990
   17.00194359  109.08100128    4.38999987    2.61999989
   17.00499916  108.51799774    4.46999979    2.59999990
   17.00833321  116.15100098    4.38999987    2.61999989
   17.01166725  108.57599640    4.40999985    2.61999989
   17.01472282  108.39900208    4.26000023    2.61999989
   17.01805496  117.04399872    4.11999989    2.61999989
   17.02111053  121.54199982    4.15999985    2.61999989
   17.02750015  121.54199982    4.53000021    2.61999989
   17.03166580  117.57299805    4.34999990    2.61999989
   17.03499985  113.39700317    4.36999989    2.61999989
   17.03805542  118.21600342    4.38999987    2.61999989
   17.04138756  110.36900330    4.30999994    2.61999989
   17.04444313  119.27400208    4.32999992    2.61999989
   17.04777718  115.68900299    4.30999994    2.61999989
   17.05111122  120.95999908    4.51000023    2.59999990
   17.05416679  112.31199646    4.26000023    2.61999989
   17.05749893  111.96399689    4.09999990    2.61999989
   17.06083298  114.73400116    4.00000000    2.61999989
   17.06361008  108.57900238    4.09999990    2.61999989
   17.06416512  113.94699860    4.09999990    2.61999989
   17.07000160  113.94699860    4.17999983    2.61999989
   17.07416725  110.11000061    4.38999987    2.61999989
   17.07750130  115.41100311    4.28999996    2.61999989
   17.08055687  115.03700256    4.15999985    2.61999989
   17.08388901  110.96299744    4.30999994    2.61999989
   17.08722305  116.10600281    4.65999985    2.59999990
   17.09027863  123.16899872    4.73999977    2.59999990
   17.09361267  112.68699646    4.65999985    2.59999990
   17.09666824  111.01300049    4.82999992    2.59999990
   17.09722328  111.87599945    4.90999985    2.59999990
   17.10055542  111.35500336    4.90999985    2.59999990
   17.10388947  118.35500336    4.90999985    2.59999990
   17.10694504  114.29100037    4.90999985    2.59999990
   17.11305618  114.29100037    4.90999985    2.59999990
   17.11722183  112.52100372    4.90999985    2.57999992
   17.12055588  112.44300079    4.90999985    2.59999990
   17.12361145  115.25499725    4.90999985    2.59999990
   17.12694550  115.42500305    4.90999985    2.59999990
   17.13000107  112.28399658    4.90999985    2.59999990
   17.13055611  117.22499847    4.90999985    2.59999990
   17.13361168  109.66500092    4.90999985    2.59999990
   17.13694382  111.43000031    4.90999985    2.59999990
   17.13999939  107.97699738    4.69999981    2.61999989
   17.14333344  114.14399719    4.69999981    2.59999990
   17.14638901  109.36299896    4.65999985    2.59999990
   17.14972115  113.60900116    4.73999977    2.59999990
   17.15583229  113.60900116    4.65999985    2.59999990
   17.15999985  109.44899750    4.67999983    2.59999990
   17.16305542  112.49900055    4.71999979    2.61999989
   17.16388893  118.98500061    4.80999994    2.59999990
   17.16666603  113.57700348    4.80999994    2.59999990
   17.16972160  109.75800323    4.76000023    2.59999990
   17.17305565  108.22100067    4.90999985    2.61999989
   17.17638779  105.77200317    4.90999985    2.59999990
   17.17944336  113.22799683    4.90999985    2.59999990
   17.18277740  112.05599976    4.90999985    2.57999992
   17.18610954  104.75000000    4.90999985    2.57999992
   17.18916512  107.49900055    4.90999985    2.59999990
   17.19249916  115.61299896    4.90999985    2.57999992
   17.19861031  115.61299896    4.90999985    2.59999990
   17.20277786  111.27300262    4.90999985    2.59999990
   17.20583344  127.88099670    4.90999985    2.59999990
   17.20916748  136.96299744    4.90999985    2.59999990
   17.21250153  146.86399841    4.90999985    2.57999992
   17.21583366  123.29199982    4.90999985    2.57999992
   17.21916771  138.18800354    4.90999985    2.57999992
   17.22222328  136.89399719    4.90999985    2.57999992
   17.22555542  156.39199829    4.90999985    2.57999992
   17.22861099  155.57800293    4.90999985    2.57999992
   17.23055649  153.88600159    4.90999985    2.57999992
   17.23222351  154.34599304    4.90999985    2.59999990
   17.23555565  139.23199463    4.90999985    2.57999992
   17.24138832  139.23199463    4.90999985    2.57999992
   17.24555588  150.78399658    4.90999985    2.57999992
   17.24888992  152.92799377    4.90999985    2.57999992
   17.25194359  154.47999573    4.90999985    2.55999994
   17.25527763  140.83399963    4.90999985    2.55999994
   17.25861168  140.97500610    4.90999985    2.55999994
   17.26166725  142.41700745    4.90999985    2.57999992
   17.26388931  132.24699402    4.90999985    2.57999992
   17.26527786  137.50700378    4.90999985    2.57999992
   17.26861000  139.64199829    4.90999985    2.59999990
   17.27166557  139.25500488    4.90999985    2.59999990
   17.27499962  130.07600403    4.90999985    2.57999992
   17.27805519  127.15599823    4.90999985    2.57999992
   17.28416634  127.15599823    4.90999985    2.57999992
   17.28833199  109.38300323    4.90999985    2.59999990
   17.29166603  111.18699646    4.90999985    2.59999990
   17.29500008  124.81800079    4.90999985    2.59999990
   17.29722214  117.37799835    4.90999985    2.57999992
   17.29861069  116.52300262    4.90999985    2.59999990
   17.30194283  113.06700134    4.90999985    2.57999992
   17.30499840  112.25399780    4.90999985    2.57999992
   17.30833244  121.72000122    4.90999985    2.57999992
   17.31138802  128.06599426    4.90999985    2.59999990
   17.31472206  117.12999725    4.90999985    2.57999992
   17.31805611  113.07599640    4.90999985    2.59999990
   17.32139015  116.11199951    4.90999985    2.57999992
   17.32722282  116.11199951    4.90999985    2.57999992
   17.33139038  112.80799866    4.90999985    2.57999992
   17.33444595  118.26699829    4.90999985    2.55999994
   17.33777809  116.92099762    4.90999985    2.55999994
   17.34083366  111.55599976    4.90999985    2.55999994
   17.34416771  114.57299805    4.90999985    2.57999992
   17.34749985  116.94799805    4.90999985    2.57999992
   17.35055542  109.97899628    4.90999985    2.57999992
   17.35388947  111.66600037    4.90999985    2.57999992
   17.35722351  112.38300323    4.90999985    2.59999990
   17.36027908  111.14800262    4.82999992    2.59999990
   17.36361122  113.64700317    4.90999985    2.59999990
   17.36416626  113.65200043    4.90999985    2.59999990
   17.37000084  113.65200043    4.90999985    2.59999990
   17.37416649  117.10099792    4.90999985    2.59999990
   17.37722206  116.83300018    4.90999985    2.59999990
   17.38055611  114.18699646    4.90999985    2.61999989
   17.38388824  119.82900238    4.90999985    2.59999990
   17.38694382  125.07800293    4.90999985    2.59999990
   17.39027786  126.52500153    4.90999985    2.59999990
   17.39361191  115.74600220    4.90999985    2.59999990
   17.39666748  125.22200012    4.90999985    2.59999990
   17.39749908  115.41500092    4.90999985    2.59999990
   17.40027809  119.31999969    4.90999985    2.59999990
   17.40361023  120.45600128    4.90999985    2.59999990
   17.40694427  113.78399658    4.90999985    2.59999990
   17.41277695  113.78399658    4.80000019    2.59999990
   17.41694450  114.94899750    4.90999985    2.59999990
   17.42027664  113.94400024    4.90999985    2.59999990
   17.42333221  110.17700195    4.90999985    2.59999990
   17.42666626  115.33499908    4.90999985    2.59999990
   17.43000031  115.57099915    4.86999989    2.59999990
   17.43083191  114.66699982    4.80999994    2.59999990
   17.43333244  117.60299683    4.59999990    2.59999990
   17.43666649  119.37300110    4.65999985    2.59999990
   17.43999863  111.48899841    4.51000023    2.61999989
   17.44305420  117.35700226    4.53999996    2.59999990
   17.44638824  112.68499756    4.59999990    2.59999990
   17.44944382  121.97100067    4.69999981    2.59999990
   17.45555687  121.97100067    4.90999985    2.59999990
   17.45972252  115.51799774    4.90999985    2.59999990
   17.46305656  121.45099640    4.88999987    2.59999990
   17.46416664  112.95300293    4.86999989    2.59999990
   17.46666718  109.71800232    4.88999987    2.59999990
   17.47000122  115.87200165    4.90999985    2.59999990
   17.47333336  117.77400208    4.78000021    2.59999990
   17.47638893  117.61399841    4.73999977    2.59999990
   17.47972298  121.76699829    4.80999994    2.59999990
   17.48305511  115.33200073    4.90999985    2.59999990
   17.48611069  117.37000275    4.90999985    2.57999992
   17.48944473  119.45800018    4.90999985    2.57999992
   17.49277878  113.55100250    4.90999985    2.57999992
   17.49861145  113.55100250    4.90999985    2.57999992
   17.50277710  117.87999725    4.90999985    2.57999992
   17.50583267  120.87100220    4.90999985    2.57999992
   17.50916672  119.11299896    4.90999985    2.57999992
   17.51222229  117.87300110    4.90999985    2.57999992
   17.51555634  119.88700104    4.90999985    2.59999990
   17.51888847  117.60600281    4.90999985    2.59999990
   17.52194405  122.08499908    4.90999985    2.57999992
   17.52527809  119.04699707    4.90999985    2.57999992
   17.52861023  122.26999664    4.90999985    2.59999990
   17.53083229  120.40299988    4.90999985    2.59999990
   17.53194427  126.53099823    4.90999985    2.57999992
   17.53527641  119.54799652    4.90999985    2.57999992
   17.54138756  119.54799652    4.90999985    2.59999990
   17.54555511  121.51300049    4.90999985    2.59999990
   17.54861069  116.89099884    4.90999985    2.59999990
   17.55194283  115.92700195    4.90999985    2.59999990
   17.55527687  116.69799805    4.90999985    2.59999990
   17.55833244  119.30300140    4.90999985    2.59999990
   17.56166649  121.35600281    4.88999987    2.59999990
   17.56416512  123.26999664    4.88999987    2.59999990
   17.56527710  116.56600189    4.90999985    2.59999990
   17.56861115  107.03199768    4.90999985    2.57999992
   17.57194519  105.44599915    4.90999985    2.59999990
   17.57500076  112.11100006    4.90999985    2.57999992
   17.57833481  118.36599731    4.90999985    2.57999992
   17.58416748  118.36599731    4.90999985    2.59999990
   17.58833313  122.71299744    4.90999985    2.57999992
   17.59166718  118.75800323    4.90999985    2.57999992
   17.59472275  118.41999817    4.90999985    2.57999992
   17.59749985  111.43099976    4.90999985    2.57999992
   17.59833336  118.33899689    4.90999985    2.59999990
   17.60166740  113.70200348    4.90999985    2.57999992
   17.60499954  103.95700073    4.90999985    2.59999990
   17.60805511  108.20800018    4.90999985    2.59999990
   17.61138916  112.65200043    4.90999985    2.59999990
   17.61472321  120.56700134    4.90999985    2.59999990
   17.61777878  117.38200378    4.90999985    2.57999992
   17.62111092  116.57800293    4.90999985    2.59999990
   17.62694550  116.57800293    4.90999985    2.57999992
   17.63111115  118.70899963    4.90999985    2.59999990
   17.63444519  112.38400269    4.90999985    2.57999992
   17.63777733  117.34100342    4.90999985    2.57999992
   17.64083290  115.94799805    4.90999985    2.59999990
   17.64416695  114.69899750    4.90999985    2.57999992
   17.64722252  121.22200012    4.90999985    2.57999992
   17.65055466  116.36799622    4.90999985    2.57999992
   17.65388870  110.77100372    4.90999985    2.59999990
   17.65694427  113.91600037    4.90999985    2.57999992
   17.66027832  107.30999756    4.90999985    2.59999990
   17.66361046  114.35800171    4.90999985    2.57999992
   17.66416550  114.93599701    4.90999985    2.57999992
   17.67000008  114.93599701    4.90999985    2.57999992
   17.67416573  109.78900146    4.90999985    2.59999990
   17.67722130  112.22799683    4.90999985    2.57999992
   17.68055534  113.61599731    4.90999985    2.59999990
   17.68361092  114.28800201    4.90999985    2.59999990
   17.68694305  112.94200134    4.90999985    2.59999990
   17.69027710  112.08499908    4.90999985    2.57999992
   17.69333267  115.05100250    4.90999985    2.57999992
   17.69666672  113.27700043    4.90999985    2.57999992
   17.69749832  108.01599884    4.90999985    2.57999992
   17.70000076  118.55599976    4.90999985    2.59999990
   17.70333481  116.13700104    4.90999985    2.57999992
   17.70666695  115.72699738    4.90999985    2.57999992
   17.71277809  115.72699738    4.90999985    2.57999992
   17.71694565  113.16300201    4.90999985    2.57999992
   17.72000122  115.33200073    4.90999985    2.57999992
   17.72333336  117.33200073    4.90999985    2.57999992
   17.72666740  118.52899933    4.90999985    2.57999992
   17.72972298  116.31999969    4.90999985    2.57999992
   17.73083305  115.69499969    4.90999985    2.57999992
   17.73333359  117.12400055    4.90999985    2.57999992
   17.73666763  113.75199890    4.90999985    2.57999992
   17.73999977  115.15100098    4.90999985    2.57999992
   17.74305534  116.92099762    4.90999985    2.57999992
   17.74638939  116.02700043    4.90999985    2.57999992
   17.74972153  118.01599884    4.90999985    2.57999992
   17.75555611  118.01599884    4.90999985    2.57999992
   17.75972176  111.59899902    4.90999985    2.55999994
   17.76305580  111.95200348    4.90999985    2.57999992
   17.76416588  112.69400024    4.90999985    2.55999994
   17.76638794  113.66500092    4.90999985    2.57999992
   17.76972198  110.28299713    4.90999985    2.57999992
   17.77305603  108.76699829    4.90999985    2.57999992
   17.77611160  116.02200317    4.90999985    2.57999992
   17.77944374  112.77799988    4.90999985    2.59999990
   17.78277779  115.81900024    4.90999985    2.57999992
   17.78583336  112.41000366    4.90999985    2.59999990
   17.78916550  113.81999969    4.90999985    2.57999992
   17.79222107  110.34999847    4.90999985    2.59999990
   17.79833221  110.34999847    4.90999985    2.57999992
   17.80249977  110.61900330    4.90999985    2.57999992
   17.80583191  115.80000305    4.90999985    2.55999994
   17.80916595  114.07399750    4.90999985    2.55999994
   17.81222153  112.99600220    4.90999985    2.55999994
   17.81555557  118.05000305    4.90999985    2.57999992
   17.81888962  124.64499664    4.90999985    2.55999994
   17.82194519  114.85299683    4.90999985    2.55999994
   17.82527924  120.87899780    4.90999985    2.55999994
   17.82861137  113.45999908    4.90999985    2.57999992
   17.83083344  120.37200165    4.90999985    2.55999994
   17.83194542  116.98899841    4.90999985    2.57999992
   17.83527756  121.00000000    4.90999985    2.55999994
   17.84138870  121.00000000    4.90999985    2.55999994
   17.84527779  121.42600250    4.90999985    2.55999994
   17.84861183  124.20899963    4.90999985    2.55999994
   17.85194397  121.05699921    4.90999985    2.55999994
   17.85499954  119.14399719    4.90999985    2.55999994
   17.85833359  117.39600372    4.90999985    2.55999994
   17.86166763  112.84999847    4.90999985    2.55999994
   17.86416626  113.04299927    4.90999985    2.55999994
   17.86499977  114.72299957    4.90999985    2.55999994
   17.86833382  112.12100220    4.90999985    2.55999994
   17.87166595  118.17199707    4.90999985    2.57999992
   17.87472153  120.16799927    4.90999985    2.57999992
   17.87805557  114.12300110    4.90999985    2.57999992
   17.88416672  114.12300110    4.90999985    2.55999994
   17.88833237  119.25800323    4.90999985    2.55999994
   17.89138794  117.56999969    4.90999985    2.55999994
   17.89472198  120.71099854    4.90999985    2.55999994
   17.89749908  114.45500183    4.90999985    2.55999994
   17.89833260  119.59500122    4.90999985    2.55999994
   17.90166664  120.22399902    4.90999985    2.55999994
   17.90499878  119.39800262    4.90999985    2.53999996
   17.90805435  114.22399902    4.90999985    2.53999996
   17.91138840  113.80300140    4.90999985    2.53999996
   17.91472244  116.91999817    4.90999985    2.53999996
   17.91777802  117.79799652    4.90999985    2.53999996
   17.92111015  110.76399994    4.90999985    2.55999994
   17.92694473  110.76399994    4.90999985    2.55999994
   17.93111038  116.28500366    4.90999985    2.55999994
   17.93444443  118.72499847    4.90999985    2.55999994
   17.93750000  121.51000214    4.90999985    2.55999994
   17.94083214  119.83399963    4.90999985    2.55999994
   17.94416618  121.84300232    4.90999985    2.55999994
   17.94722176  121.25399780    4.90999985    2.53999996
   17.95055580  119.83100128    4.90999985    2.55999994
   17.95361137  112.01899719    4.90999985    2.55999994
   17.95694542  115.96900177    4.90999985    2.55999994
   17.96027946  113.20200348    4.90999985    2.55999994
   17.96333504  114.08399963    4.90999985    2.55999994
   17.96416664  116.42700195    4.90999985    2.55999994
   17.96972275  116.42700195    4.90999985    2.55999994
   17.97389030  115.71499634    4.90999985    2.55999994
   17.97722244  118.73000336    4.90999985    2.53999996
   17.98055649  109.24700165    4.90999985    2.53999996
   17.99805641  119.37999725    4.90999985    2.53999996
   18.00027847  120.04699707    4.90999985    2.51999998
   18.00361061  124.55200195    4.90999985    2.53999996
   18.00694466  114.30000305    4.90999985    2.53999996
   18.01277733  114.30000305    4.90999985    2.53999996
   18.01694489  119.11699677    4.90999985    2.53999996
   18.02027702  114.96099854    4.90999985    2.53999996
   18.02333260  119.76399994    4.90999985    2.53999996
   18.02666664  112.20099640    4.90999985    2.53999996
   18.03000069  111.56400299    4.90999985    2.55999994
   18.03111076  116.13800049    4.90999985    2.53999996
   18.03333282  120.81199646    4.90999985    2.55999994
   18.03666687  120.20899963    4.90999985    2.55999994
   18.03972244  117.65100098    4.90999985    2.55999994
   18.04305458  120.30500031    4.90999985    2.55999994
   18.04638863  117.90599823    4.90999985    2.55999994
   18.04944420  113.21099854    4.90999985    2.55999994
   18.05555534  113.21099854    4.90999985    2.53999996
   18.05972099  120.39199829    4.90999985    2.53999996
   18.06305504  113.55599976    4.90999985    2.51999998
   18.06444359  120.44000244    4.90999985    2.51999998
   18.06666756  115.92299652    4.90999985    2.51999998
   18.07000160  116.06900024    4.90999985    2.51999998
   18.07305717  119.02700043    4.90999985    2.51999998
   18.07638931  119.90899658    4.90999985    2.51999998
   18.07972336  118.68699646    4.90999985    2.51999998
   18.08305550  122.16100311    4.90999985    2.51999998
   18.08611107  123.31500244    4.90999985    2.50000000
   18.08944511  127.69899750    4.90999985    2.51999998
   18.09277916  119.69799805    4.90999985    2.51999998
   18.09861183  119.69799805    4.90999985    2.51999998
   18.10277748  119.38899994    4.90999985    2.51999998
   18.10583305  118.79799652    4.90999985    2.53999996
   18.10916710  116.79000092    4.90999985    2.53999996
   18.11222267  114.04000092    4.90999985    2.53999996
   18.11555672  113.12000275    4.90999985    2.53999996
   18.11888885  116.18099976    4.90999985    2.53999996
   18.12194443  115.45899963    4.90999985    2.53999996
