    HOUR (UT)   FLARE FACTOR    SKY TESTER    SUN TESTER
   11.71694374   -1.00000000   -1.00000000   -1.00000000
   11.74333382  209.94299316    4.90999985    1.85000002
   11.74638939  199.98399353    4.90999985    1.78999996
   11.74972248  469.28601074    4.90999985    1.73000002
   11.75166702  491.89199829    4.90999985    1.71000004
   11.75305557  358.92199707    4.90999985    1.69000006
   11.75444412  289.02999878    4.90999985    1.66999996
   11.75444412  199.98399353    4.90999985    1.78999996
   11.75444412  469.28601074    4.90999985    1.73000002
   11.75527763  265.03601074    4.90999985    1.66999996
   11.75833321   84.14510345    4.90999985    1.63000000
   11.76166630   78.35289764    4.90999985    1.53999996
   11.76472187   -1.00000000    4.90999985    1.33000004
   11.76805496   -1.00000000    4.90999985    1.23000002
   11.77138901   57.89379883    4.90999985    1.19000006
   11.77527714   57.89379883    4.90999985    1.14999998
   11.77944374  262.77801514    4.90999985    1.33000004
   11.78277779  267.39498901    4.90999985    1.60000002
   11.78583336  234.03500366    4.90999985    1.78999996
   11.78833389  283.26501465    4.90999985    1.86000001
   11.78944492  224.36500549    4.90999985    1.89999998
   11.79277802  341.48999023    4.90999985    1.91999996
   11.79611111  312.51599121    4.90999985    1.76999998
   11.79916668  238.86399841    4.90999985    1.69000006
   11.80249977  261.17498779    4.90999985    1.75000000
   11.80583382  272.62100220    4.90999985    1.78999996
   11.80888939  271.81698608    4.90999985    1.80999994
   11.81222248  227.63900757    4.90999985    1.78999996
   11.81833363  227.63900757    4.90999985    1.75000000
   11.82222176  346.40600586    4.90999985    1.71000004
   11.82555580  269.57598877    4.90999985    1.80999994
   11.82888889  233.65400696    4.90999985    1.91999996
   11.83194447  224.41499329    4.90999985    2.01999998
   11.83527756  224.91600037    4.90999985    2.05999994
   11.83861065  224.47099304    4.90999985    2.05999994
   11.84194374  159.50599670    4.90999985    2.01999998
   11.84499931  291.30200195    4.90999985    1.96000004
   11.84833336  171.98100281    4.90999985    1.96000004
   11.85138893  240.87800598    4.90999985    1.98000002
   11.85472298  194.77200317    4.90999985    1.91999996
   11.85527802  183.42399597    4.90999985    1.89999998
   11.86111164  183.42399597    4.90999985    1.73000002
   11.86527824   61.12149811    4.90999985    1.50000000
   11.86833382  140.61799622    4.90999985    1.38000000
   11.87166691  417.48001099    4.90999985    1.44000006
   11.87361145  113.27200317    4.90999985    1.41999996
   11.87361145  194.77200317    4.90999985    1.91999996
   11.87388897   61.12149811    4.90999985    1.50000000
   11.87388897  140.61799622    4.90999985    1.38000000
   11.87388897  417.48001099    4.90999985    1.44000006
   11.87388897  224.47099304    4.90999985    2.05999994
   11.87388897  159.50599670    4.90999985    2.01999998
   11.87416649  291.30200195    4.90999985    1.96000004
   11.87416649  171.98100281    4.90999985    1.96000004
   11.87416649  240.87800598    4.90999985    1.98000002
   11.87583351  255.66000366    4.90999985    1.46000004
   11.87916660  335.34899902    4.90999985    1.50000000
   11.88222218  100.20099640    4.90999985    1.53999996
   11.88555527   -1.00000000    4.90999985    1.41999996
   11.88861084   -1.00000000    4.90999985    1.25000000
   11.89444447   -1.00000000    4.90999985    1.41999996
   11.89861107  407.98999023    4.90999985    1.66999996
   11.90055561  349.27999878    4.90999985    1.78999996
   11.90055561  255.66000366    4.90999985    1.46000004
   11.90083313  335.34899902    4.90999985    1.50000000
   11.90083313  100.20099640    4.90999985    1.53999996
   11.90083313   -1.00000000    4.90999985    1.41999996
   11.90083313   -1.00000000    4.90999985    1.25000000
   11.90083313  407.98999023    4.90999985    1.66999996
   11.90305519  264.97799683    4.90999985    1.85000002
   11.90611076  261.35900879    4.90999985    1.96000004
   11.90944386  234.80999756    4.90999985    2.03999996
   11.91249943  311.81900024    4.90999985    2.03999996
   11.91583252  245.61199951    4.90999985    1.96000004
   11.92138958  245.61199951    4.90999985    1.86000001
   11.92555618  215.03799438    4.90999985    1.94000006
   11.92861176  262.99700928    4.90999985    2.01999998
   11.93194485  219.32400513    4.90999985    2.07999992
   11.93444443  221.16900635    4.90999985    2.09999990
   11.93555546  223.63400269    4.90999985    2.11999989
   11.93861103  225.12100220    4.90999985    2.15000010
   11.94194412  271.52700806    4.90999985    2.13000011
   11.94527817  225.51199341    4.90999985    2.09999990
   11.94833374  243.36300659    4.90999985    2.09999990
   11.95166683  223.61000061    4.90999985    2.09999990
   11.95472240  227.94999695    4.90999985    2.11999989
   11.95805550  244.26800537    4.90999985    2.11999989
   11.96416664  244.26800537    4.90999985    2.11999989
   11.96833324  229.90100098    4.90999985    2.11999989
   11.97166634  258.72000122    4.90999985    2.11999989
   11.97472191  228.07200623    4.90999985    2.09999990
   11.97805500  216.85600281    4.90999985    2.11999989
   11.98138809  279.10998535    4.90999985    2.11999989
   11.98444462  228.97599792    4.90999985    2.11999989
   11.98777771  221.16700745    4.90999985    2.11999989
   11.99083328  214.57699585    4.90999985    2.11999989
   11.99416733  237.40800476    4.90999985    2.09999990
   11.99750042  245.84399414    4.90999985    2.09999990
   12.00055599  221.56599426    4.90999985    2.11999989
   12.00111103  206.00300598    4.90999985    2.11999989
   12.00722218  206.00300598    4.71999979    2.11999989
   12.01111126  211.39999390    4.19999981    2.11999989
   12.01444435  208.81100464    3.89000010    2.13000011
   12.01777744  222.44400024    3.61999989    2.11999989
   12.02083302  214.41000366    3.32999992    2.13000011
   12.02416611  223.36300659    3.07999992    2.13000011
   12.02750015  201.23699951    2.82999992    2.11999989
   12.03055573  205.03700256    2.57999992    2.11999989
   12.03388977  225.21099854    2.28999996    2.13000011
   12.03444481  202.88099670    2.23000002    2.13000011
   12.03750038  205.50599670    2.03999996    2.13000011
   12.04055595  202.32899475    1.89999998    2.13000011
   12.04388905  202.88200378    1.76999998    2.15000010
   12.05000019  202.88200378    1.66999996    2.15000010
   12.05416679  214.88000488    1.66999996    2.15000010
   12.05722237  200.16700745    1.66999996    2.15000010
   12.06055546  212.27299500    1.69000006    2.17000008
   12.06361103  212.08999634    2.03999996    2.15000010
   12.06694412  209.52999878    2.36999989    2.15000010
   12.06777763  214.85400391    2.36999989    2.15000010
   12.07055569  205.08299255    2.46000004    2.15000010
   12.07361126  196.94400024    2.51999998    2.17000008
   12.07694435  192.23599243    2.48000002    2.17000008
   12.08027744  200.01199341    2.42000008    2.17000008
   12.08333302  194.10299683    2.40000010    2.17000008
   12.08666611  203.91900635    2.39000010    2.17000008
   12.09277725  203.91900635    2.28999996    2.17000008
   12.09694386  205.11900330    2.13000011    2.19000006
   12.10027790  189.91299438    2.03999996    2.19000006
   12.10111141  235.62699890    2.03999996    2.19000006
   12.10388947  208.98899841    2.07999992    2.19000006
   12.10694504  188.57400513    2.26999998    2.19000006
   12.11027813  311.22698975    2.53999996    2.19000006
   12.11361122  212.11999512    3.03999996    2.19000006
   12.11666679  180.38400269    3.91000009    2.21000004
   12.11999989  196.66499329    4.53999996    2.21000004
   12.12333393  203.98300171    4.90999985    2.21000004
   12.12638855  195.14900208    4.90999985    2.19000006
   12.12972260  197.67700195    4.90999985    2.19000006
   12.13555527  197.67700195    4.90999985    2.13000011
   12.13972187  209.17700195    4.90999985    2.13000011
   12.14305496  285.98901367    4.90999985    2.07999992
   12.14611053  348.45401001    4.90999985    2.03999996
   12.14944458  292.97000122    4.90999985    2.09999990
   12.15277767  291.69198608    4.90999985    2.17000008
   12.15583324  287.73098755    4.90999985    2.21000004
   12.15916634  342.07901001    4.90999985    2.21000004
   12.16249943  298.53500366    4.90999985    2.21000004
   12.16555500  252.59300232    4.90999985    2.21000004
   12.16777802  217.41299438    4.90999985    2.21000004
   12.16916656  244.68800354    4.90999985    2.21000004
   12.17250061  207.07000732    4.90999985    2.21000004
   12.17833328  207.07000732    4.90999985    2.13000011
   12.18249989  317.71398926    4.90999985    2.07999992
   12.18583298  225.13400269    4.90999985    2.07999992
   12.18916702  224.13299561    4.90999985    2.13000011
   12.19222260  301.21398926    4.90999985    2.17000008
   12.19555569  323.25100708    4.90999985    2.13000011
   12.19861126  211.79800415    4.90999985    2.13000011
   12.20111084  278.29501343    4.90999985    2.03999996
   12.20222187  512.08801270    4.90999985    1.91999996
   12.20416641  412.37600708    4.90999985    1.80999994
   12.20555496  296.98400879    4.90999985    1.85000002
   12.20555496  225.13400269    4.90999985    2.07999992
   12.20555496  224.13299561    4.90999985    2.13000011
   12.20583344  301.21398926    4.90999985    2.17000008
   12.20583344  323.25100708    4.90999985    2.13000011
   12.20583344  211.79800415    4.90999985    2.13000011
   12.20583344  512.08801270    4.90999985    1.91999996
   12.20611095  244.68800354    4.90999985    2.21000004
   12.20611095  207.07000732    4.90999985    2.21000004
   12.20611095  317.71398926    4.90999985    2.07999992
   12.20722198  248.21899414    4.90999985    1.98000002
   12.21055508  310.72500610    4.90999985    1.96000004
   12.21361065  508.68499756    4.90999985    1.78999996
   12.21555519  384.88699341    4.90999985    1.71000004
   12.21694374  266.94299316    4.90999985    1.76999998
   12.21694374  248.21899414    4.90999985    1.98000002
   12.21722221  310.72500610    4.90999985    1.96000004
   12.21722221  508.68499756    4.90999985    1.78999996
   12.21805477  243.75999451    4.90999985    1.86000001
   12.22111034  205.50799561    4.90999985    2.05999994
   12.22444439  182.81100464    4.90999985    2.17000008
   12.22777748  220.39799500    4.90999985    2.15000010
   12.23083305  186.15299988    4.90999985    2.11999989
   12.23777771  186.15299988    4.90999985    2.00000000
   12.24194431  214.88099670    4.90999985    1.98000002
   12.24499989  220.27200317    4.90999985    2.00000000
   12.24833393  198.27200317    4.90999985    1.98000002
   12.25083351  282.37899780    4.90999985    1.94000006
   12.25194454  241.11199951    4.90999985    1.89999998
   12.25500011  291.07000732    4.90999985    1.80999994
   12.25833321   -1.00000000    4.90999985    1.66999996
   12.26138878   34.54159927    4.90999985    1.38000000
   12.26472187   80.17949677    4.90999985    1.39999998
   12.26805496  311.98199463    4.90999985    1.44000006
   12.27111053  209.32499695    4.90999985    1.61000001
   12.27444458  254.72399902    4.90999985    1.73000002
   12.28055573  254.72399902    4.90999985    2.03999996
   12.28472233  229.86399841    4.90999985    2.01999998
   12.28805637  328.98599243    4.90999985    1.86000001
   12.29111195  409.38699341    4.90999985    1.80999994
   12.29305553  316.45401001    4.90999985    1.85000002
   12.29333401   -1.00000000    4.90999985    1.66999996
   12.29333401   34.54159927    4.90999985    1.38000000
   12.29333401   80.17949677    4.90999985    1.39999998
   12.29333401  311.98199463    4.90999985    1.44000006
   12.29361153  209.32499695    4.90999985    1.61000001
   12.29361153  254.72399902    4.90999985    1.73000002
   12.29361153  229.86399841    4.90999985    2.01999998
   12.29361153  328.98599243    4.90999985    1.86000001
   12.29527855  193.27900696    4.90999985    1.94000006
   12.29861164  209.00000000    4.90999985    2.09999990
   12.30194473  185.60800171    4.90999985    2.09999990
   12.30500031  200.84500122    4.90999985    2.11999989
   12.30833340  246.86399841    4.90999985    2.17000008
   12.31388950  246.86399841    4.90999985    2.26999998
   12.31805515  212.69599915    4.90999985    2.26999998
   12.32138920  185.28100586    4.90999985    2.28999996
   12.32444477  171.23800659    4.90999985    2.28999996
   12.32694435  187.78599548    4.90999985    2.25000000
   12.32805538  184.04699707    4.90999985    2.23000002
   12.33138847  189.15699768    4.90999985    2.19000006
   12.33444405  213.41000366    4.90999985    2.15000010
   12.33777714  185.18800354    4.90999985    2.11999989
   12.34083271  256.48001099    4.90999985    2.09999990
   12.34416676  450.53900146    4.90999985    1.91999996
   12.34611034  359.17898560    4.90999985    1.85000002
   12.34749985  417.60998535    4.90999985    1.78999996
   12.34888840  473.53601074    4.90999985    1.73000002
   12.35027790  530.83398438    4.90999985    1.73000002
   12.35166740  359.84298706    4.90999985    1.75000000
   12.35305595  516.65600586    4.90999985    1.78999996
   12.35444450  321.64999390    4.90999985    1.78999996
   12.35444450  189.15699768    4.90999985    2.19000006
   12.35444450  213.41000366    4.90999985    2.15000010
   12.35472298  185.18800354    4.90999985    2.11999989
   12.35472298  256.48001099    4.90999985    2.09999990
   12.35472298  450.53900146    4.90999985    1.91999996
   12.35472298  212.69599915    4.90999985    2.26999998
   12.35472298  185.28100586    4.90999985    2.28999996
   12.35500050  171.23800659    4.90999985    2.28999996
   12.35500050  184.04699707    4.90999985    2.23000002
   12.35555553  233.89700317    4.90999985    1.85000002
   12.35861111  200.87600708    4.90999985    2.15000010
   12.36194515  208.57000732    4.90999985    2.23000002
   12.36527824  232.41499329    4.90999985    2.03999996
   12.36833382  171.34100342    4.90999985    2.09999990
   12.37527752  171.34100342    4.90999985    2.03999996
   12.37944412  221.75100708    4.90999985    2.03999996
   12.38249969  231.02099609    4.90999985    2.07999992
   12.38583279  206.02799988    4.90999985    2.09999990
   12.38833332  213.13000488    4.90999985    2.07999992
   12.38944435  256.38299561    4.90999985    2.05999994
   12.39277744  185.94900513    4.90999985    2.15000010
   12.39611053  169.37800598    4.90999985    2.32999992
   12.39916611  191.15699768    4.90999985    2.28999996
   12.40249920  151.46499634    4.90999985    2.21000004
   12.40583324  329.96200562    4.90999985    1.98000002
   12.40888882  312.90899658    4.90999985    1.85000002
   12.41222191  233.55000305    4.90999985    1.88000000
   12.41805553  233.55000305    4.90999985    2.07999992
   12.42222214  200.35499573    4.90999985    2.15000010
   12.42555618  209.65499878    4.90999985    2.09999990
   12.42861176  182.50399780    4.90999985    2.23000002
   12.43194485  186.10600281    4.90999985    2.25000000
   12.43500042  182.70599365    4.90999985    2.25000000
   12.43833351  172.50900269    4.90999985    2.26999998
   12.44166660  175.64199829    4.90999985    2.28999996
   12.44472218  171.88800049    4.90999985    2.28999996
   12.44805527  177.63699341    4.90999985    2.30999994
   12.45138836  170.72399902    4.90999985    2.32999992
   12.45444393  175.28599548    4.90999985    2.30999994
   12.45499992  176.71099854    4.90999985    2.30999994
   12.46083355  176.71099854    4.90999985    2.28999996
   12.46500015  176.48300171    4.90999985    2.25000000
   12.46833324  161.39900208    4.90999985    2.26999998
   12.47138882  162.04899597    4.90999985    2.13000011
   12.47472191  249.19200134    4.90999985    2.05999994
   12.47805500  228.77000427    4.90999985    1.94000006
   12.48111057  202.91700745    4.90999985    1.96000004
   12.48444462  314.25201416    4.90999985    1.85000002
   12.48750019   78.84429932    4.90999985    1.64999998
   12.48833370   58.40689850    4.90999985    1.64999998
   12.49138927  190.98500061    4.90999985    1.46000004
   12.49444485  272.93399048    4.90999985    1.69000006
   12.49777794  191.32000732    4.90999985    2.00000000
   12.50388908  191.32000732    4.90999985    2.15000010
   12.50777817  183.96099854    4.90999985    2.23000002
   12.51111126  164.76699829    4.90999985    2.30999994
   12.51444435  164.34800720    4.90999985    2.36999989
   12.51749992  163.94700623    4.59999990    2.36999989
   12.52083302  160.42900085    3.14000010    2.39000010
   12.52166653  170.97000122    2.76999998    2.39000010
   12.52444458  169.30299377    2.11999989    2.39000010
   12.52777767  169.26699829    2.05999994    2.40000010
   12.53083324  162.59100342    2.55999994    2.39000010
   12.53416729  170.15100098    3.14000010    2.36999989
   12.53722286  165.69500732    3.46000004    2.36999989
   12.54055595  184.52400208    3.70000005    2.32999992
   12.54666710  184.52400208    4.90999985    2.13000011
   12.55083370  176.32699585    4.90999985    2.28999996
   12.55388927  169.16499329    4.90999985    2.30999994
   12.55500031  173.53999329    4.90999985    2.30999994
   12.55749989  186.51699829    4.90999985    2.26999998
   12.56055546  145.03999329    4.90999985    2.26999998
   12.56388950  186.52200317    4.90999985    2.11999989
   12.56722260  165.80400085    4.90999985    2.36999989
   12.57027817  162.34500122    4.90999985    2.39000010
   12.57361126  172.32699585    4.90999985    2.39000010
   12.57666683  170.01499939    4.23999977    2.36999989
   12.57999992  175.94900513    3.50000000    2.39000010
   12.58333302  159.52600098    3.05999994    2.39000010
   12.58944416  159.52600098    2.03999996    2.40000010
   12.59361076  167.86199951    1.46000004    2.40000010
   12.59694386  165.73399353    1.33000004    2.40000010
   12.60000038  159.74099731    1.28999996    2.40000010
   12.60333347  150.22799683    1.26999998    2.39000010
   12.60638905  164.26199341    1.34000003    2.30999994
   12.60972214  154.80000305    1.53999996    2.39000010
   12.61305618  160.73599243    1.61000001    2.40000010
   12.61611176  176.15800476    1.58000004    2.40000010
   12.61944485  181.35600281    1.44000006    2.40000010
   12.62166691  187.19999695    1.44000006    2.40000010
   12.62305546  235.56700134    1.44000006    2.40000010
   12.62611103  248.36399841    1.38000000    2.40000010
   12.63222218  248.36399841    0.73000002    2.40000010
   12.63638878  203.51899719    0.73000002    2.42000008
   12.63972187  164.89700317    0.73000002    2.42000008
   12.64277744  153.74200439    0.64999998    2.42000008
   12.64611053  198.41000366    0.67000002    2.42000008
   12.64944458  160.08999634    0.67000002    2.42000008
   12.65249920  174.05000305    0.67000002    2.42000008
   12.65499973  160.71800232    0.67000002    2.42000008
   12.65638828  162.45300293    0.67000002    2.42000008
   12.65972137  165.62899780    0.69000000    2.42000008
   12.66277695  158.47599792    0.69000000    2.44000006
   12.66611099  159.74899292    0.69000000    2.44000006
   12.66916656  173.88900757    0.73000002    2.44000006
   12.67500019  173.88900757    0.80000001    2.44000006
   12.67916679  155.27299500    0.80000001    2.44000006
   12.68249989  162.51600647    0.80000001    2.44000006
   12.68583298  156.70100403    0.95999998    2.44000006
   12.68833351  168.63200378    2.50000000    2.40000010
   12.68944454  154.00900269    2.51999998    2.40000010
   12.69250011  166.15199280    2.55999994    2.39000010
   12.69583321  155.43800354    2.57999992    2.40000010
   12.69916630  163.11300659    2.69000006    2.32999992
   12.70222187  167.48699951    3.07999992    2.40000010
   12.70555496  153.17599487    3.82999992    2.42000008
   12.70888901  158.06199646    4.03999996    2.46000004
   12.71194458  150.87600708    3.72000003    2.46000004
   12.71805477  150.87600708    3.70000005    2.40000010
   12.72222137  163.84700012    4.90999985    2.34999990
   12.72527695  164.65199280    4.90999985    2.30999994
   12.72861099  176.14599609    4.90999985    2.19000006
   12.73166656  171.95399475    4.90999985    2.25000000
   12.73500061  160.83299255    4.90999985    2.28999996
   12.73833370  173.35600281    4.90999985    2.34999990
   12.74138927  176.55400085    4.90999985    2.30999994
   12.76055527  158.50100708    4.90999985    2.34999990
   12.76472187  158.50100708    4.90999985    2.25000000
   12.76861095  161.07099915    4.90999985    2.36999989
   12.77194405  155.29299927    4.90999985    2.40000010
   12.77527714  158.02499390    4.90999985    2.42000008
   12.77861118  158.55200195    4.90999985    2.40000010
   12.78166676  154.05000305    3.82999992    2.42000008
   12.78500080  150.06300354    2.67000008    2.46000004
   12.78833389  149.25999451    1.88000000    2.46000004
   12.79138947  159.11999512    1.38000000    2.48000002
   12.79361153  151.46400452    1.21000004    2.46000004
   12.79500008  155.00599670    1.16999996    2.46000004
   12.79833412  157.19999695    1.11000001    2.46000004
   12.80138874  158.74899292    1.13000000    2.46000004
   12.80749989  158.74899292    1.26999998    2.46000004
   12.81166649  161.77699280    1.34000003    2.48000002
   12.81472206  156.49200439    1.23000002    2.46000004
   12.81805515  161.41299438    1.01999998    2.46000004
   12.82138920  158.34100342    0.80000001    2.46000004
   12.82444477  144.08500671    0.75000000    2.48000002
   12.82722187  152.82400513    0.79000002    2.48000002
   12.82805538  159.31700134    0.80000001    2.48000002
   12.83138847  151.61000061    0.98000002    2.48000002
   12.83444405  150.37100220    1.38000000    2.48000002
   12.83777714  158.69900513    1.96000004    2.48000002
   12.84111118  152.19999695    2.71000004    2.48000002
   12.84416676  152.01300049    3.14000010    2.48000002
   12.85027790  152.01300049    4.90999985    2.40000010
   12.85444450  175.09399414    4.90999985    2.30999994
   12.85777855  172.22300720    4.90999985    2.32999992
   12.86027813  162.75900269    4.90999985    2.32999992
   12.86111164  172.61900330    4.90999985    2.32999992
   12.86444473  217.13400269    4.90999985    2.26999998
   12.86750031  219.39300537    4.90999985    2.11999989
   12.87083340  221.81399536    4.90999985    2.21000004
   12.87416649  198.99000549    4.90999985    2.15000010
   12.87722206  204.16400146    4.90999985    2.17000008
   12.88055611  220.22900391    4.90999985    2.15000010
   12.88388920  165.45399475    4.90999985    2.25000000
   12.88694477  196.88099670    4.90999985    2.30999994
   12.89305496  196.88099670    4.90999985    2.26999998
   12.89722252  164.34199524    4.90999985    2.42000008
   12.90055561  176.98599243    4.90999985    2.34999990
   12.90361118  161.33700562    4.90999985    2.36999989
   12.90694427  197.16200256    4.90999985    2.34999990
   12.91027737  170.41700745    4.90999985    2.21000004
   12.91333294  162.33200073    4.90999985    2.32999992
   12.91666698  238.64500427    4.90999985    2.32999992
   12.92000008  207.38099670    4.90999985    2.11999989
   12.92305565  237.66600037    4.90999985    1.98000002
   12.92638874  163.57299805    4.90999985    2.13000011
   12.92805576  169.64199829    4.90999985    2.32999992
   12.93000031  141.92799377    4.90999985    2.42000008
   12.93611145  141.92799377    4.90999985    2.28999996
   12.94000053  163.97200012    4.90999985    2.23000002
   12.94333363  180.01499939    4.90999985    2.13000011
   12.94666672  176.16400146    4.90999985    2.17000008
   12.94972229  181.84199524    4.90999985    2.21000004
   12.95305538  180.99299622    4.90999985    2.28999996
   12.95638847  151.08700562    4.90999985    2.39000010
   12.95944405  152.60200500    4.90999985    2.46000004
   12.96138859  157.95799255    4.90999985    2.42000008
   12.96305561  200.20599365    4.90999985    2.32999992
   12.96638870  152.27099609    4.90999985    2.25000000
   12.96944427  157.94299316    4.90999985    2.46000004
   12.97277737  164.41600037    4.90999985    2.50000000
   12.97888851  164.41600037    2.26999998    2.46000004
   12.98305511  157.21499634    2.39000010    2.46000004
   12.98611164  160.30999756    2.48000002    2.50000000
   12.98944473  151.70300293    2.28999996    2.50000000
   12.99277782  140.00999451    2.23000002    2.50000000
   12.99499989  160.32200623    2.61999989    2.48000002
   12.99638939  150.42199707    2.91000009    2.48000002
   12.99944496  168.18899536    4.01999998    2.48000002
   13.00277805  161.28300476    4.84999990    2.48000002
   13.00611115  126.15599823    4.90999985    2.48000002
   13.00916672  222.81199646    4.90999985    2.30999994
   13.01249981  196.49099731    4.90999985    2.19000006
   13.01583290  173.59399414    4.90999985    2.44000006
   13.02166653  173.59399414    4.90999985    2.46000004
   13.02583313  157.09300232    4.90999985    2.34999990
   13.02833271  173.18400574    4.90999985    2.42000008
   13.02944374  168.52299500    4.90999985    2.39000010
   13.03277779  181.41099548    4.84999990    2.42000008
   13.03583336  180.90899658    4.21999979    2.48000002
   13.03916740  172.12500000    3.61999989    2.50000000
   13.04250050  168.97099304    2.75000000    2.48000002
   13.04555607  164.35299683    1.34000003    2.53999996
   13.04888916  171.32600403    0.80000001    2.53999996
   13.05194473  157.20899963    0.58999997    2.51999998
   13.05527782  162.05599976    0.55000001    2.53999996
   13.05861092  154.88099670    0.55000001    2.51999998
   13.06444454  154.88099670    0.55000001    2.53999996
   13.06861115  159.65699768    0.51999998    2.51999998
   13.07194424  148.37500000    0.52999997    2.53999996
   13.07527733  155.12100220    0.51999998    2.53999996
   13.07833290  155.13699341    0.51999998    2.53999996
   13.08166695  158.58200073    0.51999998    2.51999998
   13.08472157  160.43299866    0.51999998    2.53999996
   13.08805561  158.96099854    0.55000001    2.53999996
   13.09138870  156.69099426    0.69000000    2.53999996
   13.09444427  142.36900330    0.95999998    2.50000000
   13.09555531  138.83500671    0.95999998    2.50000000
   13.09805489  150.63099670    1.58000004    2.51999998
   13.10138893  155.68899536    2.05999994    2.53999996
   13.10750008  155.68899536    3.53999996    2.48000002
   13.11138916  159.08900452    4.90999985    2.46000004
   13.11472225  147.36900330    4.90999985    2.48000002
   13.11805534  154.07499695    4.90999985    2.42000008
   13.12111092  173.89399719    4.90999985    2.34999990
   13.12444496  166.25399780    4.90999985    2.36999989
   13.12777805  163.04499817    4.90999985    2.42000008
   13.12888908  164.17799377    4.90999985    2.42000008
   13.13111115  158.51899719    4.90999985    2.44000006
   13.13444424  161.70100403    4.90999985    2.40000010
   13.13749981  146.51600647    4.90999985    2.44000006
   13.14083290  155.85800171    4.90999985    2.42000008
   13.14416695  169.27499390    4.90999985    2.39000010
   13.15027714  169.27499390    4.90999985    2.26999998
   13.15444374  232.39399719    4.90999985    2.09999990
   13.15749931  203.37199402    4.90999985    2.17000008
   13.16083336  461.82000732    4.90999985    2.00000000
   13.16277695  537.75299072    4.90999985    1.75000000
   13.16416645  421.08300781    4.90999985    1.75000000
   13.16555500  362.97601318    4.90999985    1.86000001
   13.16694450  396.33599854    4.90999985    1.88000000
   13.16833401  395.72000122    4.90999985    1.88000000
   13.16972256  546.27697754    4.90999985    1.88000000
   13.17111111  373.55599976    4.90999985    1.85000002
   13.17250061  283.07699585    4.90999985    1.85000002
   13.17250061  169.27499390    4.90999985    2.39000010
   13.17250061  232.39399719    4.90999985    2.09999990
   13.17250061  203.37199402    4.90999985    2.17000008
   13.17277813  461.82000732    4.90999985    2.00000000
   13.17277813  163.04499817    4.90999985    2.42000008
   13.17277813  158.51899719    4.90999985    2.44000006
   13.17277813  161.70100403    4.90999985    2.40000010
   13.17305565  146.51600647    4.90999985    2.44000006
   13.17305565  155.85800171    4.90999985    2.42000008
   13.17361164  259.59100342    4.90999985    1.89999998
   13.17666721  213.78700256    4.90999985    2.07999992
   13.18000031  184.82699585    4.90999985    2.28999996
   13.18333340  148.15299988    4.90999985    2.34999990
   13.18638897  183.39999390    4.90999985    2.36999989
   13.19333363  183.39999390    4.90999985    2.48000002
   13.19750023  164.87600708    4.13999987    2.51999998
   13.20055580  174.55499268    2.64000010    2.53999996
   13.20388889  171.15600586    1.25000000    2.55999994
   13.20638847  156.66900635    0.94000000    2.55999994
   13.20749950  175.57299805    0.88000000    2.55999994
   13.21083355  169.69400024    0.79000002    2.55999994
   13.21416664  161.58299255    0.52999997    2.53999996
   13.21722221  155.55900574    0.50000000    2.55999994
   13.22055531  158.75700378    0.47999999    2.55999994
   13.22361088  147.34599304    0.47999999    2.55999994
   13.22694397  151.82400513    0.47999999    2.55999994
   13.23027706  148.99299622    0.47999999    2.55999994
   13.23611164  148.99299622    0.47999999    2.55999994
   13.24027824  147.27299500    0.47999999    2.55999994
   13.24333382  139.47599792    0.47999999    2.55999994
   13.24666691  148.93400574    0.47999999    2.55999994
   13.25000000  153.94000244    0.47999999    2.55999994
   13.25305557  147.05299377    0.47999999    2.55999994
   13.25638866  143.46800232    0.47999999    2.55999994
   13.25972176  154.60200500    0.47999999    2.55999994
   13.26277733  154.59100342    0.47999999    2.55999994
   13.26611137  147.54299927    0.47999999    2.55999994
   13.26916599  151.42500305    0.50000000    2.55999994
   13.27250004  156.68099976    0.50000000    2.55999994
   13.27305508  164.58500671    0.50000000    2.57999992
   13.27888870  164.58500671    0.50000000    2.55999994
   13.28305531  154.30799866    0.50000000    2.55999994
   13.28638935  168.27000427    0.56999999    2.55999994
   13.28944492  154.95799255    1.14999998    2.55999994
   13.29277802  156.07899475    1.14999998    2.55999994
   13.29583359  154.65100098    2.39000010    2.55999994
   13.29916668  141.21499634    2.50000000    2.53999996
   13.30249977  147.99299622    2.40000010    2.51999998
   13.30555534  144.80900574    2.17000008    2.53999996
   13.30638885  137.86099243    2.11999989    2.53999996
   13.30944443  140.50100708    1.98000002    2.55999994
   13.31250000  142.92700195    2.03999996    2.57999992
   13.31583309  130.96600342    1.73000002    2.55999994
   13.32166672  130.96600342    1.13000000    2.53999996
   13.32583332  140.27200317    1.11000001    2.55999994
   13.32916641  146.72900391    0.98000002    2.55999994
   13.33249950  139.37300110    0.92000002    2.57999992
   13.33555508  150.74000549    0.51999998    2.55999994
   13.33888817  140.08200073    0.50000000    2.57999992
   13.33972168  139.04699707    0.50000000    2.57999992
   13.34249973  136.78399658    0.50000000    2.57999992
   13.34555531  143.37300110    0.50000000    2.57999992
   13.34888840  152.01600647    0.50000000    2.57999992
   13.35194492  163.84300232    0.50000000    2.57999992
   13.35527802  155.47500610    0.50000000    2.57999992
   13.35861111  162.25399780    0.50000000    2.57999992
   13.36472225  162.25399780    0.50000000    2.59999990
   13.36861134  155.50999451    0.51999998    2.57999992
   13.37194443  149.33599854    0.51999998    2.57999992
   13.37305546  153.79400635    0.51999998    2.59999990
   13.37555599  159.60499573    0.51999998    2.59999990
   13.37861156  148.68499756    0.52999997    2.57999992
   13.38194466  157.52000427    0.52999997    2.57999992
   13.38527775  138.20799255    0.52999997    2.57999992
   13.38833332  153.50900269    0.50000000    2.57999992
   13.39166641  154.17100525    0.50000000    2.57999992
   13.39499950  135.29100037    0.50000000    2.57999992
   13.39805508  140.06900024    0.50000000    2.57999992
   13.40138817  145.61399841    0.50000000    2.59999990
   13.40749931  145.61399841    0.51999998    2.57999992
   13.41166592  125.35900116    0.51999998    2.57999992
   13.41499996  150.30799866    0.51999998    2.57999992
   13.41805553  149.47000122    0.51999998    2.57999992
   13.42138958  150.56199646    0.51999998    2.57999992
   13.42472267  149.95599365    0.52999997    2.59999990
   13.42777824  140.56599426    0.51999998    2.57999992
   13.43111134  139.80700684    0.51999998    2.59999990
   13.43416691  140.14199829    0.50000000    2.59999990
   13.43750000  151.24899292    0.50000000    2.59999990
   13.43972206  154.00599670    0.50000000    2.59999990
   13.44111156  155.37300110    0.50000000    2.59999990
   13.44444466  151.64599609    0.50000000    2.59999990
   13.45027733  151.64599609    0.51999998    2.59999990
   13.45444393  160.80499268    0.51999998    2.59999990
   13.45777798  158.11500549    0.51999998    2.59999990
   13.46083355  157.15600586    0.52999997    2.57999992
   13.46416664  141.67599487    0.52999997    2.57999992
   13.46722221  163.13900757    0.56999999    2.59999990
   13.47055531  158.90499878    0.58999997    2.59999990
   13.47305489  147.30900574    0.58999997    2.59999990
   13.47416592  143.44099426    0.58999997    2.59999990
   13.47722149  137.52600098    0.56999999    2.59999990
   13.48055553  131.61500549    0.76999998    2.59999990
   13.48388958  157.72999573    1.98000002    2.59999990
   13.48694515  183.64900208    4.65999985    2.51999998
   13.49305534  183.64900208    4.90999985    2.39000010
   13.49722290  176.70100403    4.90999985    2.44000006
   13.50055599  177.95300293    4.90999985    2.40000010
   13.50361156  175.28999329    4.90999985    2.48000002
   13.50638866  169.50999451    4.90999985    2.44000006
   13.50749969  176.50100708    4.78000021    2.48000002
   13.51055527  171.23800659    3.70000005    2.55999994
   13.51388931  172.74099731    2.67000008    2.59999990
   13.51694393  151.67199707    1.58000004    2.59999990
   13.52027798  158.04899597    2.09999990    2.61999989
   13.52361107  172.63299561    2.73000002    2.59999990
   13.52666664  165.66600037    2.91000009    2.57999992
   13.52999973  181.41200256    3.28999996    2.32999992
   13.53611183  181.41200256    4.90999985    2.57999992
   13.54000092  174.57600403    3.66000009    2.57999992
   13.54333401  178.22900391    2.98000002    2.59999990
   13.54666710  173.53799438    2.76999998    2.57999992
   13.54972267  175.66999817    2.98000002    2.57999992
   13.55305576  186.72200012    3.73000002    2.55999994
   13.55638885  181.66999817    4.36999989    2.57999992
   13.55944443  162.05400085    4.65999985    2.53999996
   13.56277752  177.22900391    4.90999985    2.57999992
   13.56583309  160.61999512    4.90999985    2.55999994
   13.56916618  185.94200134    4.90999985    2.57999992
   13.57250023  183.16099548    4.90999985    2.55999994
   13.57305527  164.19700623    4.90999985    2.55999994
   13.57888889  164.19700623    4.17999983    2.50000000
   13.58305550  184.46699524    3.59999990    2.59999990
   13.58611107  159.52699280    2.66000009    2.57999992
   13.58944416  189.25500488    1.88000000    2.59999990
   13.59277725  181.99899292    1.51999998    2.61999989
   13.59583282  175.92199707    1.36000001    2.59999990
   13.59916592  177.86099243    1.13000000    2.59999990
   13.60222244  182.01199341    1.03999996    2.59999990
   13.60555553  198.41099548    1.00000000    2.59999990
   13.60638905  187.99000549    0.98000002    2.61999989
   13.60916710  191.20399475    0.75000000    2.61999989
   13.61222267  209.18299866    0.63000000    2.59999990
   13.61555576  206.71099854    0.55000001    2.59999990
   13.62166691  206.71099854    0.55000001    2.61999989
   13.62583351  191.03599548    0.51999998    2.61999989
   13.62916660  174.73899841    0.52999997    2.61999989
   13.63222218  189.49899292    0.52999997    2.61999989
   13.63555527  201.32200623    0.51999998    2.61999989
   13.63861084  182.78900146    0.51999998    2.64000010
   13.63972187  203.97500610    0.51999998    2.64000010
   13.64249992  210.11300659    0.51999998    2.61999989
   13.64555550  201.64100647    0.51999998    2.61999989
   13.64888859  211.65699768    0.50000000    2.61999989
   13.65222168  192.43099976    0.50000000    2.64000010
   13.65527725  202.00399780    0.50000000    2.64000010
   13.65861034  182.26199341    0.50000000    2.61999989
   13.66444397  182.26199341    0.47999999    2.61999989
   13.66861153  180.94299316    0.50000000    2.64000010
   13.67194462  206.99400330    0.47999999    2.61999989
   13.67305565  180.08200073    0.47999999    2.61999989
   13.67555618  184.26499939    0.50000000    2.61999989
   13.67888927  180.11399841    0.50000000    2.61999989
   13.68194485  185.07600403    0.50000000    2.61999989
   13.68527794  192.97900391    0.47999999    2.61999989
   13.68833351  193.14799500    0.47999999    2.61999989
   13.69166660  189.48699951    0.47999999    2.61999989
   13.69499969  182.04299927    0.47999999    2.61999989
   13.69805527  208.90600586    0.47999999    2.64000010
   13.70138836  173.00199890    0.47999999    2.64000010
   13.70749950  173.00199890    0.47999999    2.64000010
   13.71138859  166.42799377    0.47999999    2.64000010
   13.71472168  190.57899475    0.47999999    2.61999989
   13.71805477  177.53199768    0.47999999    2.64000010
   13.72111034  171.89500427    0.47999999    2.64000010
   13.72444439  192.64900208    0.47999999    2.64000010
   13.72777748  188.83099365    0.47999999    2.61999989
   13.73083305  173.97900391    0.50000000    2.61999989
   13.73416710  187.55700684    0.50000000    2.61999989
   13.73722267  170.16600037    0.50000000    2.64000010
   13.73972225  173.17599487    0.50000000    2.64000010
   13.74111176  185.06900024    0.50000000    2.64000010
   13.74416733  160.32699585    0.51999998    2.64000010
   13.75027752  160.32699585    0.50000000    2.64000010
   13.75444412  165.62399292    0.50000000    2.61999989
   13.75749969  186.45899963    0.51999998    2.64000010
   13.76083374  178.11399841    0.51999998    2.61999989
   13.77777767  181.24400330    0.51999998    2.64000010
   13.78083324  183.48399353    0.51999998    2.64000010
   13.78416729  183.15899658    0.51999998    2.64000010
   13.78722286  151.63000488    0.50000000    2.61999989
   13.79333401  151.63000488    0.50000000    2.64000010
   13.79750061  173.67199707    0.50000000    2.61999989
   13.80055618  180.08799744    0.50000000    2.64000010
   13.80388927  160.30599976    0.50000000    2.64000010
   13.80722237  186.79299927    0.50000000    2.64000010
   13.81027794  169.91099548    0.50000000    2.64000010
   13.81111145  170.08399963    0.50000000    2.64000010
   13.81388950  169.85400391    0.50000000    2.64000010
   13.81722260  155.73199463    0.52999997    2.64000010
   13.82027817  166.99600220    0.52999997    2.64000010
   13.82361126  171.92300415    0.51999998    2.64000010
   13.82666683  165.82200623    0.51999998    2.64000010
   13.82999992  162.87500000    0.51999998    2.61999989
   13.83611107  162.87500000    0.51999998    2.64000010
   13.84027767  169.82400513    0.51999998    2.64000010
   13.84361076  157.57499695    0.50000000    2.64000010
   13.84444427  176.58599854    0.47999999    2.64000010
   13.84722233  164.61700439    0.47999999    2.64000010
   13.85055637  173.68600464    0.47999999    2.64000010
   13.85361195  178.57400513    0.47999999    2.64000010
   13.85694504  149.48800659    0.47999999    2.64000010
   13.86000061  173.15400696    0.47999999    2.64000010
   13.86333370  164.32699585    0.47999999    2.64000010
   13.86666679  170.91099548    0.47999999    2.64000010
   13.86972237  159.19000244    0.47999999    2.64000010
   13.87305546  156.27999878    0.47999999    2.64000010
   13.87888908  156.27999878    0.47999999    2.66000009
   13.88305569  162.20100403    0.47999999    2.64000010
   13.88638878  165.65699768    0.47999999    2.64000010
   13.88944435  152.91299438    0.47999999    2.64000010
   13.89277744  153.13200378    0.47999999    2.64000010
   13.89611053  165.28300476    0.47999999    2.64000010
   13.89916611  142.70199585    0.47999999    2.64000010
   13.90249920  166.45199585    0.47999999    2.64000010
   13.90583324  150.70500183    0.47999999    2.66000009
   13.90888882  163.60499573    0.50000000    2.64000010
   13.91111088  150.69799805    0.50000000    2.64000010
   13.91249943  151.04499817    0.52999997    2.64000010
   13.91583252  163.22900391    0.58999997    2.64000010
   13.92194462  163.22900391    1.11000001    2.64000010
   13.92611122  162.44400024    1.11000001    2.64000010
   13.92916679  154.02099609    0.83999997    2.66000009
   13.93249989  153.94400024    0.67000002    2.66000009
   13.93555546  167.48800659    0.67000002    2.66000009
   13.93888855  167.64199829    0.69000000    2.66000009
   13.94222260  164.74299622    0.70999998    2.66000009
   13.94444466  161.61599731    0.79000002    2.66000009
   13.94583321  156.99099731    2.21000004    2.64000010
   13.94916630  174.51699829    2.55999994    2.64000010
   13.95222187  157.64199829    4.90999985    2.61999989
   13.95555496  167.06700134    4.90999985    2.61999989
   13.95861053  167.86399841    4.78000021    2.61999989
   13.96472168  167.86399841    3.72000003    2.66000009
   13.96888828  171.31500244    4.44999981    2.61999989
   13.97194386  153.88600159    4.90999985    2.59999990
   13.97527695  164.59599304    4.90999985    2.59999990
   13.97777748  155.21400452    4.90999985    2.59999990
   13.97888851  175.66999817    4.90999985    2.59999990
   13.98222160  165.76400757    4.90999985    2.57999992
   13.98527813  174.10800171    4.90999985    2.53999996
   13.98861122  176.62600708    4.90999985    2.59999990
   13.99166679  166.98500061    4.90999985    2.59999990
   13.99499989  174.84800720    4.90999985    2.53999996
   13.99833393  153.65400696    4.90999985    2.57999992
   14.00138855  167.13099670    4.90999985    2.59999990
   14.00749969  167.13099670    4.44999981    2.61999989
   14.01166630  160.94200134    3.78999996    2.64000010
   14.01500034  163.84199524    3.11999989    2.64000010
   14.01805496  154.74600220    3.07999992    2.64000010
   14.02138901  151.27400208    2.98000002    2.64000010
   14.02444458  148.71600342    2.48000002    2.64000010
   14.02777767  153.00399780    1.76999998    2.66000009
   14.03111076  162.76499939    1.44000006    2.66000009
   14.03416729  160.61000061    1.19000006    2.66000009
   14.03750038  158.17399597    1.05999994    2.66000009
   14.04083347  161.23199463    0.95999998    2.66000009
   14.04388905  156.59700012    0.86000001    2.66000009
   14.04444504  155.12600708    0.86000001    2.66000009
   14.05027771  155.12600708    0.50000000    2.66000009
   14.05444431  152.96099854    0.50000000    2.66000009
   14.05777836  156.85800171    0.47999999    2.67000008
   14.06083393  163.46699524    0.47999999    2.66000009
   14.06416702  151.14700317    0.44000000    2.66000009
   14.06750011  159.88000488    0.44000000    2.66000009
   14.07055569  144.76100159    0.44000000    2.66000009
   14.07388878  162.87300110    0.44000000    2.67000008
   14.07722187  149.86900330    0.46000001    2.66000009
   14.07777786  140.94999695    0.46000001    2.66000009
   14.08083344  142.18099976    0.46000001    2.66000009
   14.08416653  158.83799744    0.46000001    2.66000009
   14.08722210  152.09500122    0.46000001    2.67000008
   14.09333324  152.09500122    0.46000001    2.67000008
   14.09749985  155.78999329    0.46000001    2.67000008
   14.10055637  160.39900208    0.46000001    2.66000009
   14.10388947  155.24899292    0.46000001    2.66000009
   14.10694504  149.43800354    0.46000001    2.67000008
   14.11027813  160.91600037    0.46000001    2.67000008
   14.11111164  155.62800598    0.46000001    2.67000008
   14.11388969  165.57499695    0.46000001    2.67000008
   14.11722279  165.74400330    0.44000000    2.67000008
   14.12027836  171.42799377    0.44000000    2.66000009
   14.12361145  164.15800476    0.44000000    2.67000008
   14.12666702  155.82600403    0.44000000    2.67000008
   14.13000011  155.49200439    0.44000000    2.67000008
   14.13611126  155.49200439    0.41999999    2.67000008
   14.14027786  162.96899414    0.41999999    2.66000009
   14.14333344  163.55099487    0.44000000    2.67000008
   14.14444447  163.68699646    0.44000000    2.67000008
   14.14694405  166.64799500    0.44000000    2.67000008
   14.15027714  169.61900330    0.44000000    2.67000008
   14.15333271  165.74200439    0.44000000    2.67000008
   14.15666676  149.10499573    0.44000000    2.67000008
   14.15972137  162.05999756    0.44000000    2.67000008
   14.16305542  163.92599487    0.44000000    2.67000008
   14.16638851  157.40199280    0.44000000    2.67000008
   14.16944504  153.25799561    0.44000000    2.67000008
   14.17277813  158.71699524    0.44000000    2.67000008
   14.17888927  158.71699524    0.41999999    2.67000008
   14.18305588  159.47700500    0.44000000    2.67000008
   14.18638897  155.60000610    0.44000000    2.67000008
   14.18944454  153.26800537    0.52999997    2.67000008
   14.19277763  168.08299255    2.05999994    2.64000010
   14.19583321  157.25100708    2.25000000    2.66000009
   14.19916630  160.96000671    2.13000011    2.67000008
   14.20249939  146.62300110    2.13000011    2.67000008
   14.20583344  170.61000061    0.75000000    2.67000008
   14.20888901  136.53300476    0.76999998    2.67000008
   14.21111107  148.76800537    0.76999998    2.67000008
   14.21249962  148.66700745    0.79000002    2.66000009
   14.21583271  161.55000305    0.76999998    2.67000008
   14.22166634  161.55000305    0.67000002    2.67000008
   14.22583294  152.01800537    0.50000000    2.67000008
   14.22916603  147.47399902    0.50000000    2.67000008
   14.23222160  151.36999512    0.51999998    2.67000008
   14.23555565  147.57299805    0.51999998    2.67000008
   14.23888874  147.69099426    0.50000000    2.67000008
   14.24194431  152.57699585    0.52999997    2.67000008
   14.24444485  145.15100098    0.52999997    2.67000008
   14.24555588  145.23199463    0.51999998    2.67000008
   14.24888897  130.92100525    0.52999997    2.67000008
   14.25194454  150.51400757    0.52999997    2.67000008
   14.25527763  148.75999451    0.55000001    2.67000008
   14.25861073  149.56100464    0.83999997    2.67000008
   14.26472187  149.56100464    1.50000000    2.67000008
   14.26861095  147.66999817    3.05999994    2.66000009
   14.27194405  142.78199768    3.46000004    2.64000010
   14.27527714  140.91999817    4.05999994    2.64000010
   14.27777767  139.68299866    4.34999990    2.64000010
   14.27888870  144.45199585    4.32999992    2.64000010
   14.28222179  140.25199890    4.13999987    2.61999989
   14.28527832  143.84199524    3.72000003    2.64000010
   14.28861141  141.27699280    3.41000009    2.64000010
   14.29194450  142.41700745    3.93000007    2.64000010
   14.29500008  151.28799438    4.76000023    2.64000010
   14.29833412  150.90600586    4.90999985    2.66000009
   14.30138874  138.50799561    4.90999985    2.61999989
   14.30749989  138.50799561    4.90999985    2.59999990
   14.31166649  148.65699768    4.90999985    2.59999990
   14.31472206  140.68299866    4.90999985    2.61999989
   14.31805515  145.41299438    4.90999985    2.61999989
   14.32138920  149.77299500    3.11999989    2.67000008
   14.32444477  150.25399780    1.73000002    2.67000008
   14.32777786  152.93200684    1.30999994    2.69000006
   14.33083344  139.20500183    1.25000000    2.66000009
   14.33416653  146.80799866    1.21000004    2.66000009
   14.33749962  150.41299438    1.05999994    2.66000009
   14.34055519  157.33999634    0.64999998    2.67000008
   14.34388828  149.24099731    0.50000000    2.67000008
   14.34444427  143.08900452    0.50000000    2.67000008
   14.35027790  143.08900452    0.47999999    2.67000008
   14.35444450  161.56900024    0.44000000    2.69000006
   14.35777855  152.68499756    0.44000000    2.67000008
   14.36083412  139.49200439    0.41999999    2.71000004
   14.36416721  164.11199951    0.41999999    2.71000004
   14.36750031  147.08900452    0.41999999    2.69000006
   14.37055588  157.45399475    0.41999999    2.69000006
   14.37388897  151.95500183    0.41999999    2.69000006
   14.37722206  168.16299438    0.44000000    2.69000006
   14.37777805  155.54100037    0.44000000    2.69000006
   14.38083363  163.55200195    0.47999999    2.67000008
   14.38416672  164.81500244    0.50000000    2.69000006
   14.38722229  150.26199341    0.69000000    2.69000006
   14.39305496  150.26199341    0.51999998    2.69000006
   14.39722252  142.55499268    0.47999999    2.69000006
   14.40055561  149.21499634    0.47999999    2.69000006
   14.40361118  141.14799500    0.47999999    2.69000006
   14.40694427  159.35499573    0.47999999    2.69000006
   14.41027737  158.28700256    0.50000000    2.69000006
   14.41138840  154.21699524    0.50000000    2.69000006
   14.41416645  146.19200134    0.50000000    2.69000006
   14.41722298  159.02400208    0.50000000    2.69000006
   14.42055607  157.40800476    0.55000001    2.67000008
   14.42388916  153.37699890    0.52999997    2.69000006
   14.42694473  143.19000244    0.52999997    2.69000006
   14.43027782  145.10299683    0.50000000    2.69000006
   14.43611145  145.10299683    0.50000000    2.69000006
   14.44000053  143.79499817    0.51999998    2.69000006
   14.44333363  154.35899353    0.51999998    2.69000006
   14.44444466  139.59800720    0.51999998    2.69000006
   14.44694424  155.81100464    0.51999998    2.69000006
   14.45027733  148.41900635    0.51999998    2.69000006
   14.45361137  153.87199402    0.50000000    2.69000006
   14.45666695  141.21099854    0.47999999    2.69000006
   14.46000004  154.23899841    0.47999999    2.71000004
   14.46333313  154.71699524    0.47999999    2.69000006
   14.46638870  158.04200745    0.47999999    2.69000006
   14.46972179  149.63400269    0.47999999    2.69000006
   14.47305489  149.81399536    0.50000000    2.69000006
   14.47888851  149.81399536    0.55000001    2.69000006
   14.48305511  145.71200562    0.63000000    2.69000006
   14.48611164  152.63999939    0.67000002    2.69000006
   14.48944473  155.88400269    0.69000000    2.69000006
   14.49277782  149.63099670    0.67000002    2.69000006
   14.49583340  155.16900635    0.67000002    2.69000006
   14.49916649  153.03100586    0.67000002    2.69000006
   14.50222206  156.94099426    0.67000002    2.69000006
   14.50555515  149.97900391    0.67000002    2.71000004
   14.50888920  137.30200195    0.67000002    2.69000006
   14.51111126  142.82499695    0.67000002    2.69000006
   14.51249981  149.58799744    0.67000002    2.69000006
   14.51583290  144.02600098    0.63000000    2.69000006
   14.52166653  144.02600098    0.58999997    2.69000006
   14.52583313  148.21099854    0.58999997    2.69000006
   14.52916622  146.55900574    0.58999997    2.69000006
   14.53222179  144.52999878    0.58999997    2.69000006
   14.53555584  154.49099731    0.61000001    2.69000006
   14.53888893  147.76300049    0.51999998    2.69000006
   14.54194450  153.63000488    0.51999998    2.69000006
   14.54444504  141.92599487    0.51999998    2.71000004
   14.54555607  156.82699585    0.51999998    2.71000004
   14.54888916  155.88200378    0.51999998    2.69000006
   14.55222225  143.78500366    0.51999998    2.69000006
   14.55527782  142.35899353    0.50000000    2.69000006
   14.55861092  135.61799622    0.52999997    2.69000006
   14.56444454  135.61799622    0.55000001    2.69000006
   14.56861115  140.52799988    0.52999997    2.69000006
   14.57194424  181.15699768    0.47999999    2.71000004
   14.57499981  199.28700256    0.44000000    2.71000004
   14.57777786  218.80900574    0.44000000    2.71000004
   14.57861137  192.75700378    0.44000000    2.71000004
   14.58194447  231.69000244    0.41999999    2.69000006
   14.58500004  225.48599243    0.41999999    2.69000006
   14.58833313  212.36700439    0.41999999    2.69000006
   14.59166622  212.08200073    0.44000000    2.69000006
   14.59472179  215.26899719    0.44000000    2.69000006
   14.59805489  177.17100525    0.44000000    2.69000006
   14.60138893  183.92199707    0.46000001    2.71000004
   14.60750008  183.92199707    0.46000001    2.69000006
   14.61166668  195.27299500    0.52999997    2.71000004
   14.61472225  188.73599243    0.52999997    2.71000004
   14.61805534  184.69700623    0.52999997    2.69000006
   14.62111092  176.63999939    0.52999997    2.69000006
   14.62444496  199.66099548    0.52999997    2.71000004
   14.62777805  171.82400513    0.56999999    2.69000006
   14.63083363  165.87699890    0.56999999    2.69000006
   14.63416672  153.71000671    0.80000001    2.69000006
   14.63749981  144.40199280    1.21000004    2.69000006
   14.64055538  143.64300537    1.25000000    2.69000006
   14.64388847  133.95100403    1.21000004    2.69000006
   14.64472198  138.75300598    1.21000004    2.69000006
   14.65027714  138.75300598    0.75000000    2.71000004
   14.65444374  134.70700073    0.73000002    2.69000006
   14.65777779  143.82099915    0.67000002    2.69000006
   14.66083336  140.79200745    0.67000002    2.69000006
   14.66416645  128.34300232    0.56999999    2.69000006
   14.66750050  143.23800659    0.56999999    2.69000006
   14.67055607  147.93699646    0.55000001    2.69000006
   14.67388916  139.64300537    0.55000001    2.69000006
   14.67694473  139.05299377    0.63000000    2.71000004
   14.67805576  130.62100220    0.63000000    2.71000004
   14.68055630  149.24899292    0.80000001    2.69000006
   14.68388939  150.09300232    0.80000001    2.69000006
   14.68694496  151.05599976    0.89999998    2.69000006
   14.69305515  151.05599976    1.16999996    2.69000006
   14.69722271  140.06799316    1.25000000    2.71000004
   14.70055580  146.55599976    1.25000000    2.71000004
   14.70388889  151.04100037    0.47999999    2.71000004
   14.70694447  140.14599609    0.47999999    2.69000006
   14.71027756  140.56500244    0.47999999    2.71000004
   14.71138859  174.04800415    0.47999999    2.71000004
   14.71388912  159.97399902    0.47999999    2.69000006
   14.71722221  153.81399536    0.46000001    2.71000004
   14.72055531  143.84300232    0.46000001    2.71000004
   14.72361088  150.45199585    0.46000001    2.71000004
   14.72694397  150.66600037    0.46000001    2.71000004
   14.73027706  146.06100464    0.46000001    2.71000004
   14.73583317  146.06100464    0.46000001    2.71000004
   14.74000072  149.13999939    0.46000001    2.69000006
   14.74333382  151.89199829    0.46000001    2.71000004
   14.74472237  156.05499268    0.46000001    2.71000004
   14.74694443  169.87399292    0.44000000    2.71000004
   14.75027752  129.84500122    0.44000000    2.71000004
   14.75361156  149.13400269    0.44000000    2.71000004
   14.75666714  145.71499634    0.44000000    2.71000004
   14.76000023  150.52099609    0.44000000    2.71000004
   14.76305580  149.68800354    0.44000000    2.71000004
   14.76638889  150.18499756    0.47999999    2.71000004
   14.76972198  153.88600159    0.47999999    2.71000004
   14.77277756  156.84899902    0.47999999    2.71000004
   14.79500008  161.04100037    0.55000001    2.71000004
   14.79555607  138.39199829    0.55000001    2.71000004
   14.79888916  142.67700195    0.52999997    2.71000004
   14.80194473  138.97700500    0.52999997    2.69000006
   14.80527782  135.79899597    0.52999997    2.69000006
   14.80833340  132.38999939    0.56999999    2.71000004
   14.81138897  121.15499878    0.67000002    2.71000004
   14.81194496  128.66600037    0.67000002    2.71000004
   14.91499996   -1.00000000   -1.00000000   -1.00000000
   15.06722260   -1.00000000   -1.00000000   -1.00000000
   15.16861153   -1.00000000   -1.00000000   -1.00000000
   15.20805550  116.28299713    4.90999985    2.66000009
   15.21111107  119.35199738    4.90999985    2.66000009
   15.21444416  119.86499786    4.90999985    2.67000008
   15.21777725  129.07499695    4.90999985    2.66000009
   15.22083282  111.90799713    4.90999985    2.66000009
   15.22416592  122.02600098    4.90999985    2.67000008
   15.22833252  122.02600098    4.40999985    2.71000004
   15.23249912  150.16499329    3.82999992    2.71000004
   15.23583317  134.50500488    2.98000002    2.69000006
   15.23888874  136.97200012    2.69000006    2.69000006
   15.24111176  145.75599670    2.44000006    2.71000004
   15.24250031  150.51899719    2.28999996    2.71000004
   15.24583340  156.43800354    1.71000004    2.73000002
   15.24888897  152.28300476    1.41999996    2.73000002
   15.25222206  152.26199341    1.39999998    2.73000002
   15.25527763  140.31799316    1.38000000    2.75000000
   15.25861073  126.90200043    1.48000002    2.71000004
   15.26194477  130.24200439    1.75000000    2.71000004
   15.26500034  145.41000366    1.88000000    2.71000004
   15.27111053  145.41000366    3.45000005    2.69000006
   15.27527714  142.37300110    4.48999977    2.69000006
   15.27833271  154.15899658    4.48999977    2.71000004
   15.28166676  161.71600342    3.78999996    2.69000006
   15.28500080  156.51199341    3.70000005    2.69000006
   15.28805637  168.06900024    4.32999992    2.69000006
   15.29138947  141.27200317    4.90999985    2.71000004
   15.29444504  156.24099731    4.90999985    2.67000008
   15.29777813  165.93899536    4.90999985    2.61999989
   15.30111122  146.39300537    4.90999985    2.59999990
   15.30416679  152.58000183    4.90999985    2.67000008
   15.30749989  144.17999268    4.90999985    2.66000009
   15.30805588  153.60200500    4.90999985    2.66000009
   15.31388950  153.60200500    4.90999985    2.66000009
   15.31805515  146.04800415    4.90999985    2.67000008
   15.32138920  156.97099304    4.90999985    2.67000008
   15.32444477  147.59700012    4.90999985    2.64000010
   15.32777786  167.61099243    4.90999985    2.61999989
   15.33083344  162.58500671    4.90999985    2.48000002
   15.33416653  160.22900391    4.90999985    2.50000000
   15.33749962  149.66000366    4.90999985    2.53999996
   15.34055519  169.49499512    4.90999985    2.51999998
   15.34138870  147.73300171    4.90999985    2.50000000
   15.34416676  156.92799377    4.90999985    2.51999998
   15.34749985  144.63000488    4.90999985    2.51999998
   15.35083389  159.25900269    4.90999985    2.44000006
   15.35666752  159.25900269    4.90999985    2.51999998
   15.36083412  208.61199951    4.90999985    2.44000006
   15.36416721  189.91400146    4.90999985    2.28999996
   15.36722279  192.90800476    4.90999985    2.39000010
   15.37055588  201.13200378    4.90999985    2.28999996
   15.37388897  196.13400269    4.90999985    2.42000008
   15.37472248  201.70199585    4.90999985    2.42000008
   15.37722206  242.37899780    4.90999985    2.40000010
   15.38055611  206.30099487    4.90999985    2.42000008
   15.38388920  201.31300354    4.90999985    2.39000010
   15.38694477  184.08799744    4.90999985    2.40000010
   15.39027786  148.96000671    4.90999985    2.44000006
   15.39361095  147.03700256    4.90999985    2.51999998
   15.39972210  147.03700256    4.90999985    2.51999998
   15.40388870  198.18200684    4.90999985    2.51999998
   15.40694427  167.05799866    4.90999985    2.50000000
   15.40805531  182.98300171    4.90999985    2.50000000
   15.41083336  144.77699280    4.90999985    2.51999998
   15.41388893  155.98699951    4.90999985    2.57999992
   15.41722298  148.70899963    4.90999985    2.53999996
   15.42055607  155.12800598    4.90999985    2.48000002
   15.42361164  153.94900513    4.90999985    2.44000006
   15.42694473  173.64100647    4.90999985    2.50000000
   15.43000031  138.98300171    4.90999985    2.53999996
   15.43333340  160.81100464    4.90999985    2.50000000
   15.43666649  142.99499512    4.90999985    2.48000002
   15.44250011  142.99499512    4.90999985    2.53999996
   15.44666672  162.88499451    4.90999985    2.51999998
   15.44972229  155.07400513    4.90999985    2.50000000
   15.45305538  145.38000488    4.90999985    2.44000006
   15.45638847  158.27299500    4.90999985    2.50000000
   15.45944405  139.34700012    4.90999985    2.64000010
   15.46277714  152.47599792    4.90999985    2.59999990
   15.46611118  132.14399719    4.90999985    2.61999989
   15.46916580  143.46699524    4.90999985    2.57999992
   15.47249985  154.49699402    4.90999985    2.44000006
   15.47472191  132.02600098    4.90999985    2.50000000
   15.47583294  148.75100708    4.90999985    2.48000002
   15.47916603  164.65899658    4.90999985    2.46000004
   15.48527813  164.65899658    4.90999985    2.59999990
   15.48944473  163.57499695    4.90999985    2.46000004
   15.49277782  140.00999451    4.90999985    2.51999998
   15.49583340  128.37300110    4.90999985    2.51999998
   15.49916649  177.54200745    4.90999985    2.34999990
   15.50222206  158.03399658    4.90999985    2.40000010
   15.50555515  174.00399780    4.90999985    2.51999998
   15.50805569  147.69700623    4.90999985    2.53999996
   15.50944424  172.13400269    4.90999985    2.53999996
   15.51249981  211.51800537    4.90999985    2.51999998
   15.51583290  220.90699768    4.90999985    2.48000002
   15.51888847  163.38200378    4.90999985    2.50000000
   15.52222157  134.47999573    4.90999985    2.53999996
   15.52805519  134.47999573    4.90999985    2.57999992
   15.53222179  135.25900269    4.90999985    2.57999992
   15.53555584  158.35499573    4.90999985    2.59999990
   15.53861141  159.04899597    4.90999985    2.57999992
   15.54138947  150.67999268    4.90999985    2.53999996
   15.54250050  157.34599304    4.90999985    2.53999996
   15.54555607  137.99299622    4.90999985    2.57999992
   15.54888916  164.90400696    4.90999985    2.57999992
   15.55194473  149.65100098    4.90999985    2.61999989
   15.55527782  177.55200195    4.90999985    2.53999996
   15.55861092  242.70300293    4.90999985    2.61999989
   15.56166649  247.15899658    4.90999985    2.57999992
   15.56500053  200.80400085    4.90999985    2.53999996
   15.57111073  200.80400085    4.90999985    2.55999994
   15.57499981  199.60400391    4.90999985    2.51999998
   15.57833290  157.13499451    4.90999985    2.51999998
   15.58166695  164.56700134    4.90999985    2.53999996
   15.58500004  142.27400208    4.90999985    2.55999994
   15.58805561  147.84300232    4.90999985    2.53999996
   15.59138870  135.79899597    4.90999985    2.55999994
   15.59472179  138.06100464    4.90999985    2.61999989
   15.59777737  151.61900330    4.90999985    2.53999996
   15.60111141  193.08500671    4.90999985    2.51999998
   15.60416698  159.03700256    4.90999985    2.51999998
   15.60750008  156.62399292    4.90999985    2.53999996
   15.60805607  156.66600037    4.90999985    2.50000000
   15.61388969  156.66600037    4.90999985    2.53999996
   15.61805534  158.96600342    4.90999985    2.50000000
   15.62111092  157.90199280    4.90999985    2.48000002
   15.62444496  147.27200317    4.90999985    2.53999996
   15.62777805  136.99800110    4.90999985    2.59999990
   15.63083363  168.05599976    4.90999985    2.53999996
   15.63416672  152.41600037    4.90999985    2.53999996
   15.63749981  168.87899780    4.90999985    2.53999996
   15.64055538  169.23899841    4.90999985    2.55999994
   15.64138889  165.58999634    4.90999985    2.53999996
   15.64444447  178.46299744    4.90999985    2.51999998
   15.64750004  154.69599915    4.90999985    2.48000002
   15.65083313  167.63800049    4.90999985    2.51999998
   15.65666676  167.63800049    4.90999985    2.48000002
   15.66083336  146.83700562    4.90999985    2.51999998
   15.66416645  173.28700256    4.90999985    2.51999998
   15.66722298  144.13999939    4.90999985    2.46000004
   15.67055607  156.08900452    4.90999985    2.48000002
   15.67388916  144.95199585    4.90999985    2.57999992
   15.67472267  146.41600037    4.90999985    2.61999989
   15.67750072  184.16700745    4.90999985    2.44000006
   15.68055630  167.74299622    4.90999985    2.51999998
   15.68388939  190.51699829    4.90999985    2.53999996
   15.68694496  191.39700317    4.90999985    2.46000004
   15.69027805  167.69500732    4.90999985    2.39000010
   15.69361115  203.06399536    4.90999985    2.34999990
   15.69944477  203.06399536    4.90999985    2.36999989
   15.70361137  187.43899536    4.90999985    2.26999998
   15.70694447  183.16099548    4.90999985    2.05999994
   15.70805550  427.62200928    4.90999985    1.94000006
   15.71055508  449.94900513    4.90999985    2.07999992
   15.71249962  331.30899048    4.90999985    2.01999998
   15.71249962  187.43899536    4.90999985    2.26999998
   15.71249962  183.16099548    4.90999985    2.05999994
   15.71249962  449.94900513    4.90999985    2.07999992
   15.71277714  184.16700745    4.90999985    2.44000006
   15.71277714  167.74299622    4.90999985    2.51999998
   15.71277714  190.51699829    4.90999985    2.53999996
   15.71277714  191.39700317    4.90999985    2.46000004
   15.71277714  167.69500732    4.90999985    2.39000010
   15.71305561  203.06399536    4.90999985    2.34999990
   15.71472168  445.67599487    4.90999985    2.09999990
   15.71666622  525.67401123    4.90999985    2.01999998
   15.71805477  320.23300171    4.90999985    1.96000004
   15.71805477  445.67599487    4.90999985    2.09999990
   15.71916580  217.86599731    4.90999985    1.96000004
   15.72222137  191.45300293    4.90999985    2.25000000
   15.72555542  155.79800415    4.90999985    2.23000002
   15.72888851  144.50399780    4.90999985    2.46000004
   15.73194408  152.50500488    4.90999985    2.42000008
   15.73861122  152.50500488    4.90999985    2.34999990
   15.74277782  173.22200012    4.90999985    2.28999996
   15.74611092  197.82499695    4.90999985    2.23000002
   15.74916649  154.49000549    4.90999985    2.34999990
   15.75166702  194.27499390    4.90999985    2.42000008
   15.75277805  181.10299683    4.90999985    2.40000010
   15.75611115  175.28599548    4.90999985    2.39000010
   15.75916672  183.58799744    4.90999985    2.48000002
   15.76249981  169.32499695    4.90999985    2.42000008
   15.76583290  195.66299438    4.90999985    2.36999989
   15.76888847  160.54299927    4.90999985    2.42000008
   15.77222157  222.19000244    4.90999985    2.36999989
   15.77527714  206.37399292    4.90999985    2.36999989
   15.78166676  206.37399292    4.90999985    2.51999998
   15.78555584  195.50000000    4.90999985    2.46000004
   15.78888893  189.15299988    4.90999985    2.30999994
   15.79222298  140.32899475    4.90999985    2.66000009
   15.79527855  190.88000488    4.90999985    2.42000008
   15.79861164  179.73800659    4.90999985    2.40000010
   15.80194473  183.68699646    4.90999985    2.46000004
   15.80527782  184.08900452    4.90999985    2.40000010
   15.80833340  158.71600342    4.90999985    2.44000006
   15.81166649  229.09199524    4.90999985    2.39000010
   15.81472206  173.35800171    4.90999985    2.32999992
   15.81805515  178.13900757    4.90999985    2.44000006
   15.81861115  169.01800537    4.90999985    2.44000006
   15.82444477  169.01800537    4.90999985    2.42000008
   15.82861137  149.88699341    4.90999985    2.42000008
   15.83166695  232.99600220    4.90999985    2.50000000
   15.83500004  181.99800110    4.90999985    2.28999996
   15.83833313  134.29800415    4.90999985    2.42000008
   15.84138870  180.31700134    4.90999985    2.46000004
   15.84472179  253.87899780    4.90999985    2.17000008
   15.84777737  146.58599854    4.90999985    2.39000010
   15.85111141  130.68800354    4.90999985    2.30999994
   15.85194492  238.71600342    4.90999985    2.39000010
   15.85472298  357.29598999    4.90999985    2.17000008
   15.85777855  166.30299377    4.90999985    2.21000004
   15.86111164  189.24800110    4.90999985    2.53999996
   15.86722279  189.24800110    4.90999985    2.09999990
   15.87138939  181.49400330    4.90999985    2.46000004
   15.87472248  188.01800537    4.90999985    2.46000004
   15.87777805  178.83900452    4.90999985    2.26999998
   15.88111115  132.39500427    4.90999985    2.42000008
   15.88416672  211.20599365    4.90999985    2.32999992
   15.88527775  305.53500366    4.90999985    2.30999994
   15.88805580  204.73899841    4.90999985    2.23000002
   15.89111137  188.87800598    4.90999985    2.40000010
   15.89444447  158.57800293    4.90999985    2.46000004
   15.89750004  199.77099609    4.90999985    2.32999992
   15.90083313  199.18699646    4.90999985    2.34999990
   15.90416622  174.42300415    4.90999985    2.36999989
   15.90999985  174.42300415    4.90999985    2.44000006
   15.91416645  193.84100342    4.90999985    2.40000010
   15.91750050  246.63499451    4.90999985    2.34999990
   15.91861153  230.77900696    4.90999985    2.30999994
   15.92111111  174.59599304    4.90999985    2.44000006
   15.92416668  175.76100159    4.90999985    2.48000002
   15.92750072  282.90200806    4.90999985    2.44000006
   15.93055630  265.84899902    4.90999985    2.00000000
   15.93388939  174.37399292    4.90999985    2.42000008
   15.93722248  163.36500549    4.90999985    2.42000008
   15.94027805  161.82000732    4.90999985    2.34999990
   15.94361115  143.75199890    4.90999985    2.34999990
   15.94694424  158.86099243    4.90999985    2.44000006
   15.95305538  158.86099243    4.90999985    2.44000006
   15.95722198  191.81300354    4.90999985    2.42000008
   15.96027756  178.81500244    4.90999985    2.44000006
   15.96361065  275.47299194    4.90999985    2.40000010
   15.96694374  155.16600037    4.90999985    2.23000002
   15.96999931  285.09600830    4.90999985    2.71000004
   15.97333336  143.56700134    4.90999985    2.15000010
   15.97666645  155.32299805    4.90999985    2.67000008
   15.97972202  132.30299377    4.90999985    2.32999992
   15.98305511  200.25000000    4.90999985    2.30999994
   15.98527813  221.22200012    4.90999985    2.32999992
   15.98666668  174.94599915    4.90999985    2.28999996
   15.98972225  245.59800720    4.90999985    2.23000002
   15.99583340  245.59800720    4.90999985    2.32999992
   16.00000000  347.88699341    4.90999985    2.17000008
   16.00333405  189.77499390    4.90999985    2.01999998
   16.00638962  133.06100464    4.90999985    2.03999996
   16.00972176  243.36300659    4.90999985    1.96000004
   16.01277733  103.93699646    4.90999985    2.00000000
   16.01611137  377.18200684    4.90999985    1.91999996
   16.01861000  334.02899170    4.90999985    2.09999990
   16.01972198  256.99398804    4.90999985    2.03999996
   16.02277756  222.89599609    4.90999985    2.21000004
   16.02611160  194.00399780    4.90999985    2.32999992
   16.02916718  171.28700256    4.90999985    2.30999994
   16.03249931  147.70799255    4.90999985    2.40000010
   16.03861046  147.70799255    4.90999985    2.40000010
   16.04277802  163.64599609    4.90999985    2.46000004
   16.04611015  188.13200378    4.90999985    2.42000008
   16.04916573  149.54299927    4.90999985    2.39000010
   16.05194283  178.23199463    4.90999985    2.36999989
   16.05305481  154.21299744    4.90999985    2.36999989
   16.05611038  209.16700745    4.90999985    2.21000004
   16.05944443  262.14999390    4.90999985    2.21000004
   16.06250000  248.74899292    4.90999985    1.98000002
   16.06583214  280.46899414    4.90999985    2.15000010
   16.06916809   96.67099762    4.90999985    2.05999994
   16.07222366   -1.00000000    4.90999985    1.91999996
   16.07555580   -1.00000000    4.90999985    1.75000000
   16.08139038   -1.00000000    4.90999985    1.69000006
   16.08555603   -1.00000000    4.90999985    1.63000000
   16.08889008   -1.00000000    4.90999985    1.55999994
   16.09194565   -1.00000000    4.90999985    1.64999998
   16.09527779   -1.00000000    4.90999985    1.55999994
   16.09861183   -1.00000000    4.90999985    1.55999994
   16.10166740   -1.00000000    4.90999985    1.48000002
   16.10499954   -1.00000000    4.90999985    1.26999998
   16.10833359   -1.00000000    4.90999985    1.26999998
   16.11138916   -1.00000000    4.90999985    1.33000004
   16.11472321   -1.00000000    4.90999985    1.39999998
   16.11777878   -1.00000000    4.90999985    1.41999996
   16.12444496   -1.00000000    4.90999985    1.25000000
   16.12833405  105.81999969    4.90999985    1.55999994
   16.13166618  385.15499878    4.90999985    1.94000006
   16.13500023  258.32998657    4.90999985    1.96000004
   16.13833237  212.22500610    4.90999985    2.15000010
   16.14138794  170.83299255    4.90999985    2.26999998
   16.14472198  159.49400330    4.90999985    2.34999990
   16.14805603  193.64700317    4.90999985    2.32999992
   16.15111160  164.98699951    4.90999985    2.30999994
   16.15194321  175.05000305    4.90999985    2.30999994
   16.15472221  164.17500305    4.90999985    2.39000010
   16.15777779  145.78900146    4.90999985    2.39000010
   16.16110992  184.76499939    4.90999985    2.44000006
   16.16722107  184.76499939    4.90999985    2.44000006
   16.17138863  153.20599365    4.90999985    2.50000000
   16.17444420  170.19200134    4.90999985    2.53999996
   16.17777634  150.91700745    4.90999985    2.61999989
   16.18111038  139.89300537    4.90999985    2.64000010
   16.18416595  192.26600647    4.90999985    2.69000006
   16.18527603  144.41700745    4.90999985    2.69000006
   16.18777657  158.35200500    4.00000000    2.73000002
   16.19083214  146.93699646    2.09999990    2.73000002
   16.19416618  153.54899597    1.51999998    2.75000000
   16.19749832  127.28099823    1.83000004    2.73000002
   16.20055580  122.61199951    2.34999990    2.69000006
   16.20388985  142.26400757    3.05999994    2.67000008
   16.22527885   70.52369690    4.90999985    2.69000006
   16.22583389   80.64820099    4.90999985    2.69000006
   16.22916794  132.69700623    4.90999985    2.71000004
   16.23222351  136.38000488    4.90999985    2.69000006
   16.23555565  135.41299438    4.90999985    2.66000009
   16.23888969  121.54699707    4.90999985    2.64000010
   16.24194527  115.52600098    4.90999985    2.61999989
   16.24527740  124.50499725    4.90999985    2.59999990
   16.24833298  133.42500305    4.90999985    2.61999989
   16.25277710  133.42500305    4.90999985    2.57999992
   16.25694466  125.86399841    4.90999985    2.53999996
   16.25861168  149.50500488    4.90999985    2.51999998
   16.26083374  152.39399719    4.90999985    2.50000000
   16.26388931  138.59199524    4.90999985    2.46000004
   16.26722145  134.18099976    4.90999985    2.51999998
   16.27027702  135.88900757    4.90999985    2.46000004
   16.27361107  141.23500061    4.90999985    2.42000008
   16.27694511  123.37300110    4.90999985    2.51999998
   16.28000069  129.65600586    4.90999985    2.53999996
   16.28333282  131.28399658    4.90999985    2.57999992
   16.28666687  122.91799927    4.90999985    2.53999996
   16.28972244  150.51699829    4.90999985    2.51999998
   16.29194450  135.51600647    4.90999985    2.51999998
   16.29611015  135.51600647    4.90999985    2.53999996
   16.30027771  164.52699280    4.90999985    2.40000010
   16.30333328  149.73100281    4.90999985    2.46000004
   16.30666542  129.33799744    4.90999985    2.42000008
   16.30972099  137.44500732    4.90999985    2.40000010
   16.31305504  159.46400452    4.90999985    2.42000008
   16.31638718  137.14900208    4.90999985    2.46000004
   16.31944466  139.06900024    4.90999985    2.44000006
   16.32277870  152.42300415    4.90999985    2.40000010
   16.32527924  111.49299622    4.90999985    2.42000008
   16.32638931  126.88800049    4.90999985    2.50000000
   16.32944489  117.28399658    4.90999985    2.53999996
   16.33277893  119.19999695    4.90999985    2.50000000
   16.33889008  119.19999695    4.90999985    2.50000000
   16.34305573  128.92999268    4.90999985    2.48000002
   16.34611130  131.44799805    4.90999985    2.50000000
   16.34944534  132.91600037    4.90999985    2.53999996
   16.35277748  134.86199951    4.90999985    2.53999996
   16.35583305  127.01200104    4.90999985    2.50000000
   16.35861206  139.93099976    4.90999985    2.50000000
   16.35972214  150.81100464    4.90999985    2.46000004
   16.36277771  148.15699768    4.90999985    2.46000004
   16.36611176  182.18499756    4.90999985    2.32999992
   16.36944389  175.27400208    4.90999985    2.21000004
   16.37249947  183.99400330    4.90999985    2.30999994
   16.37583351  156.40299988    4.90999985    2.32999992
   16.38166618  156.40299988    4.90999985    2.21000004
   16.38583374  157.95700073    4.90999985    2.26999998
   16.38916588  142.35600281    4.90999985    2.28999996
   16.39194489  167.22399902    4.90999985    2.26999998
   16.39277840  124.91400146    4.90999985    2.30999994
   16.39583397  180.44099426    4.90999985    2.30999994
   16.39916611  248.64900208    4.90999985    2.21000004
   16.40250015  210.76400757    4.90999985    2.15000010
   16.40555573  237.72700500    4.90999985    2.11999989
   16.40888786  295.35101318    4.90999985    2.09999990
   16.41194344  299.91000366    4.90999985    2.05999994
   16.41527748  312.01300049    4.90999985    2.00000000
   16.41860962  326.30801392    4.90999985    2.05999994
   16.42444420  326.30801392    4.90999985    1.98000002
   16.42860985   35.08909988    4.90999985    1.98000002
   16.43194389   62.11240005    4.90999985    1.91999996
   16.43527603   -1.00000000    4.90999985    1.86000001
   16.43833160   -1.00000000    4.90999985    1.71000004
   16.44166565   -1.00000000    4.90999985    1.63000000
   16.44472122   -1.00000000    4.90999985    1.63000000
   16.44805527   -1.00000000    4.90999985    1.61000001
   16.45138931   -1.00000000    4.90999985    1.46000004
   16.45444489   -1.00000000    4.90999985    1.41999996
   16.45777893   -1.00000000    4.90999985    1.73000002
   16.46138954  354.73599243    4.90999985    1.73000002
   16.46750069  354.73599243    4.90999985    2.03999996
   16.47166634  153.99299622    4.90999985    2.25000000
   16.47472191  144.59100342    4.90999985    2.21000004
   16.47805595  136.72399902    4.90999985    2.39000010
   16.48111153  136.38499451    4.90999985    2.42000008
   16.48444557  126.26100159    4.90999985    2.46000004
   16.48777771  119.20200348    4.90999985    2.51999998
   16.49083328  131.82899475    4.90999985    2.46000004
   16.49305534  137.36300659    4.90999985    2.48000002
   16.49444389  133.77799988    4.90999985    2.50000000
   16.49777794  124.87899780    4.90999985    2.55999994
   16.50083351  123.03399658    4.90999985    2.55999994
   16.50416756  129.66600037    4.90999985    2.57999992
   16.51027870  129.66600037    4.90999985    2.66000009
   16.51444435  126.34600067    4.90999985    2.40000010
   16.51749992  124.85700226    4.90999985    2.57999992
   16.52083397  141.39700317    4.90999985    2.57999992
   16.52416611  131.45399475    4.90999985    2.46000004
   16.52638817  126.05500031    4.90999985    2.40000010
   16.52777672  154.70300293    4.90999985    2.39000010
   16.53083229  124.79100037    4.90999985    2.51999998
   16.53416634  190.31599426    4.90999985    2.32999992
   16.53750038  423.22799683    4.90999985    2.11999989
   16.53944397  299.38598633    4.90999985    2.01999998
   16.53944397  129.66600037    4.90999985    2.57999992
   16.53944397  126.34600067    4.90999985    2.40000010
   16.53944397  124.85700226    4.90999985    2.57999992
   16.53972244  141.39700317    4.90999985    2.57999992
   16.53972244  131.45399475    4.90999985    2.46000004
   16.53972244  154.70300293    4.90999985    2.39000010
   16.53972244  124.79100037    4.90999985    2.51999998
   16.53972244  190.31599426    4.90999985    2.32999992
   16.54166603  253.33299255    4.90999985    2.17000008
   16.54472160  164.72200012    4.90999985    2.32999992
   16.54805565  195.92999268    4.90999985    2.39000010
   16.55111122  209.33200073    4.90999985    2.09999990
   16.55444336   94.30500031    4.90999985    1.98000002
   16.56027794   94.30500031    4.90999985    1.80999994
   16.56444359   -1.00000000    4.90999985    1.63000000
   16.56750107  123.68800354    4.90999985    1.34000003
   16.57083511   -1.00000000    4.90999985    1.23000002
   16.57416725   98.08589935    4.90999985    1.58000004
   16.57750130   -1.00000000    4.90999985    1.91999996
   16.58055687   -1.00000000    4.90999985    1.60000002
   16.58388901   -1.00000000    4.90999985    1.41999996
   16.58722305   -1.00000000    4.90999985    1.19000006
   16.59027863   -1.00000000    4.90999985    1.26999998
   16.59361267   -1.00000000    4.90999985    1.41999996
   16.59694481   -1.00000000    4.90999985    1.36000001
   16.60722351   -1.00000000    4.90999985    1.33000004
   16.61027908   -1.00000000    4.90999985    1.21000004
   16.61361122   -1.00000000    4.90999985    1.53999996
   16.61694527   -1.00000000    4.90999985    1.64999998
   16.62000084   -1.00000000    4.90999985    1.66999996
   16.62333298   -1.00000000    4.90999985    1.51999998
   16.62638855   -1.00000000    4.90999985    1.38000000
   16.62972260   -1.00000000    4.90999985    1.33000004
   16.63305473   -1.00000000    4.90999985    1.30999994
   16.63611031   -1.00000000    4.90999985    1.16999996
   16.63944435   -1.00000000    4.90999985    1.19000006
   16.64999962   -1.00000000    4.90999985    1.38000000
   16.65333366   -1.00000000    4.90999985    1.44000006
   16.65638924   -1.00000000    4.90999985    1.11000001
   16.65972137   -1.00000000    4.90999985    0.95999998
   16.66277695   -1.00000000    4.90999985    0.88000000
   16.66611099   -1.00000000    4.90999985    0.86000001
   16.66944313   -1.00000000    4.90999985    0.94000000
   16.67249870   -1.00000000    4.90999985    0.92000002
   16.67611122   -1.00000000    4.90999985    0.88000000
   16.67944336   -1.00000000    4.90999985    0.95999998
   16.68277740   -1.00000000    4.90999985    1.14999998
   16.69277763   -1.00000000    4.90999985    1.05999994
   16.69610977   -1.00000000    4.90999985    0.86000001
   16.69916534   -1.00000000    4.90999985    0.52999997
   16.70250130   -1.00000000    4.90999985    0.40000001
   16.70583344   -1.00000000    4.90999985    0.31999999
   16.70916748   -1.00000000    4.90999985    0.25999999
   16.71250153   -1.00000000    4.90999985    0.20999999
   16.71583366   -1.00000000    4.90999985    0.23000000
   16.71888924   -1.00000000    4.90999985    0.30000001
   16.72222328   -1.00000000    4.90999985    0.28000000
   16.72527885   -1.00000000    4.90999985    0.47999999
   16.73555565   -1.00000000    4.90999985    0.67000002
   16.73888969   -1.00000000    4.90999985    0.44000000
   16.74250031   -1.00000000    4.90999985    0.40000001
   16.74583435   -1.00000000    4.90999985    0.30000001
   16.74916649   -1.00000000    4.90999985    0.30000001
   16.75222206   -1.00000000    4.90999985    0.40000001
   16.75555611   -1.00000000    4.90999985    0.50000000
   16.75861168   -1.00000000    4.90999985    0.58999997
   16.76194382   -1.00000000    4.90999985    0.55000001
   16.76527786   -1.00000000    4.90999985    0.36000001
   16.76833344   -1.00000000    4.90999985    0.31999999
   16.77861023   -1.00000000    4.90999985    0.70999998
   16.78166580   -1.00000000    4.90999985    0.79000002
   16.78499985   -1.00000000    4.90999985    0.75000000
   16.78833199   -1.00000000    4.90999985    0.63000000
   16.79138756   -1.00000000    4.90999985    0.47999999
   16.79472160   -1.00000000    4.90999985    0.55000001
   16.79777718   -1.00000000    4.90999985    0.83999997
   16.80111122   -1.00000000    4.90999985    0.83999997
   16.80444336   -1.00000000    4.90999985    0.64999998
   16.80777740   -1.00000000    4.90999985    0.58999997
   16.81110954   93.14540100    4.90999985    0.76999998
   16.82139015   -1.00000000    4.90999985    0.86000001
   16.82472229   -1.00000000    4.90999985    0.89999998
   16.82777786   -1.00000000    4.90999985    1.00000000
   16.83111191   -1.00000000    4.90999985    1.30999994
   16.83416748   -1.00000000    4.90999985    1.53999996
   16.83750153   -1.00000000    4.90999985    1.58000004
   16.84111214   -1.00000000    4.90999985    0.79000002
   16.84444427   -1.00000000    4.90999985    0.73000002
   16.84777832   -1.00000000    4.90999985    0.73000002
   16.85083389   -1.00000000    4.90999985    1.01999998
   16.85416794   -1.00000000    4.90999985    1.09000003
   16.86416626   -1.00000000    4.90999985    1.07000005
   16.86750031   -1.00000000    4.90999985    1.50000000
   16.87055588   -1.00000000    4.90999985    1.63000000
   16.87416649   -1.00000000    4.90999985    1.00000000
   16.87750053   -1.00000000    4.90999985    1.13000000
   16.88083267   -1.00000000    4.90999985    1.01999998
   16.88388824   -1.00000000    4.90999985    1.13000000
   16.88722229   -1.00000000    4.90999985    1.23000002
   16.89027786   -1.00000000    4.90999985    1.01999998
   16.89361191   -1.00000000    4.90999985    1.50000000
   16.89694405   -1.00000000    4.90999985    0.79000002
   16.90694427   -1.00000000    4.90999985    0.47999999
   16.91027832   -1.00000000    4.90999985    0.50000000
   16.91361046   -1.00000000    4.90999985    0.47999999
   16.91666603   -1.00000000    4.90999985    0.76999998
   16.92000008   -1.00000000    4.90999985    0.58999997
   16.92333221   -1.00000000    4.90999985    0.52999997
   16.92638779   -1.00000000    4.90999985    0.86000001
   16.92972183   -1.00000000    4.90999985    0.98000002
   16.93277740   -1.00000000    4.90999985    1.13000000
   16.93610954   -1.00000000    4.90999985    1.03999996
   16.93944359   -1.00000000    4.90999985    1.38000000
   16.94583321   -1.00000000    4.90999985    1.96000004
   16.95000076  365.13198853    4.90999985    1.83000004
   16.95305634  296.21200562    4.90999985    1.64999998
   16.95639038  154.74499512    4.90999985    2.11999989
   16.95972252  179.42799377    4.90999985    2.40000010
   16.96277809  174.82899475    4.90999985    2.28999996
   16.96611214  250.64100647    4.90999985    2.32999992
   16.96944427  171.23300171    4.90999985    2.39000010
   16.97249985  185.63900757    4.90999985    2.36999989
   16.97333336  186.71299744    4.90999985    2.42000008
   16.97638893  155.42399597    4.90999985    2.28999996
   16.97944450  147.70700073    4.90999985    2.39000010
   16.98277855  224.04100037    4.90999985    2.28999996
   16.98861122  224.04100037    4.90999985    2.51999998
   16.99277878  144.00399780    4.90999985    2.53999996
   16.99611092  146.80599976    4.90999985    2.67000008
   16.99916649  130.44700623    4.90999985    2.66000009
   17.00250053  140.39599609    4.90999985    2.64000010
   17.00583267  144.45599365    4.90999985    2.64000010
   17.00666618  143.70599365    4.90999985    2.55999994
   17.00944519  126.02700043    4.90999985    2.53999996
   17.01250076  132.73699951    4.90999985    2.66000009
   17.01583290  118.70999908    4.90999985    2.55999994
   17.01888847  131.21400452    4.90999985    2.61999989
   17.02222252  142.85299683    4.90999985    2.66000009
   17.02555466  129.44400024    4.90999985    2.53999996
   17.03138924  129.44400024    4.90999985    2.64000010
   17.03555489  183.36700439    4.90999985    2.07999992
   17.03888893  136.89700317    4.90999985    2.50000000
   17.03999901  147.42599487    4.90999985    2.48000002
   17.04249954  191.05900574    4.90999985    2.57999992
   17.04555511  157.54200745    4.90999985    2.23000002
   17.04888916  132.07600403    4.90999985    2.64000010
   17.05194283  143.55700684    4.90999985    2.64000010
   17.05527687  167.58999634    4.90999985    2.55999994
   17.05861092  172.07000732    4.90999985    2.36999989
   17.06166649  161.00700378    4.90999985    2.39000010
   17.06499863  144.64999390    4.90999985    2.51999998
   17.06833458  155.77699280    4.90999985    2.57999992
   17.07444572  155.77699280    4.90999985    2.17000008
   17.07861137  210.38999939    4.90999985    2.34999990
   17.08166695  144.55900574    4.90999985    2.32999992
   17.08500099  160.69400024    4.90999985    2.36999989
   17.08805656  167.42300415    4.90999985    2.46000004
   17.09138870  210.09399414    4.90999985    2.17000008
   17.09472275  127.38800049    4.90999985    2.26999998
   17.09777832  156.94200134    4.90999985    2.36999989
   17.10111237  219.39300537    4.90999985    2.23000002
   17.10444450  153.72200012    4.90999985    2.21000004
   17.10666656  136.11999512    4.90999985    2.55999994
   17.10805511  150.08700562    4.90999985    2.55999994
   17.11111069  123.77400208    4.90999985    2.30999994
   17.11722183  123.77400208    4.90999985    2.42000008
   17.12138939  185.75700378    4.90999985    2.28999996
   17.12444496  227.29800415    4.90999985    2.30999994
   17.12777710  137.96200562    4.90999985    2.50000000
   17.13111115  197.22099304    4.90999985    2.50000000
   17.13416672  190.42900085    4.90999985    2.21000004
   17.13750076  167.72799683    4.90999985    2.42000008
   17.13999939  184.65600586    4.90999985    2.48000002
   17.14111137  169.83900452    4.90999985    2.44000006
   17.14416695  141.42399597    4.90999985    2.48000002
   17.14749908  195.47099304    4.90999985    2.34999990
   17.15083313  162.14300537    4.90999985    2.30999994
   17.15388870  133.84399414    4.90999985    2.40000010
   17.15999985  133.84399414    4.90999985    2.07999992
   17.16416550  143.61999512    4.90999985    2.30999994
   17.16749954  169.41400146    4.90999985    2.61999989
   17.17055511  268.54699707    4.90999985    2.51999998
   17.17333221  225.81500244    4.90999985    2.17000008
   17.17444420  197.15100098    4.90999985    2.17000008
   17.17749977  144.12300110    4.90999985    2.48000002
   17.18083191  146.16200256    4.90999985    2.57999992
   17.18416595  231.35899353    4.90999985    2.15000010
   17.18722153  186.28599548    4.90999985    2.28999996
   17.19055557  145.69000244    4.90999985    2.40000010
   17.19361115  164.47900391    4.90999985    2.39000010
   17.19694328  205.00799561    4.90999985    2.07999992
   17.20277786  205.00799561    4.90999985    2.48000002
   17.20694542  178.87600708    4.90999985    2.21000004
   17.21027946  265.68200684    4.90999985    2.30999994
   17.21361160  248.16799927    4.90999985    2.19000006
   17.21666718  137.59100342    4.90999985    2.26999998
   17.22000122  215.78799438    4.90999985    2.23000002
   17.22305679  231.44000244    4.90999985    2.25000000
   17.24250031  431.14700317    4.90999985    2.19000006
   17.24666786  431.14700317    4.90999985    2.21000004
   17.25083351  238.97399902    4.90999985    2.32999992
   17.25416756  206.91900635    4.90999985    2.34999990
   17.25722313  243.31700134    4.90999985    2.13000011
   17.26055527  148.59399414    4.90999985    2.39000010
   17.26388931  249.90699768    4.90999985    2.23000002
   17.26694489  298.92898560    4.90999985    2.17000008
   17.27027702  256.23498535    4.90999985    2.25000000
   17.27333260  318.95300293    4.90999985    2.25000000
   17.27583313  246.84500122    4.90999985    2.17000008
   17.27722168  180.62500000    4.90999985    2.23000002
   17.28027725  212.19500732    4.90999985    2.26999998
   17.28361130  246.73399353    4.90999985    2.09999990
   17.28944397  246.73399353    4.90999985    2.28999996
   17.29361153  181.68299866    4.90999985    2.21000004
   17.29694366  260.79901123    4.90999985    2.32999992
   17.30027771  436.87600708    4.90999985    2.07999992
   17.30222130  239.05000305    4.90999985    2.07999992
   17.30222130  298.92898560    4.90999985    2.17000008
   17.30222130  256.23498535    4.90999985    2.25000000
   17.30222130  318.95300293    4.90999985    2.25000000
   17.30222130  180.62500000    4.90999985    2.23000002
   17.30249977  212.19500732    4.90999985    2.26999998
   17.30249977  246.73399353    4.90999985    2.09999990
   17.30249977  181.68299866    4.90999985    2.21000004
   17.30249977  260.79901123    4.90999985    2.32999992
   17.30416679  182.73899841    4.90999985    2.21000004
   17.30749893  219.79100037    4.90999985    2.32999992
   17.31083298  288.60800171    4.90999985    2.26999998
   17.31388855  245.87600708    4.90999985    2.19000006
   17.31722260  237.09599304    4.90999985    2.19000006
   17.32305717  237.09599304    4.90999985    2.30999994
   17.32694626  166.50900269    4.90999985    2.23000002
   17.33027840  200.98500061    4.90999985    2.28999996
   17.33361244  185.00399780    4.90999985    2.30999994
   17.33611107  154.66700745    4.90999985    2.36999989
   17.33694458  177.87600708    4.90999985    2.36999989
   17.34027863  166.62300110    4.90999985    2.19000006
   17.34361267  127.39600372    4.90999985    2.39000010
   17.34666824  146.62300110    4.90999985    2.39000010
   17.35000038  148.25500488    4.90999985    2.28999996
   17.35305595  146.86799622    4.90999985    2.21000004
   17.35639000  134.00900269    4.90999985    2.50000000
   17.35972214  158.08299255    4.90999985    2.53999996
   17.36583328  158.08299255    4.90999985    2.32999992
   17.37000084  133.10099792    4.90999985    2.50000000
   17.37305641  174.10499573    4.90999985    2.44000006
   17.37638855  148.25000000    4.90999985    2.39000010
   17.37972260  136.65699768    4.90999985    2.39000010
   17.38277817  120.24900055    4.90999985    2.44000006
   17.38611031  126.25099945    4.90999985    2.48000002
   17.38944435  149.31700134    4.90999985    2.55999994
   17.39249992  131.78300476    4.90999985    2.42000008
   17.39583397  138.95100403    4.90999985    2.46000004
   17.39916611  122.17400360    4.90999985    2.44000006
   17.40222168  144.38299561    4.90999985    2.48000002
   17.40277672  146.72099304    4.90999985    2.48000002
   17.40861130  146.72099304    4.90999985    2.44000006
   17.41277695  119.95899963    4.90999985    2.57999992
   17.41611099  122.10900116    4.90999985    2.48000002
   17.41916656  142.05499268    4.90999985    2.42000008
   17.42249870  130.43200684    4.90999985    2.48000002
   17.42555428  143.84800720    4.90999985    2.42000008
   17.42888832  118.05100250    4.90999985    2.48000002
   17.43222237  164.05299377    4.90999985    2.48000002
   17.43527603  143.87100220    4.90999985    2.30999994
   17.43610954  124.87200165    4.90999985    2.30999994
   17.43916512  129.84599304    4.90999985    2.46000004
   17.44222069  125.71299744    4.90999985    2.46000004
   17.44555473  138.05499268    4.90999985    2.36999989
   17.45138931  138.05499268    4.90999985    2.39000010
   17.45555687  138.85600281    4.90999985    2.32999992
   17.45888901  177.13800049    4.90999985    2.30999994
   17.46194458  151.10699463    4.90999985    2.30999994
   17.46527863  167.33599854    4.90999985    2.23000002
   17.46861076  131.60099792    4.90999985    2.40000010
   17.46944427  128.19700623    4.90999985    2.46000004
   17.47222328  153.84700012    4.90999985    2.50000000
   17.47527885  181.63400269    4.90999985    2.51999998
   17.47861099  190.05499268    4.90999985    2.36999989
   17.48194504  178.02000427    4.90999985    2.30999994
   17.48500061  202.83000183    4.90999985    2.30999994
   17.48833275  201.87699890    4.90999985    2.32999992
   17.49416733  201.87699890    4.90999985    2.32999992
   17.49833298  171.79899597    4.90999985    2.30999994
   17.50166702  135.27799988    4.90999985    2.34999990
   17.50277710  145.94000244    4.90999985    2.46000004
   17.50527763  120.85700226    4.90999985    2.46000004
   17.50833321  178.97599792    4.90999985    2.15000010
   17.51166725  131.82000732    4.90999985    2.51999998
   17.51499939  154.88099670    4.90999985    2.34999990
   17.51805496  170.65499878    4.90999985    2.25000000
   17.52138901  134.82899475    4.90999985    2.42000008
   17.52444458  159.27200317    4.90999985    2.32999992
   17.52777672  151.30799866    4.90999985    2.39000010
   17.53111076  150.65600586    4.90999985    2.21000004
   17.53722191  150.65600586    4.90999985    2.25000000
   17.54138756  182.36000061    4.90999985    2.26999998
   17.54472160  270.71499634    4.90999985    2.17000008
   17.54777718  187.66200256    4.90999985    2.28999996
   17.55111122  242.49899292    4.90999985    2.25000000
   17.55444336  225.49499512    4.90999985    2.21000004
   17.55749893  327.08300781    4.90999985    2.26999998
   17.56083298  301.81500244    4.90999985    2.01999998
   17.56388855  106.93900299    4.90999985    1.94000006
   17.56722260  314.00698853    4.90999985    2.05999994
   17.56944466  141.97700500    4.90999985    2.00000000
   17.57083511   -1.00000000    4.90999985    1.94000006
   17.57389069   -1.00000000    4.90999985    1.75000000
   17.58000183   -1.00000000    4.90999985    1.66999996
   17.58416748   -1.00000000    4.90999985    1.30999994
   17.58750153   -1.00000000    4.90999985    1.16999996
   17.59055710   -1.00000000    4.90999985    0.94000000
   17.59388924   -1.00000000    4.90999985    1.09000003
   17.59694481   -1.00000000    4.90999985    1.25000000
   17.60027885  332.77499390    4.90999985    1.88000000
   17.60277748   77.00669861    4.90999985    2.03999996
   17.60388947  112.83000183    4.90999985    1.98000002
   17.60694504  428.79098511    4.90999985    1.83000004
   17.60888863  370.74600220    4.90999985    2.00000000
   17.61027908  320.10699463    4.90999985    2.09999990
   17.61027908   -1.00000000    4.90999985    1.16999996
   17.61027908   -1.00000000    4.90999985    0.94000000
   17.61055565   -1.00000000    4.90999985    1.09000003
   17.61055565   -1.00000000    4.90999985    1.25000000
   17.61055565  332.77499390    4.90999985    1.88000000
   17.61055565  112.83000183    4.90999985    1.98000002
   17.61083412  428.79098511    4.90999985    1.83000004
   17.61083412   -1.00000000    4.90999985    1.75000000
   17.61083412   -1.00000000    4.90999985    1.30999994
   17.61166763  354.62399292    4.90999985    2.19000006
   17.61499977  207.18499756    4.90999985    2.25000000
   17.61805534  379.98699951    4.90999985    2.28999996
   17.62138939  204.58700562    4.90999985    2.23000002
   17.62472153  196.00999451    4.90999985    2.23000002
   17.63111115  196.00999451    4.90999985    2.26999998
   17.63527679  193.08999634    4.90999985    2.32999992
   17.63833237  300.36499023    4.90999985    2.28999996
   17.64166641  432.73599243    4.90999985    2.09999990
   17.64361191  259.80499268    4.90999985    2.09999990
   17.64361191  354.62399292    4.90999985    2.19000006
   17.64388847  207.18499756    4.90999985    2.25000000
   17.64388847  379.98699951    4.90999985    2.28999996
   17.64388847  204.58700562    4.90999985    2.23000002
   17.64388847  196.00999451    4.90999985    2.23000002
   17.64388847  193.08999634    4.90999985    2.32999992
   17.64416695  300.36499023    4.90999985    2.28999996
   17.64416695  432.73599243    4.90999985    2.09999990
   17.64583397  248.97599792    4.90999985    2.21000004
   17.64916611  349.55499268    4.90999985    2.26999998
   17.65222168  348.05099487    4.90999985    2.05999994
   17.65555573  238.54600525    4.90999985    2.23000002
   17.65888786  272.60198975    4.90999985    2.25000000
   17.66444397  272.60198975    4.90999985    2.09999990
   17.66860962  204.93600464    4.90999985    2.28999996
   17.67194366  210.27900696    4.90999985    2.42000008
   17.67499924  186.68899536    4.90999985    2.25000000
   17.67749977  192.00300598    4.90999985    2.39000010
   17.67860985  181.01800537    4.90999985    2.40000010
   17.68166542  180.60400391    4.90999985    2.34999990
   17.68499947  178.50500488    4.90999985    2.36999989
   17.68833160  203.24899292    4.90999985    2.19000006
   17.69138718  187.79800415    4.90999985    2.32999992
   17.69472122  206.70599365    4.90999985    2.39000010
   17.69805527  180.27200317    4.90999985    2.34999990
   17.70111275  173.55599976    4.90999985    2.25000000
   17.70722389  173.55599976    4.90999985    2.40000010
   17.71138954  189.96000671    4.90999985    2.28999996
   17.71472359  195.26300049    4.90999985    2.34999990
   17.71777916  187.92999268    4.90999985    2.26999998
   17.72111130  175.61000061    4.90999985    2.25000000
   17.72444534  220.33900452    4.90999985    2.21000004
   17.72750092  192.50999451    4.90999985    2.26999998
   17.73083305  176.56199646    4.90999985    2.32999992
   17.73416710  163.82099915    4.90999985    2.28999996
   17.73722267  180.14900208    4.90999985    2.30999994
   17.74055672  210.28999329    4.90999985    2.30999994
   17.74361229  257.35000610    4.90999985    2.30999994
   17.74416733  210.91700745    4.90999985    2.28999996
   17.75027847  210.91700745    4.90999985    2.21000004
   17.75444412  230.38000488    4.90999985    2.21000004
   17.75749969  239.39599609    4.90999985    2.21000004
   17.76083374  205.81700134    4.90999985    2.23000002
   17.76388931  246.30999756    4.90999985    2.23000002
   17.76722145  238.82800293    4.90999985    2.19000006
   17.77055550  164.86900330    4.90999985    2.23000002
   17.77361107  170.55299377    4.90999985    2.28999996
   17.77694511  216.38999939    4.90999985    2.23000002
   17.77750015  210.50599670    4.90999985    2.23000002
   17.78055573  223.80999756    4.90999985    2.23000002
   17.78361130  259.52899170    4.90999985    2.19000006
   17.78694344  207.22700500    4.90999985    2.17000008
   17.79305458  207.22700500    4.90999985    2.21000004
   17.79722214  247.05000305    4.90999985    2.21000004
   17.80027771  236.25700378    4.90999985    2.21000004
   17.80360985  253.22799683    4.90999985    2.15000010
   17.80694389  282.03601074    4.90999985    2.13000011
   17.80999947  294.77801514    4.90999985    2.19000006
   17.81083298  291.73098755    4.90999985    2.15000010
   17.81361008  245.30700684    4.90999985    2.17000008
   17.81694603  330.33999634    4.90999985    2.15000010
   17.82000160  399.91699219    4.90999985    2.11999989
   17.82333374  320.90798950    4.90999985    2.11999989
   17.82638931  276.05999756    4.90999985    2.17000008
   17.82972336  239.72500610    4.90999985    2.21000004
   17.83583450  239.72500610    4.90999985    2.13000011
   17.84000015  233.47200012    4.90999985    2.15000010
   17.84333420  330.57101440    4.90999985    2.15000010
   17.84416771  278.57199097    4.90999985    2.13000011
   17.84694481  316.19400024    4.90999985    2.13000011
   17.85027885  241.88299561    4.90999985    2.17000008
   17.85333443  298.40899658    4.90999985    2.19000006
   17.85666656  271.80801392    4.90999985    2.13000011
   17.85972214  172.12300110    4.90999985    2.26999998
   17.86305618  157.44900513    4.90999985    2.39000010
   17.86638832  290.56600952    4.90999985    2.36999989
   17.86944389  205.82800293    4.90999985    2.25000000
   17.87277794  214.89100647    4.90999985    2.28999996
   17.87861061  214.89100647    4.90999985    2.32999992
   17.88277817  268.98300171    4.90999985    2.23000002
   17.88611031  212.77600098    4.90999985    2.17000008
   17.88916588  205.60000610    4.90999985    2.26999998
   17.89249992  207.54100037    4.90999985    2.21000004
   17.89583397  179.12399292    4.90999985    2.30999994
   17.89888954  289.97900391    4.90999985    2.36999989
   17.90222168  279.34899902    4.90999985    2.25000000
   17.90555573  243.34700012    4.90999985    2.25000000
   17.90861130  298.30398560    4.90999985    2.17000008
   17.91083336  221.08000183    4.90999985    2.17000008
   17.91222191  260.55200195    4.90999985    2.17000008
   17.91555595  247.83200073    4.90999985    2.21000004
   17.92166519  247.83200073    4.90999985    2.00000000
   17.92555428  373.07101440    4.90999985    2.03999996
   17.92888832  258.30099487    4.90999985    2.15000010
   17.93222237  272.54901123    4.90999985    2.05999994
   17.93527603  299.44799805    4.90999985    2.11999989
   17.93861008  215.10000610    4.90999985    2.21000004
   17.94194412  330.11700439    4.90999985    2.23000002
   17.94416618  244.27200317    4.90999985    2.03999996
   17.94555473  246.09800720    4.90999985    2.00000000
   17.94888878  299.07699585    4.90999985    2.11999989
   17.95194435  155.51300049    4.90999985    2.21000004
   17.95527840  233.55900574    4.90999985    2.17000008
   17.95833397  215.92199707    4.90999985    2.19000006
   17.96444511  215.92199707    4.90999985    2.05999994
   17.96861076  250.64100647    4.90999985    2.07999992
   17.97166634  291.64199829    4.90999985    2.19000006
   17.97500038  263.29000854    4.90999985    2.17000008
   17.97750092  255.42900085    4.90999985    2.13000011
   17.97861099  269.16000366    4.90999985    2.13000011
   17.98194504  227.81500244    4.90999985    2.26999998
   17.98500061  194.10600281    4.90999985    2.26999998
   17.98833275  163.99099731    4.90999985    2.13000011
   17.99166679  172.55900574    4.90999985    2.11999989
   17.99472237  141.27999878    4.90999985    2.30999994
   17.99805641  163.38400269    4.90999985    2.26999998
   18.00111198  201.12500000    4.90999985    2.21000004
   18.00722313  201.12500000    4.90999985    2.23000002
   18.01138878  211.10600281    4.90999985    2.09999990
   18.01472282  260.85501099    4.90999985    2.17000008
   18.01777840  264.24301147    4.90999985    2.21000004
   18.02111053  232.26300049    4.90999985    2.23000002
   18.02416611  157.44099426    4.90999985    2.23000002
   18.02750015  155.67300415    4.90999985    2.36999989
   18.03083229  148.30000305    4.90999985    2.36999989
   18.03388786  143.26699829    4.90999985    2.46000004
   18.03722191  160.79499817    4.90999985    2.30999994
   18.04055595  147.66900635    4.90999985    2.40000010
   18.04361153  180.16000366    4.90999985    2.34999990
   18.04416656  180.29100037    4.90999985    2.32999992
   18.04999924  180.29100037    4.90999985    2.21000004
   18.05416679  200.55000305    4.90999985    2.26999998
   18.05749893  166.58399963    4.90999985    2.28999996
   18.06055450  187.53199768    4.90999985    2.30999994
   18.06388855  224.88699341    4.90999985    2.25000000
   18.06833458  219.50999451    4.90999985    2.19000006
   18.07139015  324.79598999    4.90999985    2.05999994
   18.07472229  232.50399780    4.90999985    2.05999994
   18.07750130  155.35600281    4.90999985    2.13000011
   18.07833481  201.41999817    4.90999985    2.13000011
   18.08166695  199.83099365    4.90999985    2.23000002
   18.08472252  135.32800293    4.90999985    2.44000006
   18.08805656  132.81100464    4.90999985    2.46000004
   18.09305573  132.81100464    4.90999985    2.53999996
   18.09694481  133.71000671    4.90999985    2.51999998
   18.10027885  130.39700317    4.90999985    2.51999998
   18.10361099  119.97200012    4.90999985    2.48000002
   18.10666656  127.12899780    4.90999985    2.51999998
   18.11000061  145.91000366    4.90999985    2.44000006
   18.11083412  137.29899597    4.90999985    2.44000006
   18.11361122  148.58799744    4.90999985    2.36999989
   18.11694527  157.08099365    4.90999985    2.39000010
   18.12000084  141.44299316    4.90999985    2.30999994
   18.12333298  156.75500488    4.90999985    2.26999998
   18.12666702  150.47000122    4.90999985    2.28999996
   18.12972260  139.46099854    4.90999985    2.32999992
   18.13583374  139.46099854    4.90999985    2.34999990
   18.13999939  157.95199585    4.90999985    2.36999989
   18.14305496  161.06100464    4.90999985    2.26999998
   18.14416695  141.65199280    4.90999985    2.26999998
   18.14666748  163.48500061    4.90999985    2.25000000
   18.14999962  268.82598877    4.90999985    2.19000006
   18.15333366  183.54299927    4.90999985    2.09999990
   18.15638924  294.30700684    4.90999985    2.15000010
   18.15972137  231.78900146    4.90999985    2.01999998
   18.16277695  228.88000488    4.90999985    2.23000002
   18.16611099  147.05999756    4.90999985    2.34999990
   18.16944313  152.08200073    4.90999985    2.39000010
   18.17249870  166.02699280    4.90999985    2.30999994
   18.17860985  166.02699280    4.90999985    2.32999992
   18.18277740  143.49000549    4.90999985    2.34999990
   18.18610954  144.82299805    4.90999985    2.25000000
   18.18916512  153.11199951    4.90999985    2.23000002
   18.19249916  213.73300171    4.90999985    2.17000008
   18.19555473  187.08799744    4.90999985    2.13000011
   18.19888878  178.87199402    4.90999985    2.30999994
   18.20222282  161.90600586    4.90999985    2.13000011
   18.20527840  164.91600037    4.90999985    2.25000000
   18.20861244  187.15600586    4.90999985    2.23000002
   18.21083450  166.42799377    4.90999985    2.23000002
   18.21222305  153.08200073    4.90999985    2.30999994
   18.21555710  197.98399353    4.90999985    2.28999996
   18.22138977  197.98399353    4.90999985    2.17000008
   18.22555542  194.39700317    4.90999985    2.19000006
   18.22888947  245.90800476    4.90999985    2.11999989
   18.23194504  178.84100342    4.90999985    2.07999992
   18.23527718  196.87300110    4.90999985    2.23000002
   18.23861122  302.43399048    4.90999985    2.13000011
   18.24166679  225.85499573    4.90999985    2.17000008
   18.25944519  144.38400269    4.90999985    2.36999989
   18.26444435  144.38400269    4.90999985    2.39000010
   18.26861000  142.91499329    4.90999985    2.34999990
   18.27194405  196.06900024    4.90999985    2.23000002
   18.27499962  242.76800537    4.90999985    2.23000002
   18.27833366  257.54199219    4.90999985    2.13000011
   18.28166580  229.46800232    4.90999985    2.11999989
   18.28472137  180.87600708    4.90999985    2.21000004
   18.28805542  189.58799744    4.90999985    2.26999998
   18.29111099  167.70399475    4.90999985    2.23000002
   18.29277802  209.45399475    4.90999985    2.28999996
   18.29472160  243.45300293    4.90999985    2.25000000
   18.29805565  282.16900635    4.90999985    2.19000006
   18.30138779  322.57998657    4.90999985    2.05999994
   18.30749893  322.57998657    4.90999985    2.13000011
   18.31138802  259.57000732    4.90999985    2.19000006
   18.31472206  340.73098755    4.90999985    2.07999992
   18.31805611  238.61900330    4.90999985    2.07999992
   18.32111168  227.52400208    4.90999985    2.17000008
   18.32444572  200.82099915    4.90999985    2.23000002
   18.32611275  173.85600281    4.90999985    2.25000000
   18.32805634  215.75599670    4.90999985    2.21000004
   18.33111191  175.94500732    4.90999985    2.19000006
   18.33444595  149.81399536    4.90999985    2.26999998
   18.33777809  145.17500305    4.90999985    2.39000010
   18.34083366  142.26699829    4.90999985    2.46000004
   18.34416771  122.80200195    4.90999985    2.46000004
   18.35027885  122.80200195    4.90999985    2.48000002
   18.35444450  123.12300110    4.90999985    2.46000004
   18.35750008  142.00100708    4.90999985    2.50000000
   18.35944557  140.40199280    4.90999985    2.46000004
   18.36111069  153.84899902    4.90999985    2.44000006
   18.36416626  148.18299866    4.90999985    2.42000008
   18.36750031  134.44700623    4.90999985    2.42000008
   18.37083435  154.01600647    4.90999985    2.42000008
   18.37388992  133.03900146    4.90999985    2.40000010
   18.37722206  141.23500061    4.90999985    2.42000008
   18.38055611  170.41299438    4.90999985    2.32999992
   18.38361168  163.95599365    4.90999985    2.26999998
   18.38694382  167.36799622    4.90999985    2.34999990
   18.39305496  167.36799622    4.90999985    2.40000010
   18.39722252  195.31500244    4.90999985    2.21000004
   18.40027809  163.82800293    4.90999985    2.28999996
   18.40361023  213.49000549    4.90999985    2.32999992
   18.40694427  217.33399963    4.90999985    2.13000011
   18.40999985  191.91600037    4.90999985    2.17000008
   18.41333389  200.75900269    4.90999985    2.30999994
   18.41666603  250.98100281    4.90999985    2.17000008
   18.41972160  300.37298584    4.90999985    2.07999992
   18.42305565  229.41900635    4.90999985    2.09999990
   18.42611122  243.87300110    4.90999985    2.26999998
   18.42666626  262.48999023    4.90999985    2.26999998
   18.43000031  315.44799805    4.90999985    2.09999990
   18.43583298  315.44799805    4.90999985    1.94000006
   18.43999863  241.62500000    4.90999985    1.85000002
   18.44333267  115.26000214    4.90999985    1.98000002
   18.44638824  102.01999664    4.90999985    1.91999996
   18.44972038   97.57260132    4.90999985    1.89999998
   18.45305634  115.27799988    4.90999985    1.86000001
   18.45611191  361.25698853    4.90999985    1.98000002
   18.45944595  209.82600403    4.90999985    2.09999990
   18.46000099  245.99299622    4.90999985    2.21000004
   18.46305656  240.24200439    4.90999985    2.25000000
   18.46638870  265.42001343    4.90999985    2.21000004
   18.46972275  166.59399414    4.90999985    2.13000011
   18.47277832  331.17700195    4.90999985    1.98000002
   18.47888947  331.17700195    4.90999985    2.15000010
   18.48277855  272.96701050    4.90999985    2.17000008
   18.48611069  371.36300659    4.90999985    2.05999994
   18.48944473  356.69198608    4.90999985    2.05999994
   18.49250031  358.60900879    4.90999985    2.05999994
   18.49333382  276.68099976    4.90999985    2.03999996
   18.49611092  186.84700012    4.90999985    2.28999996
   18.49944496  199.18099976    4.90999985    2.30999994
   18.50277710  347.19500732    4.90999985    2.13000011
   18.50583267  410.10900879    4.90999985    2.07999992
   18.50777817  207.79200745    4.90999985    2.01999998
   18.50805473  331.17700195    4.90999985    1.98000002
   18.50805473  272.96701050    4.90999985    2.17000008
   18.50805473  371.36300659    4.90999985    2.05999994
   18.50805473  356.69198608    4.90999985    2.05999994
   18.50833321  358.60900879    4.90999985    2.05999994
   18.50833321  186.84700012    4.90999985    2.28999996
   18.50833321  199.18099976    4.90999985    2.30999994
   18.50833321  347.19500732    4.90999985    2.13000011
   18.51000023  266.21899414    4.90999985    1.96000004
   18.51333427  365.12298584    4.90999985    2.07999992
   18.51638794  151.99099731    4.90999985    2.11999989
   18.51972198  231.65199280    4.90999985    2.40000010
   18.52305603  216.09800720    4.90999985    2.28999996
   18.52861023  216.09800720    4.90999985    2.26999998
   18.53277779  318.70300293    4.90999985    2.21000004
   18.53610992  215.63400269    4.90999985    2.13000011
   18.53916550  148.71000671    4.90999985    2.13000011
   18.54166603  141.31599426    4.90999985    2.39000010
   18.54277802  126.86399841    4.90999985    2.46000004
   18.54611015  250.47599792    4.90999985    2.26999998
   18.54916573  272.19799805    4.90999985    2.17000008
   18.55249977  153.84800720    4.90999985    2.23000002
   18.55555534  186.90800476    4.90999985    2.36999989
   18.55888748  121.57700348    4.90999985    2.36999989
   18.56222153  137.68200684    4.90999985    2.36999989
   18.56527710  158.18699646    4.90999985    2.28999996
   18.57166672  158.18699646    4.90999985    1.86000001
   18.57555580  189.84199524    4.90999985    1.85000002
   18.57888985  170.38800049    4.90999985    2.15000010
   18.58222389  345.09201050    4.90999985    1.98000002
   18.58527756  243.74299622    4.90999985    2.07999992
   18.58861160  258.25698853    4.90999985    2.09999990
   18.59194565  219.62100220    4.90999985    2.09999990
   18.59500122  242.37199402    4.90999985    2.03999996
   18.59833336  200.43299866    4.90999985    1.89999998
   18.60166740  163.63000488    4.90999985    1.94000006
   18.60472298   -1.00000000    4.90999985    1.89999998
   18.60805511   -1.00000000    4.90999985    1.23000002
   18.61833382   -1.00000000    4.90999985    1.30999994
   18.62166595   -1.00000000    4.90999985    1.30999994
   18.62500000   66.07929993    4.90999985    1.71000004
   18.62805557   -1.00000000    4.90999985    1.89999998
   18.63138962   71.35240173    4.90999985    1.85000002
   18.63472176  404.58300781    4.90999985    1.85000002
   18.63666725  130.30099487    4.90999985    2.09999990
   18.63666725   -1.00000000    4.90999985    1.30999994
   18.63666725   -1.00000000    4.90999985    1.30999994
   18.63666725   66.07929993    4.90999985    1.71000004
   18.63694382   -1.00000000    4.90999985    1.89999998
   18.63694382   71.35240173    4.90999985    1.85000002
   18.63694382  404.58300781    4.90999985    1.85000002
   18.63694382  163.63000488    4.90999985    1.94000006
   18.63694382   -1.00000000    4.90999985    1.89999998
   18.63722229   -1.00000000    4.90999985    1.23000002
   18.63888931  322.16799927    4.90999985    2.17000008
   18.64194489  144.97799683    4.90999985    2.21000004
   18.64527702  303.92300415    4.90999985    2.17000008
   18.64833260  408.83801270    4.90999985    2.00000000
   18.65055466  153.13299561    4.90999985    2.13000011
   18.65055466  322.16799927    4.90999985    2.17000008
   18.65055466  144.97799683    4.90999985    2.21000004
   18.65055466  303.92300415    4.90999985    2.17000008
   18.65055466  408.83801270    4.90999985    2.00000000
   18.65250015  333.99600220    4.90999985    2.23000002
   18.65555573  199.27200317    4.90999985    2.11999989
   18.65888786  155.91400146    4.90999985    2.17000008
   18.66194344  244.99099731    4.90999985    2.07999992
   18.66527748  141.92799377    4.90999985    1.91999996
   18.67138863  141.92799377    4.90999985    2.00000000
   18.67527771  153.46499634    4.90999985    2.13000011
   18.67860985  302.39700317    4.90999985    2.09999990
   18.68194389  156.76100159    4.90999985    2.17000008
   18.68444443  132.94099426    4.90999985    2.28999996
   18.68527603  136.97799683    4.90999985    2.34999990
   18.68861008  144.97200012    4.90999985    2.36999989
   18.69166565  252.17799377    4.90999985    2.03999996
   18.69499969  153.35200500    4.90999985    2.17000008
   18.69833183  167.17999268    4.90999985    2.26999998
   18.70138931  147.35600281    4.90999985    2.28999996
   18.70472336  121.86199951    4.90999985    2.28999996
   18.70805550  280.01599121    4.90999985    2.15000010
   18.71416664  280.01599121    4.90999985    2.01999998
   18.71833420  169.94200134    4.90999985    2.21000004
   18.72138977  128.11399841    4.90999985    2.19000006
   18.72472191  149.52600098    4.90999985    2.21000004
   18.72777748  150.68600464    4.90999985    2.21000004
   18.73111153  230.20899963    4.90999985    2.09999990
   18.73444557  247.90699768    4.90999985    2.15000010
   18.73777771  220.65600586    4.90999985    2.05999994
   18.74083328  222.99699402    4.90999985    2.13000011
   18.74416733   -1.00000000   -1.00000000   -1.00000000
   18.74749947   99.24539948    4.90999985    1.75000000
   18.75055504  182.71099854    4.90999985    1.91999996
   18.75111198  235.92999268    4.90999985    2.01999998
   18.75694466  235.92999268    4.90999985    1.75000000
   18.76111031  178.40100098    4.90999985    2.05999994
   18.76416588  204.42700195    4.90999985    2.32999992
   18.76749992  154.55099487    4.90999985    2.07999992
   18.77083397   41.29399872    4.90999985    1.85000002
   18.77388954   -1.00000000    4.90999985    1.85000002
   18.77722168   55.45339966    4.90999985    1.69000006
   18.78055573   37.79639816    4.90999985    1.88000000
   18.78361130   -1.00000000    4.90999985    1.50000000
   18.78694344   -1.00000000    4.90999985    0.92000002
   18.79027748   -1.00000000    4.90999985    1.00000000
   18.79361153   -1.00000000    4.90999985    1.16999996
   18.79972076   -1.00000000    4.90999985    1.88000000
   18.80388832  157.38200378    4.90999985    1.94000006
   18.80722237  215.29699707    4.90999985    1.96000004
   18.81027794  111.68499756    4.90999985    1.91999996
   18.81361008  255.13099670    4.90999985    1.94000006
   18.81694603  222.13299561    4.90999985    2.19000006
   18.81777954  338.92498779    4.90999985    2.17000008
   18.82055664  249.43800354    4.90999985    2.11999989
   18.82361221  355.29299927    4.90999985    2.11999989
   18.82694626  305.40701294    4.90999985    1.94000006
   18.83027840  356.34399414    4.90999985    2.03999996
   18.83333397  126.23699951    4.90999985    1.96000004
   18.83666801  214.11500549    4.90999985    1.88000000
   18.84250069  214.11500549    4.90999985    2.19000006
   18.84666824  228.36700439    4.90999985    2.00000000
   18.85000038  108.85299683    4.90999985    1.96000004
   18.85111237   67.77829742    4.90999985    1.98000002
   18.85361099   -1.00000000    4.90999985    1.83000004
   18.85666656   -1.00000000    4.90999985    1.69000006
   18.86000061  138.91600037    4.90999985    1.66999996
   18.86333466  247.02000427    4.90999985    1.91999996
   18.86638832  156.11700439    4.90999985    2.01999998
   18.86972237  254.08700562    4.90999985    2.03999996
   18.87277794  167.68400574    4.90999985    2.13000011
   18.87611198  227.77299500    4.90999985    1.98000002
   18.87944412  193.96000671    4.90999985    1.94000006
   18.88555527  193.96000671    4.90999985    1.78999996
   18.88972282  339.46099854    4.90999985    1.94000006
   18.89277840  202.43400574    4.90999985    2.03999996
   18.89611053   48.49300003    4.90999985    2.07999992
   18.89944458   69.11160278    4.90999985    1.85000002
   18.90250015  133.92999268    4.90999985    1.88000000
   18.90583229  154.57499695    4.90999985    1.94000006
   18.90916634  248.45899963    4.90999985    1.88000000
   18.91222191  213.07899475    4.90999985    1.98000002
   18.91555595  183.23599243    4.90999985    2.28999996
   18.91777802  182.64700317    4.90999985    2.32999992
   18.91916656  174.97399902    4.90999985    2.28999996
   18.92222214  200.05099487    4.90999985    2.19000006
   18.92833328  200.05099487    4.90999985    1.96000004
   18.93249893  404.73199463    4.90999985    2.05999994
   18.93444443  211.36999512    4.90999985    2.09999990
   18.93444443   69.11160278    4.90999985    1.85000002
   18.93444443  133.92999268    4.90999985    1.88000000
   18.93472099  154.57499695    4.90999985    1.94000006
   18.93472099  248.45899963    4.90999985    1.88000000
   18.93472099  213.07899475    4.90999985    1.98000002
   18.93472099  183.23599243    4.90999985    2.28999996
   18.93472099  174.97399902    4.90999985    2.28999996
   18.93499947  200.05099487    4.90999985    2.19000006
   18.93499947  404.73199463    4.90999985    2.05999994
   18.93666649  263.98999023    4.90999985    1.98000002
   18.93999863  197.40100098    4.90999985    2.00000000
   18.94305420   -1.00000000    4.90999985    2.07999992
   18.94638824   -1.00000000    4.90999985    1.73000002
   18.94972038   83.03340149    4.90999985    1.76999998
   18.95527840   83.03340149    4.90999985    2.17000008
   18.95944595   -1.00000000    4.90999985    1.83000004
   18.96250153  128.63499451    4.90999985    1.78999996
   18.96583366   -1.00000000    4.90999985    2.05999994
   18.96916771   -1.00000000    4.90999985    1.58000004
   18.97249985   80.99330139    4.90999985    1.69000006
   18.97583389   -1.00000000    4.90999985    1.75000000
   18.97888947  100.98200226    4.90999985    1.69000006
   18.98222351   -1.00000000    4.90999985    1.83000004
   18.98527718   61.54510117    4.90999985    1.61000001
   18.98861122   91.67960358    4.90999985    1.88000000
   18.99194527   -1.00000000    4.90999985    1.86000001
   18.99805641   -1.00000000    4.90999985    2.05999994
   19.00222206   47.30289841    4.90999985    1.78999996
   19.00555611  111.94699860    4.90999985    1.85000002
   19.00861168   96.63020325    4.90999985    1.76999998
   19.01194382  123.00099945    4.90999985    1.75000000
   19.01499939  145.03700256    4.90999985    1.88000000
   19.01833344  176.58799744    4.90999985    1.88000000
   19.02166557  204.98300171    4.90999985    1.89999998
   19.02472115  163.89399719    4.90999985    2.23000002
   19.02805519  258.01400757    4.90999985    2.23000002
   19.03138924  158.49099731    4.90999985    1.94000006
   19.03444481  203.28999329    4.90999985    2.17000008
   19.03499985  217.29499817    4.90999985    2.17000008
   19.04083252  217.29499817    4.90999985    2.00000000
   19.04500008  248.35499573    4.90999985    2.19000006
   19.04833221  152.54299927    4.90999985    2.11999989
   19.05138779  343.29000854    4.90999985    2.15000010
   19.05472183  175.19400024    4.90999985    1.98000002
   19.05805397  253.32600403    4.90999985    2.19000006
   19.06110954  176.92599487    4.90999985    2.17000008
   19.06444359  453.60998535    4.90999985    2.30999994
   19.06638718  127.52200317    4.90999985    2.30999994
   19.06638718  248.35499573    4.90999985    2.19000006
   19.06666756  152.54299927    4.90999985    2.11999989
   19.06666756  343.29000854    4.90999985    2.15000010
   19.06666756  175.19400024    4.90999985    1.98000002
   19.06666756  253.32600403    4.90999985    2.19000006
   19.06666756  176.92599487    4.90999985    2.17000008
   19.06694603  453.60998535    4.90999985    2.30999994
   19.06694603  158.49099731    4.90999985    1.94000006
   19.06694603  203.28999329    4.90999985    2.17000008
   19.06861115  136.79899597    4.90999985    2.36999989
   19.07194519  163.06799316    4.90999985    2.34999990
   19.07500076  129.16499329    4.90999985    2.32999992
   19.07833481  156.64999390    4.90999985    2.26999998
   19.08166695  174.82299805    4.90999985    2.26999998
   19.08722305  174.82299805    4.90999985    2.09999990
   19.09138870  280.26699829    4.90999985    2.00000000
   19.09444427  203.41900635    4.90999985    2.01999998
   19.09777832  338.76901245    4.90999985    2.05999994
   19.10027885  133.14900208    4.90999985    2.00000000
   19.10138893   85.14839935    4.90999985    2.00000000
   19.10444450  121.85099792    4.90999985    1.89999998
   19.10777855  229.45700073    4.90999985    1.94000006
   19.11083412  205.75500488    4.90999985    2.07999992
   19.11416626  337.86499023    4.90999985    2.07999992
   19.11750031  316.35998535    4.90999985    2.01999998
   19.12055588  125.54000092    4.90999985    2.01999998
   19.12388992   96.69609833    4.90999985    1.91999996
   19.13000107   96.69609833    4.90999985    1.89999998
   19.13416672  275.93798828    4.90999985    2.05999994
   19.13750076  252.96000671    4.90999985    2.01999998
   19.14055634  246.48699951    4.90999985    2.19000006
   19.14388847  284.21301270    4.90999985    2.21000004
   19.14722252   80.44680023    4.90999985    2.05999994
   19.15027809  132.24800110    4.90999985    1.80999994
   19.15361023   -1.00000000    4.90999985    1.61000001
   19.15694427   -1.00000000    4.90999985    1.46000004
   19.15999985   -1.00000000    4.90999985    1.30999994
   19.16333389   -1.00000000    4.90999985    1.44000006
   19.16666603   -1.00000000    4.90999985    1.44000006
   19.17694473   -1.00000000    4.90999985    0.76999998
   19.18027687   -1.00000000    4.90999985    1.00000000
   19.18333244   -1.00000000    4.90999985    1.03999996
   19.18666649   -1.00000000    4.90999985    1.09000003
   19.18999863   28.03310013    4.90999985    1.34000003
   19.19305420  272.73800659    4.90999985    1.89999998
   19.19638824   97.09929657    4.90999985    1.73000002
   19.19972038   70.53150177    4.90999985    1.89999998
   19.20305634   -1.00000000    4.90999985    1.33000004
   19.20611191   -1.00000000    4.90999985    1.19000006
   19.20944595   -1.00000000    4.90999985    0.79000002
   19.21583366   -1.00000000    4.90999985    1.11000001
   19.22000122   -1.00000000    4.90999985    1.55999994
   19.22305679   58.49950027    4.90999985    1.61000001
   19.22638893   73.00550079    4.90999985    1.83000004
   19.22944450  151.62899780    4.90999985    1.85000002
   19.23277855  274.93099976    4.90999985    1.89999998
   19.23361206  341.32101440    4.90999985    1.89999998
   19.23638916  125.81900024    4.90999985    1.94000006
   19.23972321  361.87200928    4.90999985    1.89999998
   19.24277878  329.15798950    4.90999985    2.01999998
   19.24611092  261.43499756    4.90999985    1.98000002
   19.24944496  307.32901001    4.90999985    2.01999998
   19.25250053  239.62100220    4.90999985    2.03999996
   19.25861168  239.62100220    4.90999985    1.69000006
   19.27694511   -1.00000000    4.90999985    1.25000000
   19.28027725   -1.00000000    4.90999985    1.25000000
   19.28333282   -1.00000000    4.90999985    1.25000000
   19.28666687   -1.00000000    4.90999985    1.64999998
   19.28999901   -1.00000000    4.90999985    1.76999998
   19.29305458   -1.00000000    4.90999985    1.50000000
   19.29638863  166.96800232    4.90999985    1.69000006
   19.30166626  166.96800232    4.90999985    1.89999998
   19.30583191  206.71200562    4.90999985    1.98000002
   19.30888748  220.95799255    4.90999985    2.11999989
   19.30999947  242.03700256    4.90999985    2.13000011
   19.31277657  248.57000732    4.90999985    2.19000006
   19.31583214  357.11898804    4.90999985    2.03999996
   19.31916809  248.62300110    4.90999985    1.80999994
   19.32250023  173.32800293    4.90999985    2.13000011
   19.32555580   -1.00000000    4.90999985    1.89999998
   19.32888985   -1.00000000    4.90999985    1.26999998
   19.33194542   -1.00000000    4.90999985    0.98000002
   19.33527756   -1.00000000    4.90999985    1.09000003
   19.33861160  398.30999756    4.90999985    1.53999996
   19.34444427  398.30999756    4.90999985    2.17000008
   19.34861183  228.68299866    4.90999985    2.21000004
   19.35194397  178.40299988    4.90999985    2.15000010
   19.35499954  177.13200378    4.90999985    2.15000010
   19.35833359  208.49499512    4.90999985    2.17000008
   19.36166763  259.20199585    4.90999985    2.11999989
   19.36472321  195.83700562    4.90999985    2.09999990
   19.36805534  180.28799438    4.90999985    2.00000000
   19.37111092  350.61801147    4.90999985    2.09999990
   19.37444496  267.62100220    4.90999985    2.01999998
   19.37666702  188.38999939    4.90999985    2.03999996
   19.37805557   -1.00000000    4.90999985    2.03999996
   19.38111115   -1.00000000    4.90999985    1.39999998
   19.38722229   -1.00000000    4.90999985    2.00000000
   19.39138794  191.18200684    4.90999985    2.17000008
   19.39472198  187.73399353    4.90999985    2.01999998
   19.39805603  234.63699341    4.90999985    1.96000004
   19.40111160  228.14300537    4.90999985    1.96000004
   19.40444374  159.10600281    4.90999985    2.01999998
   19.40749931  154.68699646    4.90999985    2.07999992
   19.40999985   70.90149689    4.90999985    1.96000004
   19.41138840  214.17900085    4.90999985    1.71000004
   19.41444397  240.92500305    4.90999985    2.17000008
   19.41777802  241.62199402    4.90999985    2.17000008
   19.42111015  218.56599426    4.90999985    2.17000008
   19.42416573  188.69700623    4.90999985    2.11999989
   19.43027687  188.69700623    4.90999985    2.09999990
   19.43444443   99.39360046    4.90999985    1.91999996
   19.43750000   -1.00000000    4.90999985    1.83000004
   19.44083214   -1.00000000   -1.00000000   -1.00000000
   19.44333267   -1.00000000   -1.00000000   -1.00000000
   19.44444275   47.70159912    4.90999985    1.75000000
   19.44777679   70.97879791    4.90999985    1.83000004
   19.45083427   -1.00000000    4.90999985    1.73000002
   19.45416832   -1.00000000    4.90999985    1.53999996
   19.45722389   -1.00000000    4.90999985    1.39999998
   19.46055603   -1.00000000    4.90999985    1.41999996
   19.46389008   -1.00000000    4.90999985    1.41999996
   19.46694565   -1.00000000    4.90999985    1.39999998
   19.47722244   -1.00000000    4.90999985    1.46000004
   19.48027802   -1.00000000    4.90999985    1.51999998
   19.48361206   -1.00000000    4.90999985    1.51999998
   19.48694420   -1.00000000    4.90999985    1.55999994
   19.48999977   -1.00000000    4.90999985    1.60000002
   19.49333382   -1.00000000    4.90999985    1.61000001
   19.49638939   96.61309814    4.90999985    1.78999996
   19.49972153   -1.00000000    4.90999985    1.89999998
   19.50305557   -1.00000000    4.90999985    1.46000004
   19.50611115   -1.00000000    4.90999985    1.51999998
   19.50944519   90.46499634    4.90999985    1.58000004
   19.51000023   72.61910248    4.90999985    1.71000004
   19.51583290   72.61910248    4.90999985    1.85000002
   19.52000046  155.57000732    4.90999985    1.91999996
   19.52333260  141.48599243    4.90999985    1.91999996
   19.52638817  130.57499695    4.90999985    1.89999998
   19.52972221  101.06099701    4.90999985    1.85000002
   19.53305435  259.42700195    4.90999985    1.85000002
   19.53610992  269.81201172    4.90999985    1.85000002
   19.53944397  255.19500732    4.90999985    2.00000000
   19.54249954  216.54800415    4.90999985    2.13000011
   19.54333305  161.13000488    4.90999985    2.13000011
   19.54638863  168.18699646    4.90999985    2.17000008
   19.54944420  184.60499573    4.90999985    2.21000004
   19.55277634  120.86900330    4.90999985    2.40000010
   19.56277657   -1.00000000    4.90999985    2.13000011
   19.56611061   -1.00000000    4.90999985    1.80999994
   19.56916809   -1.00000000    4.90999985    1.44000006
   19.57250023  225.50700378    4.90999985    1.86000001
   19.57583427  137.93400574    4.90999985    2.19000006
   19.57666779  154.42399597    4.90999985    2.28999996
   19.57944489  237.83700562    4.90999985    2.13000011
   19.58277893  309.24499512    4.90999985    1.98000002
   19.58583450  261.62399292    4.90999985    2.00000000
   19.58916664  248.33999634    4.90999985    2.07999992
   19.59222221  233.06900024    4.90999985    2.15000010
   19.59555626  277.02398682    4.90999985    2.11999989
   19.60166740  277.02398682    4.90999985    2.17000008
   19.60555649  194.58599854    4.90999985    2.25000000
   19.60888863  117.54900360    4.90999985    2.28999996
   19.61000061  155.07000732    4.90999985    2.32999992
   19.61250114  123.36499786    4.90999985    2.46000004
   19.61555672  118.88200378    4.90999985    2.48000002
   19.61888885  114.75700378    4.90999985    2.48000002
   19.62222290  182.51499939    4.90999985    2.30999994
   19.62527847  232.24800110    4.90999985    2.19000006
   19.62861061   -1.00000000   -1.00000000   -1.00000000
   19.63194466   49.14649963    4.90999985    1.71000004
   19.63500023   -1.00000000    4.90999985    1.83000004
   19.63833237   -1.00000000    4.90999985    1.66999996
   19.64444351   -1.00000000    4.90999985    2.05999994
   19.64861107   97.34870148    4.90999985    1.71000004
   19.65166664  312.59201050    4.90999985    2.01999998
   19.65499878  208.40899658    4.90999985    2.07999992
   19.65833282  162.61500549    4.90999985    2.15000010
   19.66138840  160.90299988    4.90999985    2.19000006
   19.66472244  148.84700012    4.90999985    2.26999998
   19.66777802  130.23399353    4.90999985    2.28999996
   19.67111015  139.91000366    4.90999985    2.23000002
   19.67444420  119.64499664    4.90999985    2.39000010
   19.67666626  115.44899750    4.90999985    2.44000006
   19.67805481  115.09999847    4.90999985    2.44000006
   19.68111038  118.91400146    4.90999985    2.40000010
   19.68722153  118.91400146    4.90999985    2.40000010
   19.69138718  126.37599945    4.90999985    2.40000010
   19.69472122  116.17199707    4.90999985    2.40000010
   19.69777679  126.09500122    4.90999985    2.36999989
   19.70111275  135.45500183    4.90999985    2.36999989
   19.70416832  124.91000366    4.90999985    2.36999989
   19.70750046  251.82600403    4.90999985    2.11999989
   19.71000099  209.26699829    4.90999985    1.89999998
   19.71111107  246.48300171    4.90999985    1.96000004
   19.71416664  281.87899780    4.90999985    2.01999998
   19.71750069  272.61499023    4.90999985    1.89999998
   19.72083473   58.43109894    4.90999985    1.89999998
   19.72389030   77.48439789    4.90999985    1.69000006
   19.73000145   77.48439789    4.90999985    1.85000002
   19.73416710  498.35900879    4.90999985    1.80999994
   19.73611069  313.90100098    4.90999985    1.98000002
   19.73638916  281.87899780    4.90999985    2.01999998
   19.73638916  272.61499023    4.90999985    1.89999998
   19.73638916   58.43109894    4.90999985    1.89999998
   19.73638916   77.48439789    4.90999985    1.69000006
   19.73666763  498.35900879    4.90999985    1.80999994
   19.73666763  135.45500183    4.90999985    2.36999989
   19.73666763  124.91000366    4.90999985    2.36999989
   19.73666763  251.82600403    4.90999985    2.11999989
   19.73666763  246.48300171    4.90999985    1.96000004
   19.73833275  167.16499329    4.90999985    2.05999994
   19.74166679  153.48399353    4.90999985    2.17000008
   19.74500084  139.35000610    4.90999985    2.34999990
   19.74805641  129.79499817    4.90999985    2.36999989
   19.75138855  136.17900085    4.90999985    2.36999989
   19.75694466  136.17900085    4.90999985    2.40000010
   19.76111031  148.32699585    4.90999985    2.36999989
   19.76444435  117.37000275    4.90999985    2.34999990
   19.76749992  130.08299255    4.90999985    2.39000010
   19.77000046  117.13600159    4.90999985    2.36999989
   19.77111053  128.55000305    4.90999985    2.39000010
   19.77444458  133.25599670    4.90999985    2.40000010
   19.77750015  127.92500305    4.90999985    2.42000008
   19.78083229  119.88999939    4.90999985    2.44000006
   19.78388786  121.83000183    4.90999985    2.39000010
   19.78722191  164.47500610    4.90999985    2.36999989
   19.79055595  155.26300049    4.90999985    2.34999990
   19.79361153  134.07200623    4.90999985    2.36999989
   19.79972076  134.07200623    4.90999985    2.34999990
   19.80388832  132.11599731    4.90999985    2.34999990
   19.80722237  142.78500366    4.90999985    2.34999990
   19.81055450  129.28900146    4.90999985    2.39000010
   19.81361008  138.12199402    4.90999985    2.36999989
   19.81694603  134.98699951    4.90999985    2.40000010
   19.82027817  115.96700287    4.90999985    2.40000010
   19.82333374  117.41799927    4.90999985    2.44000006
   19.82666779  126.92199707    4.90999985    2.42000008
   19.83000183  121.69799805    4.90999985    2.39000010
   19.83305550  129.17799377    4.90999985    2.39000010
   19.83638954  129.42199707    4.90999985    2.40000010
   19.83694458  130.53599548    4.90999985    2.40000010
   19.84277916  130.53599548    4.90999985    2.42000008
   19.84694481  126.73200226    4.90999985    2.40000010
   19.85000038  137.50999451    4.90999985    2.39000010
   19.85333443  141.41600037    4.90999985    2.36999989
   19.85666656  122.84999847    4.90999985    2.42000008
   19.85972214  138.52999878    4.90999985    2.40000010
   19.86305618  121.64900208    4.90999985    2.44000006
   19.86611176  137.49800110    4.90999985    2.46000004
   19.86944389  134.04800415    4.90999985    2.42000008
   19.87027740  129.51699829    4.90999985    2.42000008
   19.87305641  138.68400574    4.90999985    2.46000004
   19.87638855  142.41499329    4.90999985    2.34999990
   19.87972260  138.98300171    4.90999985    2.39000010
   19.88555527  138.98300171    4.90999985    2.40000010
   19.88972282  123.99800110    4.90999985    2.36999989
   19.89277840  124.99900055    4.90999985    2.36999989
   19.89611053  121.37500000    4.90999985    2.36999989
   19.89944458  116.91000366    4.90999985    2.40000010
   19.90277672  126.00700378    4.90999985    2.36999989
   19.90361023  138.37500000    4.90999985    2.34999990
   19.90611076  142.13400269    4.90999985    2.32999992
   19.90944481  134.23100281    4.90999985    2.39000010
   19.91277695  129.42999268    4.90999985    2.46000004
   19.91583252  163.67700195    4.90999985    2.40000010
   19.91916656  181.13400269    4.90999985    2.42000008
   19.92222214  226.22799683    4.90999985    2.44000006
   19.92833328  226.22799683    4.90999985    2.36999989
   19.93249893  136.47999573    4.90999985    2.39000010
   19.93583298  101.49299622    4.90999985    2.36999989
   19.93916512   -1.00000000    4.90999985    2.34999990
   19.94249916   -1.00000000    4.90999985    2.36999989
   19.94555473   -1.00000000    4.90999985    2.32999992
   19.94888878   -1.00000000    4.90999985    2.25000000
   19.95222282   -1.00000000    4.90999985    2.32999992
   19.95527840   -1.00000000    4.90999985    2.40000010
   19.95861244   -1.00000000    4.90999985    2.36999989
   19.96194458   -1.00000000    4.90999985    2.32999992
   19.96500015   -1.00000000    4.90999985    2.25000000
   19.97527885   -1.00000000    4.90999985    2.07999992
   19.97861099   -1.00000000    4.90999985    2.09999990
   19.98166656   -1.00000000    4.90999985    2.21000004
   19.98500061   -1.00000000    4.90999985    2.23000002
   19.98833275   -1.00000000    4.90999985    2.25000000
   19.99138832   -1.00000000    4.90999985    2.25000000
   19.99472237   -1.00000000    4.90999985    2.28999996
   19.99805641   -1.00000000    4.90999985    2.23000002
   20.00111198   -1.00000000    4.90999985    2.15000010
   20.00472260   -1.00000000    4.90999985    2.19000006
   20.00805473   -1.00000000    4.90999985    2.23000002
   20.01805496   -1.00000000    4.90999985    2.36999989
   20.02138901   -1.00000000    4.90999985    2.30999994
   20.02472115   -1.00000000    4.90999985    2.28999996
   20.02777672   -1.00000000    4.90999985    2.21000004
   20.03111076   -1.00000000    4.90999985    2.15000010
   20.03444481   -1.00000000    4.90999985    2.17000008
   20.03777695   -1.00000000    4.90999985    2.23000002
   20.04111099   -1.00000000    4.90999985    2.25000000
   20.04416656   -1.00000000    4.90999985    2.13000011
   20.04749870   -1.00000000    4.90999985    2.11999989
   20.05083275   -1.00000000    4.90999985    2.13000011
   20.06110954   -1.00000000    4.90999985    2.25000000
   20.06416512   -1.00000000    4.90999985    2.40000010
   20.06750107   -1.00000000    4.90999985    2.46000004
   20.07111168   -1.00000000    4.90999985    2.50000000
   20.07444572   -1.00000000    4.90999985    2.48000002
   20.07750130   -1.00000000    4.90999985    2.42000008
   20.08083344   -1.00000000    4.90999985    2.28999996
   20.08416748   -1.00000000    4.90999985    2.34999990
   20.08722305   -1.00000000    4.90999985    2.30999994
   20.09055710   -1.00000000    4.90999985    2.19000006
   20.09388924   -1.00000000    4.90999985    2.21000004
   20.10388947   -1.00000000    4.90999985    2.17000008
   20.10722351   -1.00000000    4.90999985    2.19000006
