    HOUR (UT)   FLARE FACTOR    SKY TESTER    SUN TESTER
   11.13111115   -1.00000000   -1.00000000   -1.00000000
   11.15138817  154.02099609    4.90999985    1.76999998
   11.15638828  150.49600220    4.90999985    1.76999998
   11.15999985  158.69400024    4.90999985    1.76999998
   11.16388893  176.86500549    4.90999985    1.76999998
   11.16694450  191.70599365    4.90999985    1.78999996
   11.17027855  168.02900696    4.90999985    1.78999996
   11.17333412  154.94500732    4.90999985    1.78999996
   11.17666721  173.97099304    4.90999985    1.78999996
   11.18000031  173.72900391    4.90999985    1.78999996
   11.18305588  194.94500732    4.90999985    1.80999994
   11.18472195  163.39900208    4.90999985    1.80999994
   11.18666649  174.49600220    4.90999985    1.80999994
   11.19000053  148.09899902    4.90999985    1.80999994
   11.19333363  175.48399353    4.90999985    1.83000004
   11.19638920  134.92199707    4.90999985    1.83000004
   11.19972229  148.48500061    4.90999985    1.83000004
   11.20277786  159.40299988    4.90999985    1.83000004
   11.20611095  168.09899902    4.90999985    1.83000004
   11.20944405  168.57099915    4.90999985    1.83000004
   11.21249962  158.78399658    4.90999985    1.85000002
   11.21583271  138.92500305    4.90999985    1.85000002
   11.21805477  154.32000732    4.90999985    1.86000001
   11.21944427  154.14700317    4.90999985    1.85000002
   11.22277737  183.24200439    4.90999985    1.85000002
   11.22583294  161.28199768    4.90999985    1.86000001
   11.22916603  185.94400024    4.90999985    1.86000001
   11.23249912  176.88900757    4.90999985    1.86000001
   11.23583317  153.14799500    4.90999985    1.88000000
   11.23888874  181.03799438    4.90999985    1.86000001
   11.24222279  161.63999939    4.90999985    1.86000001
   11.24555588  145.64599609    4.90999985    1.88000000
   11.24861145  147.59399414    4.90999985    1.88000000
   11.25138855  169.84899902    4.90999985    1.88000000
   11.25222206  174.03100586    4.90999985    1.88000000
   11.25555515  162.18200684    4.90999985    1.88000000
   11.25861073  182.74800110    4.90999985    1.89999998
   11.26194477  177.27000427    4.90999985    1.89999998
   11.26527786  184.12800598    4.90999985    1.89999998
   11.26833344  157.89999390    4.90999985    1.89999998
   11.27166653  163.49499512    4.90999985    1.91999996
   11.27499962  168.41700745    4.90999985    1.91999996
   11.27805519  163.27000427    4.90999985    1.91999996
   11.28138828  154.88200378    4.90999985    1.91999996
   11.28472233  155.96400452    4.90999985    1.91999996
   11.28500080  140.77000427    4.90999985    1.91999996
   11.28833389  166.21200562    4.90999985    1.91999996
   11.29138947  159.96200562    4.90999985    1.94000006
   11.29472256  157.97399902    4.90999985    1.94000006
   11.29805565  150.81300354    4.90999985    1.94000006
   11.30111122  165.91900635    4.90999985    1.94000006
   11.30444431  148.49299622    4.90999985    1.94000006
   11.30777836  154.99899292    4.90999985    1.94000006
   11.31083393  147.81900024    4.90999985    1.94000006
   11.31416702  147.28300476    4.90999985    1.94000006
   11.31750011  134.24299622    4.90999985    1.96000004
   11.31805515  153.40800476    4.90999985    1.96000004
   11.32083321  147.67399597    4.90999985    1.96000004
   11.32416630  131.33700562    4.90999985    1.96000004
   11.32750034  118.63600159    4.90999985    1.96000004
   11.33055592  132.25700378    4.90999985    1.98000002
   11.33388901  136.37899780    4.90999985    1.98000002
   11.33694458  142.01300049    4.90999985    1.98000002
   11.34027767  163.44900513    4.90999985    1.98000002
   11.34361076  140.53300476    4.90999985    1.98000002
   11.34666634  142.40400696    4.90999985    1.98000002
   11.35000038  164.43400574    4.90999985    1.98000002
   11.35138893  145.40100098    4.90999985    1.98000002
   11.35361195  143.44500732    4.90999985    1.98000002
   11.35694504  134.57800293    4.90999985    1.98000002
   11.36027813  140.31199646    4.90999985    2.00000000
   11.36333370  143.07600403    4.90999985    2.00000000
   11.36666679  137.02400208    4.90999985    2.00000000
   11.36972237  115.01499939    4.90999985    2.00000000
   11.37305546  124.43199921    4.90999985    2.00000000
   11.37638855  133.54699707    4.90999985    2.00000000
   11.37944412  134.94999695    4.90999985    2.00000000
   11.38277817  142.87500000    4.90999985    2.01999998
   11.38472176  136.15499878    4.90999985    2.01999998
   11.38638878  152.24600220    4.90999985    2.01999998
   11.38972187  148.09100342    4.90999985    2.01999998
   11.39305496  157.96600342    4.90999985    2.01999998
   11.39611053  147.04100037    4.90999985    2.01999998
   11.39944458  157.20199585    4.90999985    2.01999998
   11.40277767  145.70300293    4.90999985    2.01999998
   11.40583324  146.92599487    4.90999985    2.03999996
   11.40916634  148.02099609    4.90999985    2.03999996
   11.41249943  147.11500549    4.90999985    2.03999996
   11.41555500  144.90100098    4.90999985    2.03999996
   11.41805553  143.54699707    4.90999985    2.03999996
   11.41916656  142.33700562    4.90999985    2.03999996
   11.42250061  140.85000610    4.90999985    2.03999996
   11.42583370  140.38699341    4.90999985    2.05999994
   11.42888927  140.15299988    4.90999985    2.05999994
   11.43222237  138.97599792    4.90999985    2.05999994
   11.43527794  140.53900146    4.90999985    2.05999994
   11.43861103  140.94700623    4.90999985    2.07999992
   11.44194412  144.76699829    4.90999985    2.05999994
   11.44499969  153.19299316    4.90999985    2.07999992
   11.44833374  162.67100525    4.90999985    2.07999992
   11.45138836  146.42500305    4.90999985    2.07999992
   11.45194435  151.01499939    4.90999985    2.07999992
   11.45527744  149.84800720    4.90999985    2.07999992
   11.45861053  150.67799377    4.90999985    2.07999992
   11.46166611  144.83599854    4.90999985    2.07999992
   11.46500015  139.10499573    4.90999985    2.07999992
   11.46805477  137.98599243    4.90999985    2.09999990
   11.47138882  113.80200195    4.90999985    2.09999990
   11.47472191  108.77799988    4.90999985    2.07999992
   11.47777748  111.88899994    4.90999985    2.09999990
   11.48111057  130.98100281    4.90999985    2.09999990
   11.48444462  138.34500122    4.90999985    2.09999990
   11.48500061  137.09300232    4.90999985    2.09999990
   11.48805618  136.40199280    4.90999985    2.11999989
   11.49138927  132.36799622    4.90999985    2.11999989
   11.49444485  130.62800598    4.88999987    2.11999989
   11.49777794  139.22300720    4.90999985    2.09999990
   11.50111103  114.10900116    4.88999987    2.11999989
   11.50416660  136.01499939    4.86999989    2.11999989
   11.50749969  122.27500153    4.86999989    2.13000011
   11.51083374  119.69200134    4.84999990    2.13000011
   11.51388931  131.38299561    4.82999992    2.11999989
   11.51722240  131.11999512    4.82999992    2.11999989
   11.51833344  133.87899780    4.80999994    2.11999989
   11.52055550  131.96400452    4.80999994    2.11999989
   11.52388859  130.80599976    4.80999994    2.13000011
   11.52694416  133.23399353    4.80999994    2.13000011
   11.53027725  135.68899536    4.80000019    2.13000011
   11.53361130  142.21400452    4.78000021    2.13000011
   11.53666687  139.66200256    4.78000021    2.13000011
   11.54000092  136.35499573    4.78000021    2.15000010
   11.54333401  136.04800415    4.73999977    2.13000011
   11.54638958  140.26100159    4.73999977    2.13000011
   11.54972267  133.29200745    4.71999979    2.15000010
   11.55166721  120.09700012    4.71999979    2.15000010
   11.55333328  115.40699768    4.69999981    2.15000010
   11.55666733  131.86700439    4.69999981    2.15000010
   11.56000042  123.40799713    4.69999981    2.15000010
   11.56305599  132.01600647    4.67999983    2.15000010
   11.56638908  136.80700684    4.67999983    2.15000010
   11.56972218  128.25500488    4.63999987    2.17000008
   11.57277775  129.13299561    4.61999989    2.17000008
   11.57611084  126.36399841    4.61999989    2.17000008
   11.57944393  119.82299805    4.59999990    2.17000008
   11.58249950  125.09500122    4.57999992    2.17000008
   11.58500004  125.42299652    4.57999992    2.17000008
   11.58611107  116.58699799    4.57999992    2.17000008
   11.58944416  129.75799561    4.57999992    2.17000008
   11.59277725  135.33399963    4.55999994    2.17000008
   11.59583282  122.37799835    4.55999994    2.17000008
   11.59916592  130.78700256    4.55999994    2.19000006
   11.60222244  130.00199890    4.55999994    2.19000006
   11.60555553  139.94599915    4.55999994    2.17000008
   11.60888958  131.43200684    4.53999996    2.19000006
   11.61194515  126.73400116    4.53999996    2.19000006
   11.61527824  125.03199768    4.53000021    2.19000006
   11.61833382  124.59600067    4.53999996    2.19000006
   11.61861134  133.93600464    4.53999996    2.19000006
   11.62194443  123.11100006    4.53999996    2.19000006
   11.62500000  126.41699982    4.53000021    2.19000006
   11.62833309  127.54399872    4.53000021    2.19000006
   11.63166714  135.42199707    4.53999996    2.19000006
   11.63472176  133.47500610    4.53000021    2.19000006
   11.63805580  143.12699890    4.53000021    2.21000004
   11.64138889  133.88099670    4.53000021    2.19000006
   11.64444447  134.29600525    4.53000021    2.21000004
   11.64777756  132.69099426    4.51000023    2.21000004
   11.65111065  125.57399750    4.51000023    2.21000004
   11.65166664  113.83000183    4.51000023    2.21000004
   11.65444374  116.51799774    4.48999977    2.21000004
   11.65777779  125.33200073    4.46999979    2.21000004
   11.66111088  116.11699677    4.44999981    2.21000004
   11.66416645  129.14799500    4.44999981    2.21000004
   11.66750050  123.37799835    4.42999983    2.23000002
   11.67083359  130.83999634    4.40999985    2.23000002
   11.67388916  128.71800232    4.40999985    2.23000002
   11.67722225  130.43099976    4.36999989    2.23000002
   11.68055630  127.36100006    4.34999990    2.23000002
   11.68388939  133.73500061    4.34999990    2.23000002
   11.68500042  131.28999329    4.32999992    2.23000002
   11.68722248  130.61599731    4.30999994    2.23000002
   11.69055557  129.16099548    4.28999996    2.23000002
   11.69388866  128.67500305    4.26999998    2.23000002
   11.69694424  128.45100403    4.23999977    2.25000000
   11.70027733  118.74900055    4.23999977    2.23000002
   11.70333290  134.60600281    4.19999981    2.23000002
   11.70666695  123.83000183    4.15999985    2.25000000
   11.70972157  135.13699341    4.15999985    2.25000000
   11.71305561  123.32499695    4.13999987    2.25000000
   11.71638870  117.55100250    4.13999987    2.25000000
   11.71833324  120.16500092    4.11999989    2.26999998
   11.71972179  131.98699951    4.11999989    2.25000000
   11.72305489  136.66999817    4.09999990    2.25000000
   11.72638798  121.86299896    4.07999992    2.26999998
   11.72944355  121.05000305    4.09999990    2.26999998
   11.73277760  120.05699921    4.07999992    2.26999998
   11.73611164  121.51699829    4.07999992    2.26999998
   11.73916721  129.33700562    4.09999990    2.26999998
   11.74250031  114.13800049    4.07999992    2.26999998
   11.74555588  119.55500031    4.07999992    2.26999998
   11.74888897  117.22299957    4.07999992    2.26999998
   11.75166702  128.02299500    4.07999992    2.26999998
   11.75249958  123.98300171    4.07999992    2.26999998
   11.75583363  118.48600006    4.07999992    2.26999998
   11.75916672  124.76899719    4.09999990    2.28999996
   11.76222229  119.55400085    4.07999992    2.26999998
   11.76555538  102.73300171    4.07999992    2.28999996
   11.76861095  105.98899841    4.07999992    2.28999996
   11.77194405  109.66200256    4.09999990    2.26999998
   11.77527714  122.91600037    4.07999992    2.28999996
   11.77833271  109.35099792    4.07999992    2.28999996
   11.78166676  114.18499756    4.05999994    2.28999996
   11.78500080  120.85500336    4.03999996    2.28999996
   11.78527832  109.26399994    4.03999996    2.28999996
   11.78861141  120.15799713    4.01999998    2.28999996
   11.79194450  123.18499756    3.99000001    2.28999996
   11.79500008  125.08599854    3.97000003    2.28999996
   11.79833412  101.20999908    3.97000003    2.28999996
   11.80138874  119.13400269    3.95000005    2.30999994
   11.80472279  120.19599915    3.93000007    2.30999994
   11.80805588  118.97100067    3.93000007    2.30999994
   11.81111145  122.87699890    3.91000009    2.30999994
   11.81444454  122.75499725    3.91000009    2.30999994
   11.81777763  118.09600067    3.91000009    2.30999994
   11.81861115  118.85800171    3.89000010    2.30999994
   11.82111073  117.98799896    3.89000010    2.30999994
   11.82444477  106.06099701    3.86999989    2.30999994
   11.82750034  111.74299622    3.86999989    2.30999994
   11.83083344  108.08999634    3.86999989    2.30999994
   11.83388901  102.89299774    3.86999989    2.30999994
   11.83722210  116.29199982    3.86999989    2.32999992
   11.84055519  117.48999786    3.89000010    2.32999992
   11.84361076  115.47200012    3.89000010    2.32999992
   11.84694386  123.64099884    3.89000010    2.32999992
   11.85027790  124.15200043    3.86999989    2.32999992
   11.85194492  118.74299622    3.86999989    2.32999992
   11.85388947  123.66999817    3.86999989    2.32999992
   11.85722256  119.47399902    3.86999989    2.32999992
   11.86027813  124.73600006    3.84999990    2.32999992
   11.86361122  122.82499695    3.86999989    2.32999992
   11.86666679  113.21099854    3.84999990    2.32999992
   11.86999989  112.00399780    3.82999992    2.32999992
   11.87333393  122.59400177    3.80999994    2.32999992
   11.87638855  112.96399689    3.78999996    2.32999992
   11.87972260  112.87699890    3.76999998    2.32999992
   11.88305569  118.58399963    3.76999998    2.32999992
   11.88527775  121.31600189    3.75000000    2.32999992
   11.88666630  115.73400116    3.75000000    2.32999992
   11.89000034  111.17600250    3.75000000    2.32999992
   11.89305496  115.12699890    3.75000000    2.32999992
   11.89638901  111.42199707    3.73000002    2.34999990
   11.89944458  116.10700226    3.72000003    2.32999992
   11.90277767  113.27999878    3.70000005    2.34999990
   11.90611076  119.94799805    3.70000005    2.34999990
   11.90916634  120.95300293    3.68000007    2.34999990
   11.91249943  125.26200104    3.68000007    2.34999990
   11.91583252  128.38999939    3.64000010    2.36999989
   11.91861153  113.62300110    3.64000010    2.34999990
   11.91916656  121.40200043    3.64000010    2.34999990
   11.92250061  113.89299774    3.61999989    2.36999989
   11.92555618  118.34300232    3.61999989    2.36999989
   11.92888927  118.73400116    3.59999990    2.34999990
   11.93194485  115.33699799    3.59999990    2.36999989
   11.93527794  118.67500305    3.59999990    2.36999989
   11.93861103  110.68499756    3.59999990    2.36999989
   11.94166660  125.78500366    3.59999990    2.36999989
   11.94499969  124.79499817    3.59999990    2.36999989
   11.94833374  120.81199646    3.57999992    2.36999989
   11.95138836  118.08999634    3.55999994    2.36999989
   11.95194435  118.84300232    3.55999994    2.36999989
   11.95499992  120.35299683    3.53999996    2.39000010
   11.95833302  125.51999664    3.53999996    2.39000010
   11.96138859  105.65000153    3.51999998    2.36999989
   11.96472168  119.03600311    3.50000000    2.39000010
   11.96805477  104.86399841    3.48000002    2.39000010
   11.97111034  113.89600372    3.48000002    2.39000010
   11.97444439  111.37999725    3.48000002    2.39000010
   11.97749996  107.67400360    3.48000002    2.39000010
   11.98083305   98.04969788    3.48000002    2.39000010
   11.98416710  110.08300018    3.50000000    2.39000010
   11.98527813  113.05699921    3.50000000    2.39000010
   11.98777771  117.06099701    3.51999998    2.39000010
   11.99111176  115.09899902    3.51999998    2.39000010
   11.99416733  116.85600281    3.51999998    2.36999989
   11.99750042  107.74400330    3.50000000    2.39000010
   12.00083351  104.27300262    3.48000002    2.39000010
   12.00388908   97.84519958    3.48000002    2.39000010
   12.00722218   98.01460266    3.46000004    2.39000010
   12.01027775  109.82199860    3.43000007    2.39000010
   12.01361084  112.30300140    3.43000007    2.40000010
   12.01694393  112.17600250    3.43000007    2.40000010
   12.01861095  119.00000000    3.41000009    2.40000010
   12.02055550  117.14600372    3.41000009    2.40000010
   12.02388859  120.24700165    3.39000010    2.40000010
   12.02694416  117.32499695    3.39000010    2.40000010
   12.03027725  125.06600189    3.41000009    2.40000010
   12.03361130  122.23600006    3.39000010    2.40000010
   12.03666687  119.09999847    3.39000010    2.40000010
   12.04000092  118.11599731    3.39000010    2.39000010
   12.04305553  131.43499756    3.36999989    2.40000010
   12.04638958  122.54199982    3.36999989    2.40000010
   12.04972267  117.81300354    3.34999990    2.40000010
   12.05194473  132.72700500    3.34999990    2.40000010
   12.05333328  123.52700043    3.36999989    2.40000010
   12.05666733  118.57700348    3.34999990    2.40000010
   12.05972195  131.91700745    3.32999992    2.40000010
   12.06305599  129.12500000    3.32999992    2.40000010
   12.06638908  114.18499756    3.34999990    2.40000010
   12.06944466  126.83499908    3.34999990    2.40000010
   12.07277775  121.01899719    3.32999992    2.40000010
   12.07611084  120.68399811    3.34999990    2.40000010
   12.07916641  116.89099884    3.32999992    2.42000008
   12.08249950  119.08999634    3.34999990    2.40000010
   12.08555508  128.33599854    3.32999992    2.40000010
   12.08611107  126.49400330    3.32999992    2.42000008
   12.08944416  121.20400238    3.32999992    2.40000010
   12.09249973  124.23000336    3.30999994    2.40000010
   12.09583282  115.58699799    3.28999996    2.42000008
   12.09916592  107.35900116    3.26999998    2.42000008
   12.10222244  112.82700348    3.25000000    2.42000008
   12.10555553  117.59300232    3.23000002    2.42000008
   12.10861111  106.61900330    3.21000004    2.44000006
   12.11194515  103.56400299    3.20000005    2.42000008
   12.11527824  113.69599915    3.18000007    2.42000008
   12.11833382  115.12400055    3.18000007    2.42000008
   12.11888885  110.96099854    3.18000007    2.42000008
   12.12222195  114.30100250    3.16000009    2.44000006
   12.12527752  106.13200378    3.14000010    2.44000006
   12.12861156  105.79599762    3.11999989    2.44000006
   12.13194466  114.89900208    3.09999990    2.44000006
   12.13500023  110.08999634    3.09999990    2.44000006
   12.13833332  117.68499756    3.07999992    2.44000006
   12.14138889  117.82099915    3.07999992    2.44000006
   12.14472198  109.18099976    3.07999992    2.44000006
   12.14805508  105.09100342    3.05999994    2.44000006
   12.15111065  104.12599945    3.05999994    2.44000006
   12.16805553  103.25399780    3.05999994    2.44000006
   12.17111111  109.23200226    3.05999994    2.44000006
   12.17444515  107.76300049    3.07999992    2.44000006
   12.17750072  117.01399994    3.05999994    2.46000004
   12.18083382  112.04499817    3.05999994    2.44000006
   12.18416691  109.52300262    3.03999996    2.44000006
   12.18722248   97.37809753    3.05999994    2.46000004
   12.19055557  106.07499695    3.01999998    2.44000006
   12.19361115  104.84899902    3.03999996    2.46000004
   12.19694424  110.66799927    3.01999998    2.46000004
   12.20027733  109.04799652    3.00000000    2.46000004
   12.20138836  115.84799957    3.01999998    2.46000004
   12.20388889  106.47200012    3.00000000    2.46000004
   12.20694447  112.72799683    2.96000004    2.46000004
   12.21027756  122.19300079    2.96000004    2.46000004
   12.21361065  115.04499817    2.96000004    2.46000004
   12.21666622  105.49199677    2.94000006    2.46000004
   12.21999931  110.82299805    2.94000006    2.46000004
   12.22333336  122.67500305    2.96000004    2.46000004
   12.22638798  124.53399658    2.98000002    2.48000002
   12.22972202  112.42500305    2.96000004    2.46000004
   12.23277760  115.94400024    2.98000002    2.46000004
   12.23472214  110.66200256    2.98000002    2.46000004
   12.23666668  112.29299927    2.98000002    2.46000004
   12.24000072  119.30200195    2.98000002    2.46000004
   12.24305534  115.81199646    3.00000000    2.46000004
   12.24638939  114.41899872    3.00000000    2.46000004
   12.24972248  111.88999939    3.00000000    2.46000004
   12.25277805  113.26200104    3.01999998    2.48000002
   12.25611115  115.76599884    3.00000000    2.48000002
   12.25944424  108.23100281    2.98000002    2.48000002
   12.26249981  107.59300232    2.96000004    2.48000002
   12.26583290  105.35900116    2.98000002    2.48000002
   12.26805496  116.77799988    2.96000004    2.48000002
   12.26944447  121.74099731    2.96000004    2.48000002
   12.27277756  111.79900360    2.96000004    2.48000002
   12.27583313  108.01599884    2.96000004    2.46000004
   12.27916622  115.22100067    2.94000006    2.48000002
   12.28249931  114.65599823    2.93000007    2.48000002
   12.28555584  122.25900269    2.89000010    2.46000004
   12.28888893  117.82199860    2.93000007    2.48000002
   12.29194450  115.15499878    2.93000007    2.48000002
   12.29527855  109.84799957    2.94000006    2.48000002
   12.29861164  107.78299713    2.94000006    2.48000002
   12.30138874  107.68099976    2.94000006    2.48000002
   12.30222225  109.24400330    2.93000007    2.48000002
   12.30555534  113.51999664    2.89000010    2.48000002
   12.30861092  112.48999786    2.91000009    2.50000000
   12.31194496  121.99800110    2.91000009    2.50000000
   12.31527805  114.96399689    2.93000007    2.48000002
   12.31833363  106.98400116    2.94000006    2.50000000
   12.32166672  120.33000183    2.96000004    2.48000002
   12.32472229  117.71199799    2.96000004    2.50000000
   12.32805538  118.09300232    2.91000009    2.50000000
   12.33138847  105.66200256    2.80999994    2.50000000
   12.33444405  105.97699738    2.78999996    2.50000000
   12.33500004  117.14399719    2.78999996    2.50000000
   12.33833313  109.21700287    2.75000000    2.50000000
   12.34138870  108.60900116    2.76999998    2.51999998
   12.34472179  118.61499786    2.75000000    2.50000000
   12.34805489   99.27590179    2.75000000    2.51999998
   12.35111141  100.47299957    2.75000000    2.50000000
   12.35444450  113.88200378    2.73000002    2.50000000
   12.35750008  110.14800262    2.73000002    2.50000000
   12.36083412  104.35500336    2.73000002    2.51999998
   12.36416721  115.93699646    2.76999998    2.50000000
   12.36722279  111.70800018    2.75000000    2.51999998
   12.36833382  111.56300354    2.75000000    2.50000000
   12.37083340  107.22000122    2.76999998    2.51999998
   12.37388897  117.25399780    2.76999998    2.50000000
   12.37722206  120.74400330    2.76999998    2.51999998
   12.38055611  105.34700012    2.76999998    2.50000000
   12.38361073  115.90899658    2.76999998    2.50000000
   12.38694477  117.04599762    2.76999998    2.50000000
   12.39000034  111.74600220    2.76999998    2.50000000
   12.39333344  108.76300049    2.76999998    2.50000000
   12.39666653  113.84600067    2.76999998    2.51999998
   12.39972210   92.81120300    2.76999998    2.51999998
   12.40166664  103.43299866    2.75000000    2.51999998
   12.40361118  105.08200073    2.73000002    2.51999998
   12.40694427  105.32099915    2.71000004    2.51999998
   12.40999985  116.17099762    2.69000006    2.51999998
   12.41333294  110.07099915    2.69000006    2.51999998
   12.41666698  116.34600067    2.67000008    2.51999998
   12.41972256  111.92199707    2.66000009    2.51999998
   12.42305565  112.22499847    2.64000010    2.51999998
   12.42611122  108.62100220    2.64000010    2.51999998
   12.42944431  114.86299896    2.61999989    2.51999998
   12.43277836  106.52100372    2.61999989    2.51999998
   12.43500042  111.06900024    2.64000010    2.51999998
   12.43638897  106.36299896    2.61999989    2.53999996
   12.43972206  121.28800201    2.61999989    2.51999998
   12.44277763  115.22899628    2.61999989    2.53999996
   12.44611073  110.92400360    2.59999990    2.53999996
   12.44944477  106.34899902    2.61999989    2.53999996
   12.45249939  108.22499847    2.59999990    2.51999998
   12.45583344  106.60500336    2.59999990    2.53999996
   12.45888901  107.49500275    2.57999992    2.53999996
   12.46222210  101.32499695    2.55999994    2.53999996
   12.46555519  110.43800354    2.53999996    2.53999996
   12.46833324  102.35299683    2.53999996    2.53999996
   12.46916580  105.95800018    2.53999996    2.53999996
   12.47249985  116.45899963    2.53999996    2.53999996
   12.47555542  105.28299713    2.53999996    2.53999996
   12.47888851  103.60500336    2.53999996    2.53999996
   12.48222160  103.80799866    2.53999996    2.53999996
   12.48555565  108.52999878    2.51999998    2.53999996
   12.48861122  104.97499847    2.51999998    2.53999996
   12.49194431  102.39099884    2.50000000    2.55999994
   12.49499989  110.39399719    2.50000000    2.53999996
   12.49833393  108.93000031    2.51999998    2.53999996
   12.50166702  109.01000214    2.51999998    2.53999996
   12.50194454  119.88099670    2.51999998    2.53999996
   12.50527763  114.85399628    2.50000000    2.53999996
   12.50861073  118.29900360    2.48000002    2.55999994
   12.51166630  109.34700012    2.48000002    2.53999996
   12.51500034  119.84200287    2.48000002    2.55999994
   12.51805496  106.66400146    2.48000002    2.55999994
   12.52138901  113.98600006    2.46000004    2.53999996
   12.52472210  119.07299805    2.44000006    2.53999996
   12.52777767  109.09600067    2.44000006    2.53999996
   12.53111076  107.62300110    2.44000006    2.53999996
   12.53444481  109.75299835    2.44000006    2.55999994
   12.53527832  110.32700348    2.44000006    2.55999994
   12.53777790  100.17500305    2.44000006    2.55999994
   12.54111195   95.25029755    2.42000008    2.55999994
   12.54416752  107.60099792    2.40000010    2.53999996
   12.54750061  108.21199799    2.40000010    2.55999994
   12.55055618  113.04000092    2.40000010    2.55999994
   12.55388927  108.46600342    2.40000010    2.55999994
   12.55722237  120.32299805    2.40000010    2.55999994
   12.56027794  106.90699768    2.39000010    2.55999994
   12.56361103  107.61299896    2.39000010    2.55999994
   12.56694412  101.73300171    2.39000010    2.55999994
   12.56888866  108.92700195    2.36999989    2.55999994
   12.57055569  105.18000031    2.36999989    2.55999994
   12.57388878  106.01000214    2.34999990    2.55999994
   12.57722187   99.03170013    2.32999992    2.55999994
   12.58027744  102.36000061    2.32999992    2.55999994
   12.58361053  111.01200104    2.36999989    2.57999992
   12.58666611  109.57900238    2.36999989    2.55999994
   12.59000015  111.93399811    2.36999989    2.55999994
   12.59333324  107.33499908    2.36999989    2.55999994
   12.59638882  106.73200226    2.34999990    2.55999994
   12.59972191  108.37000275    2.32999992    2.57999992
   12.60222244  108.65899658    2.32999992    2.57999992
   12.60333347  110.21199799    2.32999992    2.55999994
   12.60666752  114.27100372    2.32999992    2.57999992
   12.61000061  105.93000031    2.32999992    2.57999992
   12.61305618  103.24299622    2.32999992    2.55999994
   12.61638927  109.39099884    2.32999992    2.57999992
   12.61944485  111.02400208    2.30999994    2.57999992
   12.62277794  106.31700134    2.30999994    2.55999994
   12.62611103  109.35600281    2.28999996    2.57999992
   12.62916660  111.03299713    2.28999996    2.57999992
   12.63249969  114.35800171    2.26999998    2.57999992
   12.63555527  111.47299957    2.25000000    2.57999992
   12.63611126  105.54599762    2.25000000    2.57999992
   12.63944435  110.62999725    2.23000002    2.57999992
   12.64277744  117.77999878    2.23000002    2.57999992
   12.64583302  112.91100311    2.23000002    2.57999992
   12.64916611  109.08599854    2.21000004    2.57999992
   12.65222168  100.36799622    2.19000006    2.59999990
   12.65555477  110.30899811    2.19000006    2.57999992
   12.65888882  101.53800201    2.17000008    2.57999992
   12.66194439  103.37100220    2.17000008    2.59999990
   12.66527748  107.92500305    2.17000008    2.57999992
   12.66861153  108.10399628    2.17000008    2.57999992
   12.66888905  101.57800293    2.17000008    2.57999992
   12.67222214  100.23999786    2.17000008    2.57999992
   12.67555618  108.19999695    2.19000006    2.59999990
   12.67861176  104.28700256    2.17000008    2.57999992
   12.68194485  110.58300018    2.15000010    2.59999990
   12.68500042  104.86100006    2.15000010    2.59999990
   12.68833351  110.12000275    2.13000011    2.59999990
   12.69166660   99.39009857    2.11999989    2.59999990
   12.69472218  104.77600098    2.13000011    2.59999990
   12.69805527  107.09100342    2.13000011    2.59999990
   12.70138836  111.45500183    2.13000011    2.59999990
   12.70222187  109.12200165    2.13000011    2.57999992
   12.70472240  118.14700317    2.17000008    2.59999990
   12.70805550  110.19300079    2.17000008    2.59999990
   12.71111107  113.30100250    2.17000008    2.59999990
   12.71444416  114.11299896    2.19000006    2.59999990
   12.71749973  103.52300262    2.19000006    2.59999990
   12.72083282  112.41799927    2.19000006    2.59999990
   12.72416592  122.73000336    2.19000006    2.59999990
   12.72722149  116.23400116    2.19000006    2.59999990
   12.73055553  112.48699951    2.19000006    2.59999990
   12.73388958  117.35900116    2.17000008    2.59999990
   12.73583317  109.12799835    2.15000010    2.59999990
   12.73750019  111.20300293    2.17000008    2.59999990
   12.74083328  108.58999634    2.15000010    2.59999990
   12.74416733  109.05400085    2.15000010    2.59999990
   12.74722290  100.29399872    2.15000010    2.59999990
   12.75055599  107.89199829    2.15000010    2.59999990
   12.75361156  106.86599731    2.11999989    2.59999990
   12.75694466  109.51799774    2.11999989    2.61999989
   12.76027775  108.06900024    2.11999989    2.59999990
   12.76333332  112.03299713    2.09999990    2.61999989
   12.76666641  102.54900360    2.09999990    2.59999990
   12.76916599  104.65899658    2.09999990    2.59999990
   12.77027798  108.68000031    2.07999992    2.61999989
   12.77361107  108.56500244    2.05999994    2.61999989
   12.77694416  105.42099762    2.03999996    2.61999989
   12.77999973   98.16139984    2.01999998    2.61999989
   12.78333378  100.83599854    2.00000000    2.59999990
   12.78638935  107.92800140    1.98000002    2.61999989
   12.78972244  112.47899628    1.98000002    2.61999989
   12.79305553  106.94499969    1.96000004    2.61999989
   12.79611111  105.69899750    1.96000004    2.61999989
   12.79944515  106.55599976    1.96000004    2.61999989
   12.80249977  116.47000122    1.98000002    2.61999989
   12.80305576  109.16100311    1.98000002    2.61999989
   12.80638885  106.20800018    1.98000002    2.61999989
   12.80944443  111.47799683    1.94000006    2.61999989
   12.81277752  104.07199860    1.94000006    2.61999989
   12.81611156  112.38999939    1.89999998    2.61999989
   12.81916618  108.62999725    1.89999998    2.61999989
   12.82250023  108.29499817    1.88000000    2.61999989
   12.82583332  116.14399719    1.88000000    2.61999989
   12.82888889  101.31099701    1.86000001    2.64000010
   12.83222198  104.62000275    1.89999998    2.64000010
   12.83527756  102.33000183    1.88000000    2.64000010
   12.83583260  102.18599701    1.88000000    2.64000010
   12.83888817  105.95099640    1.89999998    2.64000010
   12.94111156   -1.00000000   -1.00000000   -1.00000000
   13.09472179   -1.00000000   -1.00000000   -1.00000000
   13.20944405   -1.00000000   -1.00000000   -1.00000000
   13.29277802   71.52829742    1.76999998    2.69000006
   13.29611111  100.80300140    1.76999998    2.69000006
   13.29916668  110.42299652    1.78999996    2.67000008
   13.30249977  110.74900055    1.76999998    2.69000006
   13.30583382  106.20099640    1.73000002    2.69000006
   13.30888939  104.80799866    1.75000000    2.69000006
   13.31305599  104.80799866    1.75000000    2.67000008
   13.31722260   91.24669647    1.75000000    2.69000006
   13.32055569   96.65630341    1.75000000    2.69000006
   13.32361126   96.49859619    1.75000000    2.69000006
   13.32611084  111.76300049    1.71000004    2.69000006
   13.32722187  103.26200104    1.71000004    2.69000006
   13.33055592  112.28700256    1.66999996    2.71000004
   13.33388901  110.25299835    1.58000004    2.69000006
   13.33694458  111.08699799    1.51999998    2.69000006
   13.34027767  106.52799988    1.51999998    2.69000006
   13.34333324  107.02600098    1.51999998    2.69000006
   13.34666634  105.96499634    1.50000000    2.69000006
   13.35000038  111.16500092    1.50000000    2.71000004
   13.35583401  111.16500092    1.51999998    2.71000004
   13.36000061  106.57399750    1.50000000    2.69000006
   13.36333370  107.47100067    1.51999998    2.69000006
   13.36638927  105.77999878    1.53999996    2.69000006
   13.36972237   98.55130005    1.58000004    2.69000006
   13.37305546  105.72499847    1.64999998    2.71000004
   13.37611103  102.60600281    1.64999998    2.69000006
   13.37944412   99.24949646    1.64999998    2.69000006
   13.38249969  107.80699921    1.63000000    2.69000006
   13.38583279   98.07099915    1.64999998    2.69000006
   13.38916683  101.28600311    1.66999996    2.69000006
   13.39222240  104.58599854    1.64999998    2.69000006
   13.39277744  103.30100250    1.64999998    2.69000006
   13.39861107  103.30100250    1.66999996    2.69000006
   13.40277767  101.78600311    1.66999996    2.69000006
   13.40611076   96.69529724    1.71000004    2.69000006
   13.40944386  102.89299774    1.71000004    2.69000006
   13.41249943  101.29799652    1.71000004    2.69000006
   13.41583252  105.11199951    1.66999996    2.69000006
   13.41888905  108.77500153    1.64999998    2.69000006
   13.42222214  114.27899933    1.64999998    2.69000006
   13.42555618  110.63600159    1.63000000    2.71000004
   13.42611122  111.93299866    1.63000000    2.71000004
   13.42916679  115.34300232    1.63000000    2.69000006
   13.43222237  108.43399811    1.69000006    2.71000004
   13.43555546  103.85700226    1.71000004    2.71000004
   13.44166660  103.85700226    1.69000006    2.69000006
   13.44583321  109.16200256    1.69000006    2.69000006
   13.44888878  105.02500153    1.66999996    2.69000006
   13.45222187  104.75000000    1.69000006    2.69000006
   13.45555496   98.77519989    1.71000004    2.69000006
   13.45861053  104.19100189    1.71000004    2.69000006
   13.45944405  107.76899719    1.73000002    2.71000004
   13.46222210  111.82599640    1.73000002    2.71000004
   13.46555519   98.51979828    1.73000002    2.71000004
   13.46861076   99.61959839    1.75000000    2.69000006
   13.47194386  108.63400269    1.75000000    2.71000004
   13.47527695  100.55799866    1.76999998    2.69000006
   13.47833252  107.58100128    1.80999994    2.69000006
   13.48444462  107.58100128    1.85000002    2.71000004
   13.48861122  102.85099792    1.88000000    2.69000006
   13.49194431  101.88899994    1.86000001    2.71000004
   13.49277782  111.10600281    1.86000001    2.71000004
   13.49527836  103.02300262    1.76999998    2.71000004
   13.49861145  111.01599884    1.76999998    2.71000004
   13.50166702  105.96199799    1.66999996    2.71000004
   13.50500011  102.48100281    1.66999996    2.69000006
   13.50833321  102.42400360    1.61000001    2.71000004
   13.51138878   99.10369873    1.53999996    2.71000004
   13.51472187  105.46199799    1.53999996    2.71000004
   13.51805496  105.19699860    1.51999998    2.71000004
   13.52111053  109.18599701    1.50000000    2.71000004
   13.52722168  109.18599701    1.50000000    2.71000004
   13.53138828  102.12799835    1.50000000    2.71000004
   13.53472233  110.40799713    1.51999998    2.71000004
   13.53777790  103.04299927    1.51999998    2.71000004
   13.54111195   96.12059784    1.50000000    2.71000004
   13.54444504  105.41500092    1.48000002    2.71000004
   13.54750061  105.73799896    1.48000002    2.71000004
   13.55083370   95.58760071    1.46000004    2.71000004
   13.55416679  107.19499969    1.46000004    2.71000004
   13.55722237   97.30010223    1.46000004    2.71000004
   13.55944443  105.92800140    1.48000002    2.73000002
   13.56083393  100.22499847    1.48000002    2.73000002
   13.56416702  104.58399963    1.50000000    2.71000004
   13.57027817  104.58399963    1.51999998    2.71000004
   13.57444477   98.71019745    1.51999998    2.71000004
   13.57750034  103.66600037    1.53999996    2.71000004
   13.58083344   99.63659668    1.53999996    2.71000004
   13.58388901   98.89530182    1.53999996    2.71000004
   13.58722210  107.57199860    1.58000004    2.71000004
   13.59055519  108.79799652    1.60000002    2.73000002
   13.59277725  101.19899750    1.61000001    2.71000004
   13.59416676  107.31600189    1.61000001    2.71000004
   13.59749985   98.32810211    1.61000001    2.71000004
   13.60055637  102.86799622    1.61000001    2.73000002
   13.60388947  105.14399719    1.61000001    2.71000004
   13.60722256  105.80400085    1.61000001    2.71000004
   13.61305618  105.80400085    1.60000002    2.71000004
   13.61722279  114.84100342    1.58000004    2.71000004
   13.62027836  110.58300018    1.60000002    2.71000004
   13.62361145  108.81999969    1.60000002    2.73000002
   13.62611103  111.79499817    1.63000000    2.71000004
   13.62722206  103.45300293    1.63000000    2.71000004
   13.63055611  107.43299866    1.61000001    2.73000002
   13.63361073  103.40399933    1.61000001    2.71000004
   13.63694477  107.30699921    1.61000001    2.71000004
   13.64027786  109.69499969    1.63000000    2.71000004
   13.64361095   94.03620148    1.63000000    2.71000004
   13.64666653  102.13800049    1.63000000    2.73000002
   13.64999962  100.24700165    1.63000000    2.71000004
   13.65583324  100.24700165    1.63000000    2.71000004
   13.65999985  103.01499939    1.61000001    2.73000002
   13.66333294  106.67700195    1.60000002    2.71000004
   13.66638851  101.54100037    1.60000002    2.71000004
   13.66972256  103.64900208    1.55999994    2.73000002
   13.67277813  104.40399933    1.53999996    2.73000002
   13.67611122  102.53299713    1.53999996    2.73000002
   13.67944431  104.78800201    1.53999996    2.71000004
   13.68249989  101.36199951    1.53999996    2.73000002
   13.68583298  107.00399780    1.53999996    2.71000004
   13.68916702  107.77100372    1.53999996    2.73000002
   13.69222260  103.10900116    1.55999994    2.73000002
   13.69305515  105.15499878    1.55999994    2.73000002
   13.69861126  105.15499878    1.53999996    2.71000004
   13.70277786  105.64800262    1.55999994    2.73000002
   13.70583344  106.54199982    1.55999994    2.73000002
   13.70916653  106.89600372    1.55999994    2.73000002
   13.71249962  112.67800140    1.58000004    2.71000004
   13.71555519  107.24600220    1.58000004    2.71000004
   13.71888828  104.74299622    1.55999994    2.71000004
   13.72222137  101.08200073    1.55999994    2.73000002
   13.72527695  104.87699890    1.55999994    2.73000002
   13.72611046  103.18900299    1.55999994    2.73000002
   13.72888851  100.77600098    1.58000004    2.73000002
   13.73222160  103.08799744    1.55999994    2.73000002
   13.73527813   96.00859833    1.55999994    2.73000002
   13.74138927   96.00859833    1.53999996    2.73000002
   13.74555588   94.68779755    1.51999998    2.73000002
   13.74888897   93.24770355    1.51999998    2.73000002
   13.75194454   96.50209808    1.50000000    2.75000000
   13.75527763   98.28530121    1.50000000    2.73000002
   13.75861073   95.33249664    1.50000000    2.73000002
   13.75944424   95.18170166    1.50000000    2.73000002
   13.76222229  107.74099731    1.50000000    2.73000002
   13.76555538   98.80789948    1.50000000    2.73000002
   13.76861095   97.36699677    1.50000000    2.75000000
   13.77194405   98.50430298    1.51999998    2.73000002
   13.77499962   93.99859619    1.53999996    2.73000002
   13.77833271  105.02400208    1.53999996    2.73000002
   13.78444481  105.02400208    1.55999994    2.73000002
   13.78833389  104.10600281    1.55999994    2.73000002
   13.79166698  111.02100372    1.55999994    2.73000002
   13.79277802  103.84200287    1.55999994    2.73000002
   13.79527855  100.06800079    1.55999994    2.73000002
   13.79861164  100.59500122    1.55999994    2.73000002
   13.80166721  104.87400055    1.55999994    2.73000002
   13.80500031   97.71269989    1.51999998    2.75000000
   13.80805588  104.91899872    1.51999998    2.73000002
   13.81138897  101.88700104    1.51999998    2.73000002
   13.81472206  103.69699860    1.53999996    2.75000000
   13.81777763  103.10700226    1.53999996    2.75000000
   13.82111073   98.42140198    1.50000000    2.75000000
   13.82722187   98.42140198    1.50000000    2.73000002
   13.83138847  104.52899933    1.50000000    2.75000000
   13.83472157   98.28040314    1.50000000    2.73000002
   13.83777714  104.55000305    1.46000004    2.75000000
   13.84111118  101.94200134    1.48000002    2.75000000
   13.84444427  100.85399628    1.48000002    2.75000000
   13.84749985   96.56759644    1.50000000    2.73000002
   13.85083389  110.42900085    1.51999998    2.75000000
   13.85416698  103.49900055    1.51999998    2.75000000
   13.85722256  105.60299683    1.51999998    2.73000002
   13.85944462  101.36599731    1.53999996    2.73000002
   13.86083412  106.27100372    1.53999996    2.73000002
   13.86416721  102.88700104    1.53999996    2.73000002
   13.86999989  102.88700104    1.53999996    2.73000002
   13.87416649   99.71869659    1.51999998    2.75000000
   13.87722206  102.46900177    1.51999998    2.75000000
   13.88055611   93.39610291    1.51999998    2.73000002
   13.88388920   98.99479675    1.51999998    2.73000002
   13.88694477   96.09729767    1.53999996    2.73000002
   13.89027786  104.64900208    1.53999996    2.73000002
   13.89277744  101.18199921    1.53999996    2.75000000
   13.89388847  102.68800354    1.53999996    2.75000000
   13.89722252   98.31230164    1.51999998    2.73000002
   13.90027714  102.84799957    1.50000000    2.75000000
   13.90361118  102.21600342    1.51999998    2.75000000
   13.90666676  106.17600250    1.51999998    2.75000000
   13.91277695  106.17600250    1.50000000    2.75000000
   13.91694450   99.79019928    1.50000000    2.75000000
   13.92027855  103.03500366    1.50000000    2.73000002
   13.92333412  104.32299805    1.50000000    2.75000000
   13.92611122  111.48999786    1.51999998    2.75000000
   13.92694473  101.50499725    1.51999998    2.75000000
   13.93027782   98.39179993    1.53999996    2.76999998
   13.93333340   95.76409912    1.53999996    2.76999998
   13.93666649  103.53199768    1.55999994    2.75000000
   13.93972206  101.65200043    1.55999994    2.75000000
   13.94305515   99.93689728    1.55999994    2.75000000
   13.94638920  103.20300293    1.55999994    2.75000000
   13.94944477   98.42849731    1.55999994    2.75000000
   13.95583344   98.42849731    1.55999994    2.73000002
   13.95972157  102.59899902    1.51999998    2.75000000
   13.96305561   96.75119781    1.50000000    2.75000000
   13.96638870  104.75000000    1.46000004    2.75000000
   13.96944427   98.27899933    1.46000004    2.75000000
   13.97277737   90.39790344    1.46000004    2.75000000
   13.97611046   98.90910339    1.44000006    2.76999998
   13.97944355  102.99800110    1.41999996    2.76999998
   13.98249912  102.42900085    1.41999996    2.76999998
   13.98583317  105.24299622    1.39999998    2.75000000
   13.98888874  105.85600281    1.39999998    2.76999998
   13.99222279   97.69490051    1.39999998    2.76999998
   13.99277782  103.15100098    1.39999998    2.76999998
   13.99861145  103.15100098    1.39999998    2.76999998
   14.00277805   99.38569641    1.39999998    2.75000000
   14.00583363   98.02100372    1.38000000    2.76999998
   14.00916672  101.19799805    1.36000001    2.76999998
   14.01249981  101.75399780    1.36000001    2.76999998
   14.01555538   99.00789642    1.34000003    2.75000000
   14.01888847   98.25579834    1.38000000    2.76999998
   14.02194405   96.05680084    1.41999996    2.75000000
   14.02527714  106.73600006    1.41999996    2.76999998
   14.02611065   88.88500214    1.41999996    2.76999998
   14.02888870   93.57530212    1.41999996    2.76999998
   14.03222179   99.55780029    1.44000006    2.75000000
   14.03527832   99.27469635    1.48000002    2.76999998
   14.04138947   99.27469635    1.48000002    2.75000000
   14.04555607  100.17800140    1.50000000    2.76999998
   14.04888916   99.75119781    1.48000002    2.76999998
   14.05194473   98.63330078    1.48000002    2.76999998
   14.05527782  102.33699799    1.50000000    2.75000000
   14.05833340  107.55999756    1.50000000    2.76999998
   14.05944443  101.49900055    1.50000000    2.76999998
   14.06194496  102.80699921    1.48000002    2.76999998
   14.06527805  107.01200104    1.46000004    2.75000000
   14.06833363  101.43399811    1.46000004    2.75000000
   14.07166672  106.56999969    1.46000004    2.76999998
   14.07499981  104.09799957    1.46000004    2.76999998
   14.07805538   98.38339996    1.46000004    2.76999998
   14.08416653   98.38339996    1.41999996    2.76999998
   14.08833313   94.09870148    1.41999996    2.76999998
   14.09166622   96.16750336    1.39999998    2.76999998
   14.09277725   98.39849854    1.39999998    2.76999998
   14.09527779   88.80819702    1.39999998    2.76999998
   14.09861088   97.60260010    1.41999996    2.76999998
   14.10166740  104.21600342    1.38000000    2.76999998
   14.10500050  101.33300018    1.34000003    2.76999998
   14.10833359   92.04109955    1.36000001    2.76999998
   14.11138916   93.85820007    1.36000001    2.76999998
   14.11472225  103.22899628    1.36000001    2.76999998
   14.11777782  100.41799927    1.36000001    2.76999998
   14.12111092   93.75199890    1.38000000    2.76999998
   14.12694454   93.75199890    1.38000000    2.76999998
   14.13111115   94.63059998    1.41999996    2.76999998
   14.13444424   98.31390381    1.44000006    2.76999998
   14.13777733  100.50700378    1.41999996    2.76999998
   14.14083290  101.38800049    1.41999996    2.76999998
   14.14416695  101.42800140    1.41999996    2.76999998
   14.14750004   98.75720215    1.41999996    2.76999998
   14.15055561  106.15100098    1.38000000    2.76999998
   14.15388870  104.36000061    1.36000001    2.76999998
   14.15722179   99.74369812    1.38000000    2.76999998
   14.15944386   97.31120300    1.38000000    2.76999998
   14.16055489   99.60759735    1.38000000    2.76999998
   14.16388893   96.89790344    1.38000000    2.76999998
   14.17000008   96.89790344    1.39999998    2.76999998
   14.17416668   96.93840027    1.39999998    2.76999998
   14.17722225   95.93879700    1.39999998    2.76999998
   14.18055630   96.18019867    1.39999998    2.76999998
   14.18361092   98.64309692    1.41999996    2.76999998
   14.18694496   96.59839630    1.41999996    2.76999998
   14.19027805   98.21759796    1.41999996    2.78999996
   14.19277763  101.99900055    1.41999996    2.78999996
   14.19388866  102.08399963    1.41999996    2.76999998
   14.19722271   94.66809845    1.41999996    2.76999998
   14.20027733   99.24839783    1.44000006    2.76999998
   14.20361137   92.07510376    1.46000004    2.76999998
   14.20694447   91.68039703    1.46000004    2.76999998
   14.21277714   91.68039703    1.41999996    2.76999998
   14.21694374   97.79740143    1.41999996    2.78999996
   14.22027779   92.56030273    1.41999996    2.76999998
   14.22333336   93.14150238    1.41999996    2.76999998
   14.22611046   95.02729797    1.41999996    2.76999998
   14.22694397   97.11009979    1.41999996    2.76999998
   14.23027706   88.62729645    1.41999996    2.76999998
   14.23333359   98.80860138    1.41999996    2.78999996
   14.23666668   93.04799652    1.41999996    2.78999996
   14.24000072   94.70269775    1.41999996    2.76999998
   14.24305534   96.22070313    1.44000006    2.76999998
   14.24638939   99.24980164    1.46000004    2.76999998
   14.24944496   93.07230377    1.44000006    2.76999998
   14.25555515   93.07230377    1.46000004    2.76999998
   14.25972176   95.72810364    1.44000006    2.78999996
   14.26305580  106.14299774    1.44000006    2.76999998
   14.26611137   91.04250336    1.41999996    2.78999996
   14.26944447   91.87129974    1.41999996    2.76999998
   14.27277756   96.68029785    1.39999998    2.76999998
   14.27583313   94.16829681    1.39999998    2.76999998
   14.27916622   94.65429688    1.39999998    2.76999998
   14.28222179   89.21540070    1.39999998    2.76999998
   14.28555584   94.40010071    1.39999998    2.76999998
   14.28888893   99.94039917    1.44000006    2.76999998
   14.29194450  100.07700348    1.39999998    2.76999998
   14.29277802   96.65329742    1.39999998    2.76999998
   14.31388950   96.65329742    1.36000001    2.76999998
   14.31777763  100.40599823    1.34000003    2.78999996
   14.32111073  102.32599640    1.34000003    2.76999998
   14.32444477   96.94680023    1.34000003    2.76999998
   14.32611084   96.24289703    1.34000003    2.78999996
   14.32777786  102.13400269    1.34000003    2.78999996
   14.33111095  101.54900360    1.34000003    2.78999996
   14.33416653   98.27140045    1.34000003    2.78999996
   14.33749962   98.20690155    1.34000003    2.76999998
   14.34083271   89.20559692    1.34000003    2.76999998
   14.34388828   96.89499664    1.30999994    2.78999996
   14.34722233  103.92700195    1.26999998    2.78999996
   14.35055637   97.12509918    1.26999998    2.78999996
   14.35638905   97.12509918    1.26999998    2.76999998
   14.36055565  100.33499908    1.25000000    2.78999996
   14.36361122   99.98999786    1.28999996    2.78999996
   14.36694431  103.18800354    1.28999996    2.78999996
   14.37027836  100.53399658    1.28999996    2.78999996
   14.37333393  110.42500305    1.36000001    2.78999996
   14.37666702  101.26799774    1.48000002    2.76999998
   14.37972260  103.49299622    1.44000006    2.78999996
   14.38305569   90.31809998    1.41999996    2.76999998
   14.38638878   91.47589874    1.41999996    2.76999998
   14.38944435   89.25900269    1.66999996    2.78999996
   14.39277744   99.24520111    1.64999998    2.76999998
   14.39333344   96.73259735    1.64999998    2.76999998
   14.39916611   96.73259735    1.50000000    2.78999996
   14.40333271   98.16870117    1.50000000    2.76999998
   14.40666676   95.54479980    1.50000000    2.76999998
   14.40972137   89.76640320    1.50000000    2.76999998
   14.41305542   90.49890137    1.61000001    2.78999996
   14.41611099   91.33000183    1.60000002    2.76999998
   14.41944504   96.96420288    1.55999994    2.78999996
   14.42277813   90.87190247    1.55999994    2.78999996
   14.42583370   92.16130066    1.58000004    2.78999996
   14.42666721   90.47149658    1.58000004    2.78999996
   14.42944431   96.14839935    1.55999994    2.76999998
   14.43277836   99.51560211    1.55999994    2.78999996
   14.43611145  106.36000061    1.63000000    2.76999998
   14.44194412  106.36000061    1.61000001    2.76999998
   14.44611073  106.20099640    1.63000000    2.76999998
   14.44944477   98.78589630    1.63000000    2.78999996
   14.45277786  100.29000092    1.61000001    2.76999998
   14.45583344   99.71769714    1.61000001    2.76999998
   14.45916653  107.59400177    1.60000002    2.78999996
   14.46000004   99.33679962    1.60000002    2.78999996
   14.46249962  100.35299683    1.58000004    2.76999998
   14.46583271  102.38400269    1.55999994    2.76999998
   14.46916580   88.03569794    1.53999996    2.78999996
   14.47222137  102.05999756    1.53999996    2.78999996
   14.47555542   98.95670319    1.50000000    2.76999998
   14.47861099  103.69499969    1.44000006    2.78999996
   14.48500061  103.69499969    1.41999996    2.78999996
   14.48888874   90.07309723    1.38000000    2.78999996
   14.49222279   97.81400299    1.38000000    2.78999996
   14.49333382   95.98200226    1.38000000    2.78999996
   14.49583340   97.25119781    1.39999998    2.78999996
   14.49916649   90.50959778    1.36000001    2.78999996
   14.50249958   91.92120361    1.34000003    2.78999996
   14.50555515   93.94159698    1.33000004    2.78999996
   14.50888920   88.88970184    1.33000004    2.78999996
   14.51222229   96.27429962    1.30999994    2.78999996
   14.51527786   93.28589630    1.30999994    2.78999996
   14.51861095  105.08200073    1.30999994    2.78999996
   14.52166653   95.02790070    1.30999994    2.78999996
   14.52777767   95.02790070    1.30999994    2.78999996
   14.53194427   99.85829926    1.30999994    2.78999996
   14.53500080   98.91660309    1.34000003    2.78999996
   14.53833389  105.99500275    1.34000003    2.78999996
   14.54166698   91.65239716    1.36000001    2.78999996
   14.54472256   98.11000061    1.41999996    2.80999994
   14.54805565   93.88980103    1.44000006    2.78999996
   14.55111122   93.97219849    1.44000006    2.78999996
   14.55444431   94.63870239    1.41999996    2.78999996
   14.55777836   94.85089874    1.44000006    2.78999996
   14.56000042   95.16699982    1.44000006    2.78999996
   14.56111145  101.28199768    1.44000006    2.78999996
   14.56444454   95.31089783    1.46000004    2.78999996
   14.57055569   95.31089783    1.50000000    2.78999996
   14.57472229   94.89900208    1.58000004    2.78999996
   14.57805538   96.55229950    1.58000004    2.78999996
   14.58111095   98.76329803    1.63000000    2.78999996
   14.58444405  100.75900269    1.60000002    2.78999996
   14.58749962   99.23229980    1.58000004    2.78999996
   14.59083271   93.58309937    1.50000000    2.78999996
   14.59333324   92.82199860    1.50000000    2.78999996
   14.59444427   93.02839661    1.48000002    2.78999996
   14.59777737  100.97499847    1.48000002    2.78999996
   14.60111141   88.15309906    1.48000002    2.78999996
   14.60416698   92.33329773    1.48000002    2.78999996
   14.60750008   95.29419708    1.46000004    2.78999996
   14.61333370   95.29419708    1.41999996    2.78999996
   14.61750031   91.31680298    1.38000000    2.78999996
   14.62083340   96.71019745    1.38000000    2.78999996
   14.62388897   98.26840210    1.41999996    2.78999996
   14.62666702   93.10440063    1.41999996    2.78999996
   14.62750053   95.52919769    1.41999996    2.78999996
   14.63083363   93.08059692    1.41999996    2.78999996
   14.63416672   94.87840271    1.39999998    2.78999996
   14.63722229   92.58070374    1.38000000    2.78999996
   14.64055538   93.44830322    1.44000006    2.80999994
   14.64388847   91.07270050    1.44000006    2.80999994
   14.64694405   85.95089722    1.41999996    2.78999996
   14.65027714  100.03099823    1.38000000    2.78999996
   14.65638828  100.03099823    1.34000003    2.78999996
   14.66027737   98.44909668    1.34000003    2.78999996
   14.66361046  100.72799683    1.33000004    2.78999996
   14.66694450   95.01419830    1.34000003    2.78999996
   14.67000008   91.61550140    1.34000003    2.78999996
   14.67333412   94.60890198    1.34000003    2.78999996
   14.67666721   92.76000214    1.33000004    2.78999996
   14.67972279   99.92810059    1.33000004    2.78999996
   14.68305588   93.70179749    1.30999994    2.78999996
   14.68611145   98.92140198    1.25000000    2.78999996
   14.68944454  100.22599792    1.23000002    2.78999996
   14.69277763   98.88780212    1.25000000    2.80999994
   14.69333363   99.93479919    1.25000000    2.80999994
   14.69916630   99.93479919    1.28999996    2.80999994
   14.70333290  102.36699677    1.33000004    2.80999994
   14.70638847   99.57700348    1.36000001    2.80999994
   14.70972157   97.16220093    1.36000001    2.80999994
   14.71305561  102.80000305    1.38000000    2.80999994
   14.71611118   97.06780243    1.46000004    2.78999996
   14.71944427  103.30500031    1.48000002    2.80999994
   14.72249985   90.77210236    1.50000000    2.78999996
   14.72583294   91.80159760    1.50000000    2.78999996
   14.72666645   98.60040283    1.51999998    2.78999996
   14.72916603   98.27089691    1.51999998    2.78999996
   14.73249912   97.63819885    1.53999996    2.78999996
   14.73583317   95.27890015    1.53999996    2.80999994
   14.74194431   95.27890015    1.51999998    2.78999996
   14.74611092  100.79100037    1.64999998    2.80999994
   14.74944496  105.88800049    1.63000000    2.78999996
   14.75249958   99.84239960    1.63000000    2.78999996
   14.75583363   96.74680328    1.64999998    2.78999996
   14.75888920  103.12799835    1.64999998    2.78999996
   14.76000023   96.86949921    1.64999998    2.78999996
   14.76249981  100.65799713    1.60000002    2.80999994
   14.76583290  101.37200165    1.58000004    2.78999996
   14.76916599  106.19300079    1.58000004    2.78999996
   14.77222157   99.03919983    1.55999994    2.78999996
   14.77555561   91.54409790    1.53999996    2.78999996
   14.77888870   85.40699768    1.50000000    2.78999996
   14.78472233   85.40699768    1.41999996    2.78999996
   14.78888893   98.79550171    1.28999996    2.80999994
   14.79222298   93.77890015    1.28999996    2.80999994
   14.79333401  101.69400024    1.25000000    2.80999994
   14.79583359  100.39199829    1.25000000    2.80999994
   14.79916668   93.95570374    1.23000002    2.80999994
   14.80222225   97.71009827    1.23000002    2.80999994
   14.80555534  100.77700043    1.25000000    2.80999994
   14.80861092   93.52919769    1.25000000    2.80999994
   14.81194496   92.96779633    1.26999998    2.80999994
   14.81527805   93.91059875    1.26999998    2.80999994
   14.81861115   89.41110229    1.26999998    2.80999994
   14.82166672  102.34200287    1.28999996    2.80999994
   14.82750034  102.34200287    1.30999994    2.80999994
   14.83166695   93.53089905    1.28999996    2.80999994
   14.83500004  100.35800171    1.33000004    2.78999996
   14.83833313   97.14540100    1.38000000    2.80999994
   14.84138870   97.16619873    1.38000000    2.78999996
   14.84472179   98.54149628    1.38000000    2.78999996
   14.84777737   97.94940186    1.39999998    2.80999994
   14.85111141   97.63690186    1.39999998    2.80999994
   14.85444450   92.80770111    1.41999996    2.80999994
   14.85750008   96.98950195    1.46000004    2.80999994
   14.86000061   96.19029999    1.46000004    2.78999996
   14.86138916   94.13030243    1.46000004    2.78999996
   14.86444473   95.08999634    1.50000000    2.78999996
   14.87055588   95.08999634    1.50000000    2.80999994
   14.87472248   95.63600159    1.53999996    2.78999996
   14.87777805   97.31960297    1.53999996    2.78999996
   14.88111115   88.14830017    1.55999994    2.78999996
   14.88444424   95.90319824    1.55999994    2.78999996
   14.88749981   93.61620331    1.55999994    2.78999996
   14.89083290   97.02619934    1.55999994    2.78999996
   14.89333344   94.33499908    1.53999996    2.78999996
   14.89416695   93.46389771    1.53999996    2.78999996
   14.89750004   92.08129883    1.51999998    2.80999994
   14.90083313   95.18109894    1.48000002    2.78999996
   14.90388870   96.39080048    1.48000002    2.78999996
   14.90722179  102.01000214    1.44000006    2.80999994
   14.91333294  102.01000214    1.39999998    2.80999994
   14.91750050   93.21549988    1.39999998    2.80999994
   14.92083359   99.48429871    1.38000000    2.80999994
   14.92388916  103.81400299    1.36000001    2.78999996
   14.92666721  105.42700195    1.34000003    2.80999994
   14.92777824  104.13500214    1.34000003    2.80999994
   14.93083382   97.34490204    1.34000003    2.80999994
   14.93416691   96.64579773    1.34000003    2.82999992
   14.93722248   95.08229828    1.30999994    2.80999994
   14.94055557   91.29660034    1.30999994    2.80999994
   14.94388866   95.07530212    1.30999994    2.80999994
   14.94694424   94.54049683    1.30999994    2.80999994
   14.95027733   91.69319916    1.30999994    2.80999994
   14.95611095   91.69319916    1.19000006    2.82999992
   14.96027756   97.96320343    1.19000006    2.80999994
   14.96361065   96.29920197    1.19000006    2.80999994
   14.96666622   88.05390167    1.16999996    2.82999992
   14.96999931   88.99539948    1.14999998    2.80999994
   14.97333336   90.44080353    1.13000000    2.80999994
   14.97638798   97.36920166    1.13000000    2.80999994
   14.97972202   88.15070343    1.13000000    2.82999992
   14.98305511   93.02290344    1.13000000    2.82999992
   14.98611164   89.67649841    1.13000000    2.82999992
   14.98944473   96.36139679    1.13000000    2.82999992
   14.99277782   97.97650146    1.16999996    2.82999992
   14.99333382   95.45410156    1.16999996    2.82999992
   14.99916649   95.45410156    1.21000004    2.80999994
   15.00305557   93.66280365    1.25000000    2.80999994
   15.00638866   98.18800354    1.25000000    2.80999994
   15.00972176   96.56580353    1.25000000    2.82999992
   15.01277733  100.06099701    1.26999998    2.80999994
   15.01611137   99.00930023    1.26999998    2.80999994
   15.01944447   91.56439972    1.26999998    2.80999994
   15.02250004   86.94319916    1.26999998    2.80999994
   15.02583313   94.75959778    1.26999998    2.78999996
   15.02666664   95.87490082    1.26999998    2.78999996
   15.02944374   93.95030212    1.25000000    2.82999992
   15.03249931   91.94159698    1.23000002    2.82999992
   15.03583336   95.64029694    1.21000004    2.82999992
   15.04194450   95.64029694    1.19000006    2.82999992
   15.04611111   96.21920013    1.19000006    2.82999992
   15.04916668   98.39929962    1.19000006    2.82999992
   15.05249977   98.55650330    1.19000006    2.82999992
   15.05583382  101.21600342    1.16999996    2.80999994
   15.05888939   94.43319702    1.14999998    2.82999992
   15.06000042  100.28199768    1.14999998    2.82999992
   15.06277752   97.71690369    1.14999998    2.82999992
   15.06583309  100.21499634    1.14999998    2.82999992
   15.06916618  104.18299866    1.13000000    2.80999994
   15.07250023  103.87500000    1.14999998    2.80999994
   15.07555580  101.12300110    1.13000000    2.80999994
   15.07888889   99.19409943    1.13000000    2.80999994
   15.08472157   99.19409943    1.13000000    2.82999992
   15.08888817   95.55439758    1.13000000    2.82999992
   15.09194374   99.76740265    1.14999998    2.82999992
   15.09333324   97.96289825    1.14999998    2.82999992
   15.09583282  100.23699951    1.14999998    2.82999992
   15.09888840  102.99800110    1.16999996    2.82999992
   15.10222244  100.63099670    1.19000006    2.82999992
   15.10555553   96.04000092    1.19000006    2.82999992
   15.10888958   94.30079651    1.16999996    2.82999992
   15.11194515   93.00250244    1.16999996    2.82999992
   15.11527824   99.81359863    1.16999996    2.80999994
   15.11861134  100.97000122    1.14999998    2.82999992
   15.12166691   93.51989746    1.14999998    2.82999992
   15.12750053   93.51989746    1.14999998    2.82999992
   15.13166714   96.34799957    1.14999998    2.82999992
   15.13500023  101.14099884    1.14999998    2.82999992
   15.13805580  104.10099792    1.13000000    2.82999992
   15.14138889   99.67350006    1.09000003    2.80999994
   15.14472198   96.19429779    1.07000005    2.82999992
   15.14777756   91.73580170    1.07000005    2.82999992
   15.15111065   92.82630157    1.07000005    2.80999994
   15.15444374   92.72039795    1.09000003    2.82999992
   15.15749931   95.13860321    1.09000003    2.84999990
   15.15999985  102.33200073    1.09000003    2.80999994
   15.16138840   98.04070282    1.09000003    2.82999992
   15.16444397   93.36769867    1.09000003    2.82999992
   15.17055607   93.36769867    1.07000005    2.82999992
   15.17444515   99.43990326    1.07000005    2.82999992
   15.17777824  100.09500122    1.07000005    2.82999992
   15.18111134  100.67099762    1.07000005    2.82999992
   15.18416691  100.63800049    1.07000005    2.84999990
   15.18750000   97.22609711    1.07000005    2.80999994
   15.19055557  101.17800140    1.05999994    2.82999992
   15.19333363  100.11499786    1.05999994    2.84999990
   15.19444466   99.19850159    1.05999994    2.84999990
   15.19750023   93.64209747    1.05999994    2.84999990
   15.20083332   89.03639984    1.07000005    2.82999992
   15.20416641   88.83750153    1.07000005    2.82999992
   15.20722198   89.23410034    1.07000005    2.82999992
   15.21333313   89.23410034    1.07000005    2.82999992
   15.21749973   97.27089691    1.07000005    2.82999992
   15.22055531   92.94799805    1.05999994    2.82999992
   15.22388840   98.32520294    1.05999994    2.84999990
   15.22666645   92.58059692    1.09000003    2.82999992
   15.22749996   92.28040314    1.09000003    2.82999992
   15.23055553   97.07199860    1.09000003    2.82999992
   15.23388958  100.60700226    1.09000003    2.82999992
   15.23694515  101.72000122    1.11000001    2.82999992
   15.24027824   96.78009796    1.13000000    2.82999992
   15.24361134  102.68599701    1.13000000    2.82999992
   15.24666691   99.95099640    1.11000001    2.82999992
   15.25000000   94.29570007    1.13000000    2.80999994
   15.25611115   94.29570007    1.13000000    2.82999992
   15.26027775  104.23300171    1.14999998    2.84999990
   15.26333332   99.31449890    1.14999998    2.84999990
   15.26666641  101.94300079    1.16999996    2.82999992
   15.26999950   95.14969635    1.14999998    2.82999992
   15.27305508   99.07160187    1.14999998    2.82999992
   15.27638817  102.86399841    1.14999998    2.82999992
   15.27972221   98.98799896    1.14999998    2.82999992
   15.28277779   97.70330048    1.14999998    2.82999992
   15.28611183   87.71579742    1.14999998    2.82999992
   15.28916740   97.69010162    1.14999998    2.82999992
   15.29250050   95.24160004    1.16999996    2.82999992
   15.29333401  107.03800201    1.16999996    2.82999992
   15.29888916  107.03800201    1.19000006    2.82999992
   15.30305576   96.74120331    1.16999996    2.84999990
   15.30638885   95.65499878    1.16999996    2.84999990
   15.30944443   93.85759735    1.16999996    2.82999992
   15.32722187   95.13439941    1.16999996    2.82999992
   15.32944393   90.52839661    1.16999996    2.82999992
   15.33277798   94.22989655    1.21000004    2.80999994
   15.33583260   94.36740112    1.21000004    2.82999992
   15.34194374   94.36740112    1.23000002    2.84999990
   15.34611034   88.74459839    1.23000002    2.80999994
   15.34916592   91.75229645    1.23000002    2.80999994
   15.35249996   94.13030243    1.23000002    2.82999992
   15.35583401  102.56700134    1.25000000    2.80999994
   15.35888958   95.85720062    1.23000002    2.80999994
   15.36027813  103.63899994    1.23000002    2.80999994
   15.36250019   95.07859802    1.25000000    2.80999994
   15.36583328   99.96459961    1.25000000    2.80999994
   15.36888885   99.75659943    1.25000000    2.80999994
   15.37222195   96.58209991    1.25000000    2.82999992
   15.37555599   91.05609894    1.25000000    2.82999992
   15.37861156   91.46569824    1.21000004    2.82999992
   15.38472176   91.46569824    1.14999998    2.80999994
   15.38888836   86.68460083    1.11000001    2.82999992
   15.39222240   93.58789825    1.09000003    2.84999990
   15.39361095   98.06169891    1.09000003    2.84999990
   15.39583302   98.64420319    1.05999994    2.84999990
   15.39916611   94.48400116    1.05999994    2.82999992
   15.40222168   93.21839905    1.07000005    2.82999992
   15.40555477   98.80210114    1.07000005    2.84999990
   15.40861034   91.69210052    1.07000005    2.84999990
   15.41194439   98.60939789    1.05999994    2.82999992
   15.41527748   96.09680176    1.05999994    2.82999992
   15.41861153   92.01830292    1.05999994    2.84999990
   15.42166710   94.74500275    1.07000005    2.84999990
   15.42750072   94.74500275    1.01999998    2.84999990
   15.43166733   88.11350250    1.00000000    2.84999990
   15.43500042   99.52010345    1.00000000    2.84999990
   15.43833351  106.58300018    1.00000000    2.84999990
   15.44138908   97.94329834    1.00000000    2.82999992
   15.44472218  101.19000244    0.98000002    2.84999990
   15.44777775  100.49099731    0.98000002    2.82999992
   15.45111084  103.33999634    1.01999998    2.82999992
   15.45444393  101.41699982    1.03999996    2.84999990
   15.45749950   90.30660248    1.03999996    2.84999990
   15.46027756   97.13159943    1.03999996    2.84999990
   15.46111107   93.03289795    1.05999994    2.84999990
   15.46444416   94.49549866    1.05999994    2.84999990
   15.47055531   94.49549866    1.09000003    2.84999990
   15.47472191   97.10420227    1.11000001    2.84999990
   15.47777748   87.64640045    1.11000001    2.82999992
   15.48111057   94.11740112    1.11000001    2.84999990
   15.48444462   94.75669861    1.14999998    2.84999990
   15.48750019   95.35739899    1.16999996    2.82999992
   15.49083328  104.48300171    1.19000006    2.84999990
   15.49361134   93.78489685    1.19000006    2.84999990
   15.49444485   94.17209625    1.23000002    2.84999990
   15.49777794   91.90119934    1.23000002    2.84999990
   15.50083351   87.37429810    1.23000002    2.84999990
   15.50416660   88.54409790    1.23000002    2.82999992
   15.50722218   90.98889923    1.25000000    2.82999992
   15.51333332   90.98889923    1.23000002    2.82999992
   15.51749992   95.67209625    1.23000002    2.84999990
   15.52083302   93.54209900    1.21000004    2.84999990
   15.52388859  114.48899841    1.19000006    2.82999992
   15.52694416   98.23500061    1.19000006    2.82999992
   15.52750015   98.49849701    1.19000006    2.82999992
   15.53083324   95.38500214    1.14999998    2.84999990
   15.53388977  102.68499756    1.13000000    2.84999990
   15.53722286   95.16780090    1.13000000    2.82999992
   15.54055595  100.75599670    1.07000005    2.82999992
   15.54361153  104.73500061    1.09000003    2.84999990
   15.54694462   99.73200226    1.07000005    2.84999990
   15.55027771  109.38600159    1.09000003    2.84999990
   15.55611134  109.38600159    1.11000001    2.84999990
   15.56027794   94.83219910    1.11000001    2.84999990
   15.56083393   92.67160034    1.11000001    2.84999990
   15.56388950   98.23059845    1.11000001    2.84999990
   15.56722260   98.17230225    1.09000003    2.84999990
   15.57055569  103.59400177    1.09000003    2.84999990
   15.57361126   99.69960022    1.11000001    2.84999990
   15.57694435  105.20400238    1.09000003    2.84999990
   15.58027744   99.18209839    1.09000003    2.84999990
   15.58361053   96.07019806    1.05999994    2.84999990
   15.58666611   93.50589752    1.07000005    2.84999990
   15.59000015  105.55699921    1.05999994    2.84999990
   15.59305477  102.43900299    1.03999996    2.82999992
   15.59416676   97.45960236    1.03999996    2.82999992
   15.59888840   97.45960236    1.05999994    2.84999990
   15.60305595   96.64070129    1.05999994    2.84999990
   15.60638905   90.78790283    1.03999996    2.84999990
   15.60972214  106.39099884    1.03999996    2.82999992
   15.61277771  102.15899658    1.05999994    2.84999990
   15.61611176   97.64260101    1.05999994    2.84999990
   15.61916637   99.34790039    1.05999994    2.82999992
   15.62250042   96.02259827    1.07000005    2.82999992
   15.62583351   97.06030273    1.05999994    2.84999990
   15.62750053   89.00399780    1.05999994    2.84999990
   15.62916660   98.61380005    1.07000005    2.84999990
   15.63249969   99.60870361    1.07000005    2.84999990
   15.63583279  106.37500000    1.07000005    2.84999990
   15.64194393  106.37500000    1.11000001    2.84999990
   15.64611053  103.43599701    1.09000003    2.84999990
   15.64916611   94.57070160    1.11000001    2.84999990
   15.65249920  104.75000000    1.11000001    2.84999990
   15.65583324  105.23899841    1.13000000    2.84999990
   15.65888882  104.36499786    1.13000000    2.84999990
   15.66083336  101.98799896    1.14999998    2.82999992
   15.66277695   99.46499634    1.14999998    2.82999992
   15.66583252   98.46340179    1.14999998    2.84999990
   15.66916656   95.77749634    1.14999998    2.84999990
   15.67222214   96.84649658    1.14999998    2.84999990
   15.67555618  107.03700256    1.16999996    2.84999990
   15.67888927  112.74600220    1.19000006    2.82999992
   15.68472195  112.74600220    1.19000006    2.82999992
   15.68888855   93.72090149    1.19000006    2.84999990
   15.69194412  103.46600342    1.16999996    2.84999990
   15.69416714   91.13120270    1.16999996    2.82999992
   15.69555569   93.90730286    1.16999996    2.82999992
   15.69888878   95.57479858    1.14999998    2.84999990
   15.70222187   87.93979645    1.11000001    2.84999990
   15.70527744   91.26339722    1.11000001    2.84999990
   15.70861053   91.47799683    1.11000001    2.84999990
   15.71194458   99.75589752    1.09000003    2.84999990
   15.71500015   94.45259857    1.09000003    2.82999992
   15.71833324   91.01239777    1.07000005    2.84999990
   15.72138882   93.73680115    1.05999994    2.84999990
   15.72749996   93.73680115    1.07000005    2.82999992
   15.73166656   94.65019989    1.09000003    2.84999990
   15.73500061   96.64140320    1.14999998    2.84999990
   15.73805618  102.90000153    1.14999998    2.84999990
   15.74138927   96.25869751    1.13000000    2.84999990
   15.74472237   96.92630005    1.13000000    2.84999990
   15.74777794   95.00029755    1.13000000    2.84999990
   15.75111103   96.93659973    1.14999998    2.84999990
   15.75444412   98.58229828    1.16999996    2.84999990
   15.75749969   93.34339905    1.19000006    2.84999990
   15.76083374  100.96600342    1.23000002    2.84999990
   15.76138878   88.55079651    1.21000004    2.82999992
   15.76444435   92.80709839    1.21000004    2.82999992
   15.77027798   92.80709839    1.21000004    2.84999990
   15.77444458   87.49520111    1.21000004    2.82999992
   15.77777767  101.12100220    1.19000006    2.84999990
   15.78111076   92.67030334    1.16999996    2.84999990
   15.78416729   95.68959808    1.16999996    2.84999990
   15.78750038   89.33699799    1.14999998    2.84999990
   15.79055595   94.87349701    1.13000000    2.82999992
   15.79388905   88.49449921    1.11000001    2.84999990
   15.79444504   92.92240143    1.11000001    2.82999992
   15.79750061   89.82920074    1.09000003    2.84999990
   15.80083370   89.08249664    1.09000003    2.84999990
   15.80416679   90.50620270    1.07000005    2.84999990
   15.80722237   87.25430298    1.07000005    2.84999990
   15.81333351   87.25430298    1.01999998    2.84999990
   15.81750011   91.47029877    1.00000000    2.84999990
   15.82055569   94.02749634    1.00000000    2.84999990
   15.82388878   94.14430237    0.98000002    2.84999990
   15.82694435   89.42780304    0.95999998    2.84999990
   15.82777786   91.85800171    0.98000002    2.84999990
   15.83083344  106.20400238    0.95999998    2.84999990
   15.83388901   99.12200165    0.95999998    2.84999990
   15.83722210   96.54350281    0.95999998    2.84999990
   15.84055519   92.17019653    0.95999998    2.84999990
   15.84361076   90.31870270    0.94000000    2.84999990
   15.84694386   94.97619629    0.95999998    2.84999990
   15.85027790   96.61250305    0.98000002    2.84999990
   15.85611153   96.61250305    0.98000002    2.84999990
   15.86027813   92.07790375    0.95999998    2.84999990
   15.86111164   99.85569763    0.95999998    2.84999990
   15.86388969   99.02140045    0.95999998    2.84999990
   15.86694431  105.87899780    0.95999998    2.84999990
   15.87027836   98.90699768    0.92000002    2.84999990
   15.87333393   92.71690369    0.94000000    2.84999990
   15.87666702   97.10890198    0.98000002    2.84999990
   15.88000011   93.91020203    1.00000000    2.84999990
   15.88305569   96.98650360    1.01999998    2.84999990
   15.88638878  101.12200165    1.03999996    2.84999990
   15.88972187   92.10269928    1.03999996    2.84999990
   15.89305496   92.90080261    1.03999996    2.84999990
   15.89444447  100.49800110    1.03999996    2.84999990
   15.89916611  100.49800110    1.03999996    2.84999990
   15.90333271   99.87359619    1.03999996    2.84999990
   15.90666676   99.28500366    1.03999996    2.84999990
   15.90999985  100.71499634    1.03999996    2.84999990
   15.91333294   93.50330353    1.03999996    2.84999990
   15.91666698  104.05000305    1.03999996    2.84999990
   15.92000008   97.78700256    1.03999996    2.84999990
   15.92333412   91.80899811    1.03999996    2.84999990
   15.92666721  100.61199951    1.03999996    2.84999990
   15.92805576   93.65940094    1.03999996    2.84999990
   15.93083382   92.85079956    1.03999996    2.84999990
   15.93388939   99.98770142    1.03999996    2.84999990
   15.93722248   94.47850037    1.03999996    2.84999990
   15.94194412   94.47850037    1.03999996    2.84999990
   15.94611073   99.88480377    1.03999996    2.84999990
   15.94944477  109.21600342    1.03999996    2.84999990
   15.95277786  111.35900116    1.03999996    2.84999990
   15.95611095  101.60099792    1.03999996    2.84999990
   15.95944405  103.04299927    1.03999996    2.84999990
   15.96111107   92.82710266    1.03999996    2.84999990
   15.96305561   94.13980103    1.03999996    2.84999990
   15.96638870   98.33029938    1.03999996    2.84999990
   15.96972179   96.27490234    1.03999996    2.84999990
   15.97333336   93.19460297    1.03999996    2.84999990
   15.97666645   95.60630035    1.03999996    2.84999990
   15.97999954   91.04209900    1.03999996    2.84999990
   15.98472214   91.04209900    1.03999996    2.84999990
   15.98888874   95.60189819    1.03999996    2.84999990
   15.99222279   92.29620361    1.03999996    2.84999990
   15.99444485   91.94869995    1.03999996    2.84999990
   15.99611092   94.36609650    1.03999996    2.84999990
   15.99944496   96.49389648    1.03999996    2.84999990
   16.00277710   98.82879639    1.03999996    2.84999990
   16.00611115   96.84899902    1.03999996    2.84999990
   16.00944519   96.30480194    1.03999996    2.84999990
   16.01277733   91.93640137    1.03999996    2.84999990
   16.01611137   96.77880096    1.03999996    2.84999990
   16.01944351   96.52760315    1.03999996    2.84999990
   16.02277756   93.23919678    1.03999996    2.84999990
   16.02750015   93.23919678    1.03999996    2.84999990
   16.03166580  103.10700226    1.03999996    2.84999990
   16.03499985   95.60389709    1.03999996    2.84999990
   16.03833199   96.32669830    1.03999996    2.84999990
   16.04166603   92.43250275    1.03999996    2.84999990
   16.04500008   95.68109894    1.03999996    2.84999990
   16.04833221   94.06020355    1.03999996    2.84999990
   16.05166626   91.40260315    1.03999996    2.84999990
   16.05499840  101.99299622    1.03999996    2.84999990
   16.05805397   94.09010315    1.03999996    2.84999990
   16.06138802   97.50769806    1.14999998    2.84999990
   16.06250000   93.20089722    1.14999998    2.84999990
   16.06499863   96.50830078    1.14999998    2.84999990
   16.07027817   96.50830078    1.19000006    2.82999992
   16.07444572   95.23100281    1.19000006    2.84999990
   16.07777786   94.33589935    1.16999996    2.84999990
   16.08111191  104.89499664    1.19000006    2.84999990
   16.08416748   95.07540131    1.19000006    2.84999990
   16.08750153  104.88899994    1.19000006    2.84999990
   16.09083366   99.32309723    1.19000006    2.84999990
   16.09416771   97.44519806    1.19000006    2.84999990
   16.09611130   99.15049744    1.19000006    2.84999990
   16.09805679  105.37599945    1.19000006    2.84999990
   16.10138893  101.42099762    1.19000006    2.84999990
   16.10472298   93.78230286    1.19000006    2.84999990
   16.10805511  105.82299805    1.19000006    2.84999990
   16.11333466  105.82299805    1.19000006    2.84999990
   16.11750031   91.78240204    1.19000006    2.84999990
   16.12083435   95.15309906    1.19000006    2.84999990
   16.12416649   90.94779968    1.19000006    2.84999990
   16.12750053   94.75949860    1.19000006    2.84999990
   16.12944412   96.95130157    1.19000006    2.84999990
   16.13138962   96.70760345    1.19000006    2.84999990
   16.13472176   95.58059692    1.19000006    2.84999990
   16.13805580   93.87439728    1.19000006    2.84999990
   16.14138794   95.32510376    1.19000006    2.84999990
   16.14472198  103.40899658    1.19000006    2.84999990
   16.14805603   94.04850006    1.19000006    2.84999990
   16.15138817   99.16220093    1.19000006    2.84999990
   16.15638924   99.16220093    1.19000006    2.84999990
   16.16055489   94.64800262    1.19000006    2.84999990
   16.16277695   96.27790070    1.19000006    2.84999990
   16.16444397  100.77999878    1.19000006    2.84999990
   16.16777802   94.13539886    1.19000006    2.84999990
   16.17111015  102.62599945    1.19000006    2.84999990
   16.17444420   98.88790131    1.19000006    2.84999990
   16.17777634  101.21399689    1.19000006    2.84999990
   16.18111038   94.70469666    1.19000006    2.84999990
   16.18444443  103.34799957    1.19000006    2.84999990
   16.18777657  102.69000244    1.19000006    2.84999990
   16.19111061  103.41799927    1.19000006    2.84999990
   16.19444275  101.80400085    1.19000006    2.84999990
   16.19916534  101.80400085    1.19000006    2.84999990
   16.20333481   97.44680023    1.19000006    2.84999990
   16.20694542   95.53610229    1.19000006    2.84999990
   16.21027946   99.36160278    1.19000006    2.84999990
   16.21361160   98.00849915    1.19000006    2.84999990
   16.21722221   98.62390137    1.19000006    2.84999990
   16.22055626   93.66220093    1.19000006    2.84999990
   16.22389030  102.96099854    1.19000006    2.84999990
   16.22722244   96.91069794    1.19000006    2.84999990
   16.23000145   97.69709778    1.19000006    2.84999990
   16.23111153  106.10099792    1.19000006    2.84999990
   16.23444557   99.95030212    1.19000006    2.84999990
   16.23777771   92.86090088    1.19000006    2.84999990
   16.24222183   92.86090088    1.19000006    2.84999990
   16.24638939  102.66799927    1.19000006    2.84999990
   16.24972153  104.04299927    1.19000006    2.84999990
   16.25305557  103.81300354    1.19000006    2.84999990
   16.25638962  109.64199829    1.19000006    2.84999990
   16.25972176  104.03399658    1.19000006    2.84999990
   16.26305580   98.57299805    1.19000006    2.84999990
   16.26416588  108.20600128    1.19000006    2.84999990
   16.26749992  109.08399963    1.19000006    2.84999990
   16.27083397   94.02189636    1.19000006    2.84999990
   16.27416611   96.55919647    1.19000006    2.84999990
   16.27750015   96.27929688    1.19000006    2.84999990
   16.28083229   96.76779938    1.19000006    2.84999990
   16.28499985   96.76779938    1.19000006    2.84999990
   16.28916550   98.79229736    1.19000006    2.84999990
   16.29277802   92.23000336    1.19000006    2.84999990
   16.29611015   96.73239899    1.19000006    2.84999990
   16.29722214   96.21170044    1.19000006    2.84999990
   16.29972076   97.39890289    1.19000006    2.84999990
   16.30305481   96.38639832    1.19000006    2.84999990
   16.30638885   94.97480011    1.19000006    2.84999990
   16.30972099   94.28369904    1.19000006    2.84999990
   16.31305504   94.44660187    1.19000006    2.84999990
   16.31638718   98.27290344    1.19000006    2.84999990
   16.31972313  102.71399689    1.19000006    2.84999990
   16.32305717   99.68440247    1.19000006    2.84999990
   16.34444427  100.34200287    1.19000006    2.84999990
   16.34500122   99.22329712    1.19000006    2.84999990
   16.34583473  100.09999847    1.19000006    2.84999990
   16.34944534   91.04589844    1.19000006    2.84999990
   16.35277748   99.39550018    1.19000006    2.84999990
   16.35611153   92.74179840    1.19000006    2.84999990
   16.35944557   89.97570038    1.19000006    2.84999990
   16.36277771   92.33350372    1.19000006    2.84999990
   16.36638832   98.42500305    1.19000006    2.84999990
   16.37083435   98.42500305    1.19000006    2.84999990
   16.37500000   99.08239746    1.19000006    2.84999990
   16.37833405  100.34200287    1.19000006    2.84999990
   16.37888908   93.76380157    1.19000006    2.84999990
   16.38222313  100.67199707    1.19000006    2.84999990
   16.38527679   92.25330353    1.19000006    2.84999990
   16.38888931   96.61830139    1.19000006    2.84999990
   16.39222145   91.14450073    1.19000006    2.84999990
   16.39555550   96.55310059    1.19000006    2.84999990
   16.39888954  101.77500153    1.19000006    2.84999990
   16.40222168   93.63670349    1.19000006    2.84999990
   16.40583229  103.01399994    1.19000006    2.84999990
   16.40888786   97.55539703    1.19000006    2.84999990
   16.41388893   97.55539703    1.19000006    2.84999990
   16.41805458   92.68489838    1.19000006    2.84999990
   16.42166519  103.95400238    1.19000006    2.84999990
   16.42472076  107.97599792    1.19000006    2.84999990
   16.42833328   96.70459747    1.19000006    2.84999990
   16.43166542   98.57409668    1.19000006    2.84999990
   16.43499947   95.42639923    1.19000006    2.84999990
   16.43833160   91.64939880    1.19000006    2.84999990
   16.44194412   96.52590179    1.19000006    2.84999990
   16.44527626  103.00000000    1.19000006    2.84999990
   16.44610977   94.12830353    1.19000006    2.84999990
   16.44916534   91.81109619    1.19000006    2.84999990
   16.45277786   92.53939819    1.19000006    2.84999990
   16.47333336   92.53939819    0.00000000    0.00000000
   16.47833443   93.22229767    0.00000000    0.00000000
   16.48194504   96.54900360    0.00000000    0.00000000
   16.48583412   94.25910187    0.00000000    0.00000000
   16.48972321   95.84120178    0.00000000    0.00000000
   16.48999977   90.09179688    0.00000000    0.00000000
   16.49388885  101.31099701    0.00000000    0.00000000
   16.49777794   98.15280151    0.00000000    0.00000000
   16.50250053   98.15280151    0.00000000    0.00000000
   16.50722313   99.30049896    0.00000000    0.00000000
   16.51111031   93.61599731    0.00000000    0.00000000
   16.51499939  108.55899811    0.00000000    0.00000000
   16.51888847   91.15280151    0.00000000    0.00000000
   16.52277756   97.02310181    0.00000000    0.00000000
   16.52305603   90.93930054    0.00000000    0.00000000
   16.52666664   94.40589905    0.00000000    0.00000000
   16.53055573   92.08209991    0.00000000    0.00000000
   16.53444481  103.67900085    0.00000000    0.00000000
   16.53833199  102.07399750    0.00000000    0.00000000
   16.54527664  102.07399750    0.00000000    0.00000000
   16.54999924   94.14710236    0.00000000    0.00000000
   16.55388832   98.05709839    0.00000000    0.00000000
   16.55666542   90.47299957    0.00000000    0.00000000
   16.55805397   97.29360199    0.00000000    0.00000000
   16.56194305   96.07520294    0.00000000    0.00000000
   16.56583214  103.08799744    0.00000000    0.00000000
   16.56972313   95.26380157    0.00000000    0.00000000
   16.57361221  101.11299896    0.00000000    0.00000000
   16.57750130   92.58820343    0.00000000    0.00000000
   16.58139038   99.56259918    0.00000000    0.00000000
   16.58833313   99.56259918    0.00000000    0.00000000
   16.59305573   97.68229675    0.00000000    0.00000000
   16.59694481  100.16300201    0.00000000    0.00000000
   16.60055542  110.21900177    0.00000000    0.00000000
   16.60444450   92.71499634    0.00000000    0.00000000
   16.60833359   90.66719818    0.00000000    0.00000000
   16.61222267   97.42849731    0.00000000    0.00000000
   16.61611176   88.92400360    0.00000000    0.00000000
   16.62000084   96.56970215    0.00000000    0.00000000
   16.62388992  102.41300201    0.00000000    0.00000000
   16.62416649   89.80269623    0.00000000    0.00000000
   16.63111115   89.80269623    0.00000000    0.00000000
   16.63583374  101.95300293    0.00000000    0.00000000
   16.63972282   99.19950104    0.00000000    0.00000000
   16.64361191   90.75930023    0.00000000    0.00000000
   16.64749908   96.65619659    0.00000000    0.00000000
   16.65111160   95.38590240    0.00000000    0.00000000
   16.65499878   90.37860107    0.00000000    0.00000000
   16.65749931  100.77700043    0.00000000    0.00000000
   16.65916634  103.60500336    0.00000000    0.00000000
   16.66305542   97.04060364    0.00000000    0.00000000
   16.66694450  111.68900299    0.00000000    0.00000000
   16.67388916  111.68900299    0.00000000    0.00000000
   16.67860985   98.37870026    0.00000000    0.00000000
   16.68249893  100.59200287    0.00000000    0.00000000
   16.68638802   96.08920288    0.00000000    0.00000000
   16.69027710   94.42019653    0.00000000    0.00000000
   16.69083214   93.01360321    0.00000000    0.00000000
   16.69444275   89.31600189    0.00000000    0.00000000
   16.69833183   96.76480103    0.00000000    0.00000000
   16.70222282   91.22409821    0.00000000    0.00000000
   16.70611191   91.71959686    0.00000000    0.00000000
   16.71000099   99.72949982    0.00000000    0.00000000
   16.71666718   99.72949982    0.00000000    0.00000000
   16.72138977   95.44059753    0.00000000    0.00000000
   16.72416687   94.91739655    0.00000000    0.00000000
   16.72555542  108.43199921    0.00000000    0.00000000
   16.72944450  100.44100189    0.00000000    0.00000000
   16.73333359  110.51300049    0.00000000    0.00000000
   16.73722267  113.05200195    0.00000000    0.00000000
   16.74111176  103.74600220    0.00000000    0.00000000
   16.74500084  102.83300018    0.00000000    0.00000000
   16.74861145  105.47699738    0.00000000    0.00000000
   16.75250053   98.13749695    0.00000000    0.00000000
   16.75972176   98.13749695    0.00000000    0.00000000
   16.76444435   93.16560364    0.00000000    0.00000000
   16.76833344  101.58499908    0.00000000    0.00000000
   16.77194405  102.71199799    0.00000000    0.00000000
   16.77583313   98.60759735    0.00000000    0.00000000
   16.77972221   99.71189880    0.00000000    0.00000000
   16.78361130  102.60099792    0.00000000    0.00000000
   16.78750038  102.53500366    0.00000000    0.00000000
   16.79138756   94.31250000    0.00000000    0.00000000
   16.79194450   97.81729889    0.00000000    0.00000000
   16.79527664  101.97899628    0.00000000    0.00000000
   16.80249977  101.97899628    0.00000000    0.00000000
   16.80722237  107.91699982    0.00000000    0.00000000
   16.81110954  108.42099762    0.00000000    0.00000000
   16.81499863  102.15399933    0.00000000    0.00000000
   16.81888962   95.05629730    0.00000000    0.00000000
   16.82250023  106.26100159    0.00000000    0.00000000
   16.82527924   94.36630249    0.00000000    0.00000000
   16.82666779   98.67659760    0.00000000    0.00000000
   16.83055687  106.17800140    0.00000000    0.00000000
   16.83444595  101.72100067    0.00000000    0.00000000
   16.83833313  104.38099670    0.00000000    0.00000000
   16.84472275  104.38099670    0.00000000    0.00000000
   16.84944534   96.40950012    0.00000000    0.00000000
   16.85333443  116.57299805    0.00000000    0.00000000
   16.85722351  105.98699951    0.00000000    0.00000000
   16.85833359  100.10399628    0.00000000    0.00000000
   16.86111069  110.13600159    0.00000000    0.00000000
   16.86499977  106.13300323    0.00000000    0.00000000
   16.86888885   99.78839874    0.00000000    0.00000000
   16.87277794   96.66670227    0.00000000    0.00000000
   16.87666702  106.45700073    0.00000000    0.00000000
   16.88055611  105.62300110    0.00000000    0.00000000
   16.88444519  107.72200012    0.00000000    0.00000000
   16.88916588  107.72200012    0.00000000    0.00000000
   16.89388847   98.18499756    0.00000000    0.00000000
   16.89777756   98.56580353    0.00000000    0.00000000
   16.90138817   99.49819946    0.00000000    0.00000000
   16.90527725  114.02500153    0.00000000    0.00000000
   16.90916634   96.94599915    0.00000000    0.00000000
   16.91305542   93.73179626    0.00000000    0.00000000
   16.91694450   99.15450287    0.00000000    0.00000000
   16.92083359   95.11270142    0.00000000    0.00000000
   16.92472076   94.85150146    0.00000000    0.00000000
   16.92555428   94.22910309    0.00000000    0.00000000
   16.93194389   94.22910309    0.00000000    0.00000000
   16.93666649   94.04270172    0.00000000    0.00000000
   16.94055557  106.85199738    0.00000000    0.00000000
   16.94444275  102.14900208    0.00000000    0.00000000
   16.94833183   96.15409851    0.00000000    0.00000000
   16.95194435  101.90200043    0.00000000    0.00000000
   16.95583344   94.20919800    0.00000000    0.00000000
   16.95944595   98.89289856    0.00000000    0.00000000
   16.96000099   94.72889709    0.00000000    0.00000000
   16.96389008   94.26480103    0.00000000    0.00000000
   16.96777916   95.06929779    0.00000000    0.00000000
   16.97472191   95.06929779    0.00000000    0.00000000
   16.97944450   97.62830353    0.00000000    0.00000000
   16.98333359  103.74600220    0.00000000    0.00000000
   16.98722267   97.94039917    0.00000000    0.00000000
   16.99111176   98.70860291    0.00000000    0.00000000
   16.99222183   95.24829865    0.00000000    0.00000000
   16.99527740  101.29499817    0.00000000    0.00000000
   16.99916649  101.68499756    0.00000000    0.00000000
   17.00305557   91.74479675    0.00000000    0.00000000
   17.00694466  105.35600281    0.00000000    0.00000000
   17.01083374  101.37200165    0.00000000    0.00000000
   17.01749992  101.37200165    0.00000000    0.00000000
   17.02222252   95.44120026    0.00000000    0.00000000
   17.02611160   91.82659912    0.00000000    0.00000000
   17.02666664   96.00769806    0.00000000    0.00000000
   17.03055573   98.14050293    0.00000000    0.00000000
   17.03444481   97.43830109    0.00000000    0.00000000
   17.03833199   90.80269623    0.00000000    0.00000000
   17.04222107   92.45110321    0.00000000    0.00000000
   17.04583359   97.56479645    0.00000000    0.00000000
   17.04972076   94.41259766    0.00000000    0.00000000
   17.05360985   98.58309937    0.00000000    0.00000000
   17.06055450   98.58309937    0.00000000    0.00000000
   17.06527710   92.90750122    0.00000000    0.00000000
   17.06916809   95.30539703    0.00000000    0.00000000
   17.07277870   96.62280273    0.00000000    0.00000000
   17.07666779   92.71779633    0.00000000    0.00000000
   17.08055687   97.93789673    0.00000000    0.00000000
   17.08444595   98.80719757    0.00000000    0.00000000
   17.08833313   96.88800049    0.00000000    0.00000000
   17.09222221   94.49179840    0.00000000    0.00000000
   17.09277916  102.11199951    0.00000000    0.00000000
   17.09611130   94.78009796    0.00000000    0.00000000
   17.10333443   94.78009796    0.00000000    0.00000000
   17.10805511   99.67849731    0.00000000    0.00000000
   17.11194420   97.01300049    0.00000000    0.00000000
   17.11583328   95.94950104    0.00000000    0.00000000
   17.11972237   97.14299774    0.00000000    0.00000000
   17.12361145   94.92980194    0.00000000    0.00000000
   17.12611198   96.52100372    0.00000000    0.00000000
   17.12750053   98.86129761    0.00000000    0.00000000
   17.13138962   97.79589844    0.00000000    0.00000000
   17.13527679  105.61900330    0.00000000    0.00000000
   17.13916588   95.94069672    0.00000000    0.00000000
   17.14611053   95.94069672    0.00000000    0.00000000
   17.15083313   92.43450165    0.00000000    0.00000000
   17.15472221   97.17250061    0.00000000    0.00000000
   17.15861130   97.76509857    0.00000000    0.00000000
   17.15944481   94.23840332    0.00000000    0.00000000
   17.16277695   95.06169891    0.00000000    0.00000000
   17.16666603   97.44670105    0.00000000    0.00000000
   17.17055511  100.05500031    0.00000000    0.00000000
   17.17444420  102.96700287    0.00000000    0.00000000
   17.17833328  103.88700104    0.00000000    0.00000000
   17.18222237  105.43599701    0.00000000    0.00000000
   17.18888855  105.43599701    0.00000000    0.00000000
   17.19361115  118.42900085    0.00000000    0.00000000
   17.19749832  112.71700287    0.00000000    0.00000000
   17.20138931  111.31400299    0.00000000    0.00000000
   17.20527840  112.48899841    0.00000000    0.00000000
   17.20916748  117.83899689    0.00000000    0.00000000
   17.21305656  128.21299744    0.00000000    0.00000000
   17.21694565  133.71400452    0.00000000    0.00000000
   17.22083473  136.89700317    0.00000000    0.00000000
   17.22472191  159.83200073    0.00000000    0.00000000
   17.22611237  156.25399780    0.00000000    0.00000000
   17.23194504  156.25399780    0.00000000    0.00000000
   17.23666763  222.56199646    0.00000000    0.00000000
   17.24055672  273.43099976    0.00000000    0.00000000
   17.24416733  294.58099365    0.00000000    0.00000000
   17.24805641  122.75599670    0.00000000    0.00000000
   17.25194359  102.86399841    0.00000000    0.00000000
   17.25583267   -1.00000000    0.00000000    0.00000000
   17.25972176   -1.00000000    0.00000000    0.00000000
   17.26361084   -1.00000000    0.00000000    0.00000000
   17.26749992   -1.00000000    0.00000000    0.00000000
   17.27944374   -1.00000000    0.00000000    0.00000000
   17.28333282   -1.00000000    0.00000000    0.00000000
   17.28722191   -1.00000000    0.00000000    0.00000000
   17.29083252   -1.00000000    0.00000000    0.00000000
   17.29500008   -1.00000000    0.00000000    0.00000000
   17.29888916   -1.00000000    0.00000000    0.00000000
   17.30277634   -1.00000000    0.00000000    0.00000000
   17.30666542   -1.00000000    0.00000000    0.00000000
   17.31055450   -1.00000000    0.00000000    0.00000000
   17.32222366   -1.00000000    0.00000000    0.00000000
   17.32611275   -1.00000000    0.00000000    0.00000000
   17.33000183   -1.00000000    0.00000000    0.00000000
   17.33388901   -1.00000000    0.00000000    0.00000000
   17.33777809   -1.00000000    0.00000000    0.00000000
   17.34166718   -1.00000000    0.00000000    0.00000000
   17.34555626   -1.00000000    0.00000000    0.00000000
   17.37361145   -1.00000000    0.00000000    0.00000000
   17.37750053   -1.00000000    0.00000000    0.00000000
   17.38138962   -1.00000000    0.00000000    0.00000000
   17.38527679   -1.00000000    0.00000000    0.00000000
   17.38916588   -1.00000000    0.00000000    0.00000000
   17.39305496   -1.00000000    0.00000000    0.00000000
   17.39694405   -1.00000000    0.00000000    0.00000000
   17.40111160   -1.00000000    0.00000000    0.00000000
   17.40499878   -1.00000000    0.00000000    0.00000000
   17.41638756   -1.00000000    0.00000000    0.00000000
   17.42027664   -1.00000000    0.00000000    0.00000000
   17.42416573   -1.00000000    0.00000000    0.00000000
   17.42805481   -1.00000000    0.00000000    0.00000000
   17.43194389   -1.00000000    0.00000000    0.00000000
   17.43610954   -1.00000000    0.00000000    0.00000000
   17.43999863   -1.00000000    0.00000000    0.00000000
   17.44388771   -1.00000000    0.00000000    0.00000000
   17.44777679   -1.00000000    0.00000000    0.00000000
   17.45472336   -1.00000000    0.00000000    0.00000000
   17.45944595   98.79239655    0.00000000    0.00000000
   17.46333504  100.60199738    0.00000000    0.00000000
   17.46666718   91.36430359    0.00000000    0.00000000
   17.46750069   93.88339996    0.00000000    0.00000000
   17.47138977  182.82299805    0.00000000    0.00000000
   17.47527885   96.34459686    0.00000000    0.00000000
   17.47888947  104.28600311    0.00000000    0.00000000
   17.48277855   97.36199951    0.00000000    0.00000000
   17.48666763   93.08640289    0.00000000    0.00000000
   17.49055672   95.19570160    0.00000000    0.00000000
   17.49749947   95.19570160    0.00000000    0.00000000
   17.50222206   96.12550354    0.00000000    0.00000000
   17.50611115   91.11229706    0.00000000    0.00000000
   17.51000023   91.58110046    0.00000000    0.00000000
   17.51388931   92.58959961    0.00000000    0.00000000
   17.51694489   93.09660339    1.19000006    2.84999990
   17.52027702   95.93710327    1.19000006    2.84999990
   17.52333260   95.40480042    1.19000006    2.84999990
   17.52666664  102.23300171    1.19000006    2.84999990
   17.53000069   99.30919647    1.19000006    2.84999990
   17.53277779  102.81400299    1.19000006    2.84999990
   17.53361130   96.66249847    1.19000006    2.84999990
   17.53972244   96.66249847    1.19000006    2.84999990
   17.54388809   98.00640106    1.16999996    2.84999990
   17.54722214  101.84100342    1.09000003    2.82999992
   17.55027771   94.95700073    1.07000005    2.82999992
   17.55360985   99.28199768    1.07000005    2.82999992
   17.55666542   97.54969788    1.09000003    2.84999990
   17.55999947  100.30599976    1.11000001    2.84999990
   17.56333351  101.09300232    1.11000001    2.84999990
   17.56611061   95.86160278    1.11000001    2.84999990
   17.56694603   97.71669769    1.11000001    2.84999990
   17.57000160  100.83699799    1.09000003    2.84999990
   17.57333374   95.33999634    1.09000003    2.84999990
   17.57666779   97.70629883    1.09000003    2.84999990
   17.58250046   97.70629883    1.09000003    2.84999990
   17.58666801   93.62139893    3.89000010    2.82999992
   17.59000015   96.08940125    1.11000001    2.82999992
   17.59305573   96.91739655    1.13000000    2.84999990
   17.59638977   91.37409973    1.13000000    2.84999990
   17.59944534   95.81300354    1.11000001    2.82999992
   17.60000038   94.41649628    1.11000001    2.82999992
   17.60305595   95.28430176    1.09000003    2.84999990
   17.60639000   95.70960236    1.09000003    2.86999989
   17.60972214   93.56490326    1.09000003    2.84999990
   17.61277771   94.32099915    1.14999998    2.82999992
   17.61611176   97.60980225    1.14999998    2.82999992
   17.61916733   95.50759888    1.16999996    2.82999992
   17.62527847   95.50759888    1.21000004    2.84999990
   17.62944412   93.25180054    1.19000006    2.82999992
   17.63277817   96.73670197    1.16999996    2.82999992
   17.63333321   99.62270355    1.16999996    2.82999992
   17.63638878   94.95529938    1.16999996    2.84999990
   17.63972282   94.45130157    1.14999998    2.84999990
   17.64277840   93.56130219    1.13000000    2.84999990
   17.64611053   91.63099670    1.13000000    2.84999990
   17.64944458   90.74839783    1.11000001    2.82999992
   17.65250015   95.07700348    1.13000000    2.84999990
   17.65583229   88.52259827    1.11000001    2.84999990
   17.65916634   89.20110321    1.11000001    2.82999992
   17.66222191   94.24410248    1.09000003    2.84999990
   17.66833305   94.24410248    1.05999994    2.84999990
   17.67249870   90.95850372    1.05999994    2.84999990
   17.67555428   89.98500061    1.03999996    2.84999990
   17.67888832   90.69020081    1.01999998    2.86999989
   17.68194389   90.85379791    1.01999998    2.86999989
   17.68527603   85.08190155    1.03999996    2.84999990
   17.68861008   89.84950256    1.01999998    2.84999990
   17.69888878   94.58989716    0.00000000    0.00000000
   17.70000076   90.03759766    0.00000000    0.00000000
   17.70361137   90.56900024    0.00000000    0.00000000
   17.70694542   91.67870331    1.01999998    2.84999990
   17.71111107   91.67870331    1.01999998    2.84999990
   17.71527863   94.04450226    1.01999998    2.84999990
   17.71888924   87.43499756    1.01999998    2.84999990
   17.72194481   89.85330200    1.01999998    2.84999990
   17.72527885   91.62560272    1.01999998    2.84999990
   17.72861099   86.17379761    1.01999998    2.84999990
   17.73166656   93.46070099    1.01999998    2.84999990
   17.73277855   97.97989655    1.01999998    2.84999990
   17.73527718   89.92079926    1.01999998    2.84999990
   17.73833275   94.87779999    1.01999998    2.82999992
   17.74166679   92.84400177    1.14999998    2.84999990
   17.74500084   94.02580261    1.14999998    2.84999990
   17.74805641   91.69660187    1.14999998    2.84999990
   17.75388908   91.69660187    1.14999998    2.86999989
   17.75805473   92.83139801    1.14999998    2.84999990
   17.76138878   89.43630219    1.14999998    2.84999990
   17.76444435   92.60659790    1.14999998    2.84999990
   17.76638794   89.01750183    1.14999998    2.84999990
   17.76805496   88.61299896    1.14999998    2.84999990
   17.77138901   94.08090210    1.14999998    2.84999990
   17.77472115   89.99349976    1.14999998    2.84999990
   17.77777672   95.82379913    1.14999998    2.84999990
   17.78111076   91.20850372    1.14999998    2.86999989
   17.78444481   92.36630249    4.90999985    2.89000010
   17.78750038   94.47209930    0.38000000    1.58000004
   17.79083252   92.11640167    0.09000000    0.44000000
   17.79666710   92.11640167    0.05000000    0.05000000
   17.80083275   92.05639648    0.05000000    0.05000000
   17.80416679   92.61900330    0.05000000    0.05000000
   17.80749893   89.98139954    0.05000000    0.05000000
   17.81055450   89.31150055    0.05000000    0.05000000
   17.81388855   90.42179871    0.05000000    0.05000000
   17.81694603   89.01940155    0.05000000    0.05000000
   17.82027817   89.43630219    0.05000000    0.05000000
   17.82361221   88.32330322    0.05000000    0.05000000
   17.82666779   89.02439880    0.05000000    0.05000000
   17.83000183   91.34220123    0.05000000    0.05000000
   17.83305550   91.53510284    0.05000000    0.05000000
   17.83333397   88.66149902    0.05000000    0.05000000
   17.83972359   88.66149902    0.05000000    0.05000000
   17.84361267   91.31929779    0.05000000    0.05000000
   17.84694481   89.42150116    0.05000000    0.05000000
   17.85027885   91.54450226    0.05000000    0.05000000
   17.85333443   91.20490265    0.05000000    0.05000000
   17.85666656   94.33439636    0.05000000    0.05000000
   17.86000061   92.93109894    0.05000000    0.05000000
   17.86305618   95.60639954    0.05000000    0.05000000
   17.86638832   94.41459656    0.05000000    0.05000000
   17.86666679   91.18240356    0.05000000    0.05000000
   17.87000084   95.10140228    0.05000000    0.05000000
   17.87333298   94.94860077    0.05000000    0.05000000
   17.87638855   94.66429901    0.05000000    0.05000000
   17.88249969   94.66429901    0.05000000    0.05000000
   17.88666725   90.59320068    0.05000000    0.05000000
   17.88972282   90.14369965    0.05000000    0.05000000
   17.89305496   92.20570374    0.05000000    0.05000000
   17.89638901   90.91230011    0.05000000    0.05000000
   17.89944458   90.77580261    0.05000000    0.05000000
   17.89999962   89.62670135    0.05000000    0.05000000
   17.90333366   93.95390320    0.05000000    0.05000000
   17.90638924   92.03340149    0.05000000    0.05000000
   17.90972137   90.94869995    0.05000000    0.05000000
   17.91277695   91.69039917    0.05000000    0.05000000
   17.91611099   90.75209808    0.05000000    0.05000000
   17.91944313   90.33560181    0.05000000    0.05000000
   17.92527771   90.33560181    0.05000000    0.05000000
   17.92944336   87.15750122    0.05000000    0.05000000
   17.93277740   89.40650177    0.05000000    0.05000000
   17.93333244   89.14260101    0.05000000    0.05000000
   17.93638802   92.00499725    0.05000000    0.05000000
   17.93944359   89.62979889    0.05000000    0.05000000
   17.94277763   89.95010376    0.05000000    0.05000000
   17.94583321   89.36949921    0.05000000    0.05000000
   17.94916534   99.02179718    0.05000000    0.05000000
   17.95250130   90.16809845    0.05000000    0.05000000
   17.95555687   91.21320343    0.05000000    0.05000000
   17.95888901   94.69049835    0.05000000    0.05000000
   17.96222305   91.88030243    0.05000000    0.05000000
   17.96805573   91.88030243    0.05000000    0.05000000
   17.97222328   94.34950256    0.05000000    0.05000000
   17.97555542   88.69599915    0.05000000    0.05000000
   17.97861099   86.01899719    0.05000000    0.05000000
   17.98888969   90.92030334    0.00000000    0.00000000
   17.99277878   93.55359650    0.00000000    0.00000000
   17.99666786   93.97480011    0.00000000    0.00000000
   18.00055504   89.85970306    0.00000000    0.00000000
   18.00444412   86.36699677    0.00000000    0.00000000
   18.00499916   90.33560181    0.00000000    0.00000000
   18.00861168   89.75409698    0.00000000    0.00000000
   18.01166725   89.05020142    0.05000000    0.05000000
   18.01666641   89.05020142    0.05000000    0.05000000
   18.02083397   89.67960358    0.05000000    0.05000000
   18.02416611   88.46160126    0.05000000    0.05000000
   18.02722168   87.72229767    0.05000000    0.05000000
   18.03055573   92.27780151    0.05000000    0.05000000
   18.03388786   91.07340240    0.05000000    0.05000000
   18.03694344   92.54519653    0.05000000    0.05000000
   18.03833199   91.25869751    0.05000000    0.05000000
   18.04055595   95.48950195    0.05000000    0.05000000
   18.04388809   91.08889771    0.05000000    0.05000000
   18.04722214   94.41179657    0.05000000    0.05000000
   18.05027771   91.86750031    0.05000000    0.05000000
   18.05360985   95.19550323    0.05000000    0.05000000
   18.05944443   95.19550323    0.05000000    0.05000000
   18.06361008   91.16380310    0.05000000    0.05000000
   18.06666756   89.76380157    0.05000000    0.05000000
   18.07000160   79.31269836    0.05000000    0.05000000
   18.07194519   94.78710175    0.05000000    0.05000000
   18.07361221   91.94039917    0.05000000    0.05000000
   18.07694626   89.18620300    0.05000000    0.05000000
   18.08027840   88.96050262    0.05000000    0.05000000
   18.08333397   92.75669861    0.05000000    0.05000000
   18.08666801   89.90450287    0.05000000    0.05000000
   18.08972359   91.74140167    0.05000000    0.05000000
   18.09305573   90.13700104    0.05000000    0.05000000
   18.09638977   88.81739807    0.05000000    0.05000000
   18.10222244   88.81739807    0.05000000    0.05000000
   18.10639000   94.95279694    0.05000000    0.05000000
   18.10972214   94.40010071    0.05000000    0.05000000
   18.11277771   94.99199677    0.05000000    0.05000000
   18.11611176   96.76329803    0.05000000    0.05000000
   18.11944389   87.66000366    0.05000000    0.05000000
   18.12249947   92.59670258    0.05000000    0.05000000
   18.12583351   96.32060242    0.05000000    0.05000000
   18.12888908   94.95819855    0.05000000    0.05000000
   18.13222313   95.62950134    0.05000000    0.05000000
   18.13555527   92.55429840    0.05000000    0.05000000
   18.13861084   97.35939789    0.05000000    0.05000000
   18.13888931   92.70610046    0.05000000    0.05000000
   18.14500046   92.70610046    0.05000000    0.05000000
   18.14916611   96.63089752    0.05000000    0.05000000
   18.15250015   92.16780090    0.05000000    0.05000000
   18.15583229   92.51159668    0.05000000    0.05000000
   18.15888786   93.19110107    0.05000000    0.05000000
   18.16222191   95.15170288    0.05000000    0.05000000
   18.16527748   97.21800232    0.05000000    0.05000000
   18.16860962   95.04620361    0.05000000    0.05000000
   18.17194366   97.37110138    0.05000000    0.05000000
   18.17222214   99.40959930    0.05000000    0.05000000
   18.17555428   95.42990112    0.05000000    0.05000000
   18.17888832   96.62799835    0.05000000    0.05000000
   18.18194389   91.27809906    0.05000000    0.05000000
   18.18805504   91.27809906    0.05000000    0.05000000
   18.19222069   90.73040009    0.05000000    0.05000000
   18.19527626   87.82969666    0.05000000    0.05000000
   18.19861031   93.47940063    0.05000000    0.05000000
   18.20166779   96.86900330    0.05000000    0.05000000
   18.20499992   87.08380127    0.05000000    0.05000000
   18.20555687   88.50389862    0.05000000    0.05000000
   18.20861244   91.75479889    0.05000000    0.05000000
   18.21194458   95.91210175    0.05000000    0.05000000
   18.21527863   90.30819702    0.05000000    0.05000000
   18.21833420   93.23600006    0.05000000    0.05000000
   18.22166634   98.82630157    0.05000000    0.05000000
   18.22500038   91.48930359    0.05000000    0.05000000
   18.23083305   91.48930359    0.05000000    0.05000000
   18.23500061   95.71029663    0.05000000    0.05000000
   18.23805618   87.11119843    0.05000000    0.05000000
   18.23888969   94.20870209    0.05000000    0.05000000
   18.24166679   89.50890350    0.05000000    0.05000000
   18.24500084   94.39129639    0.05000000    0.05000000
   18.24833298   92.47769928    0.05000000    0.05000000
   18.25138855   92.82029724    0.05000000    0.05000000
   18.25472260   87.65000153    0.05000000    0.05000000
   18.25805473   92.42500305    0.05000000    0.05000000
   18.26111031   90.17009735    0.05000000    0.05000000
   18.26444435   89.88649750    0.05000000    0.05000000
   18.26749992   90.84329987    0.05000000    0.05000000
   18.27361107   90.84329987    0.05000000    0.05000000
   18.27777672   98.80760193    0.05000000    0.05000000
   18.28111076   91.69650269    0.05000000    0.05000000
   18.28416634   92.95919800    0.05000000    0.05000000
   18.28750038   93.05629730    0.05000000    0.05000000
   18.29083252   91.23120117    0.05000000    0.05000000
   18.29388809   95.80580139    0.05000000    0.05000000
   18.29722214   94.06900024    0.05000000    0.05000000
   18.30027771   92.70970154    0.05000000    0.05000000
   18.30360985   96.17929840    0.05000000    0.05000000
   18.30555534   97.33249664    0.05000000    0.05000000
   18.30722237   89.98880005    0.05000000    0.05000000
   18.31055450   92.26349640    0.05000000    0.05000000
   18.31638718   92.26349640    0.05000000    0.05000000
   18.32055664   91.86849976    0.05000000    0.05000000
   18.32389069   89.97640228    0.05000000    0.05000000
   18.32722282   99.28929901    0.05000000    0.05000000
   18.33027840   93.51770020    0.05000000    0.05000000
   18.33361244   97.01999664    0.05000000    0.05000000
   18.33666801  107.61199951    0.05000000    0.05000000
   18.33889008  100.73999786    0.05000000    0.05000000
   18.34027863  101.69000244    0.05000000    0.05000000
   18.34361267  101.96099854    0.05000000    0.05000000
   18.34694481   96.81999969    0.05000000    0.05000000
   18.35000038   99.24279785    0.05000000    0.05000000
   18.35333443   94.54730225    0.05000000    0.05000000
   18.35944557   94.54730225    0.05000000    0.05000000
   18.36333466  100.20999908    0.05000000    0.05000000
   18.36666679   90.20059967    0.05000000    0.05000000
   18.37000084   90.81900024    0.05000000    0.05000000
   18.38833237   94.40170288    0.05000000    0.05000000
   18.38972282   96.39109802    0.05000000    0.05000000
   18.39305496  101.94599915    0.05000000    0.05000000
   18.39611053   96.24160004    0.05000000    0.05000000
   18.40250015   96.24160004    0.05000000    0.05000000
   18.40666580   93.06890106    0.05000000    0.05000000
   18.40972137   93.34870148    0.05000000    0.05000000
   18.41305542   96.07450104    0.05000000    0.05000000
   18.41638756   91.86779785    0.05000000    0.05000000
   18.41944313   97.75180054    0.05000000    0.05000000
   18.42166519   94.13200378    0.05000000    0.05000000
   18.42305565   95.33229828    0.05000000    0.05000000
   18.42611122   97.47930145    0.05000000    0.05000000
   18.42944336   95.22160339    0.05000000    0.05000000
   18.43277740   89.42729950    0.05000000    0.05000000
   18.43583298   95.30819702    0.05000000    0.05000000
   18.43916512   95.60659790    0.05000000    0.05000000
   18.44527626   95.60659790    0.05000000    0.05000000
   18.44944382   72.98619843    0.05000000    0.05000000
   18.45277786   99.40519714    0.05000000    0.05000000
   18.45499992   87.38320160    0.05000000    0.05000000
   18.45639038   95.75550079    0.05000000    0.05000000
   18.45944595  100.06900024    0.05000000    0.05000000
   18.46277809   94.81569672    0.05000000    0.05000000
   18.46611214   97.18789673    0.05000000    0.05000000
   18.46916771   94.99620056    0.05000000    0.05000000
   18.47249985   95.62400055    0.05000000    0.05000000
   18.47583389  101.13300323    0.05000000    0.05000000
   18.47888947   98.79440308    0.05000000    0.05000000
   18.48222351   91.12899780    0.05000000    0.05000000
   18.48805618   91.12899780    0.05000000    0.05000000
   18.49222183   90.42530060    0.05000000    0.05000000
   18.49555588   88.49839783    0.05000000    0.05000000
   18.49861145   91.35610199    0.05000000    0.05000000
   18.50194359   94.63330078    0.05000000    0.05000000
   18.50527763   93.07869720    0.05000000    0.05000000
   18.50833321   96.27390289    0.05000000    0.05000000
   18.51166725   90.29329681    0.05000000    0.05000000
   18.51499939   96.80609894    0.05000000    0.05000000
   18.51805496   91.38230133    0.05000000    0.05000000
   18.52138901   93.30940247    0.05000000    0.05000000
   18.52305603   94.53900146    0.05000000    0.05000000
   18.52499962   96.52760315    0.05000000    0.05000000
   18.53083229   96.52760315    0.05000000    0.05000000
   18.53499985  192.43499756    0.05000000    0.05000000
   18.53833199  103.81800079    0.05000000    0.05000000
   18.54166603  100.28600311    0.05000000    0.05000000
   18.54472160   93.68450165    0.05000000    0.05000000
   18.54805565   99.50900269    0.05000000    0.05000000
   18.55138779   95.47160339    0.05000000    0.05000000
   18.55444336   98.38369751    0.05000000    0.05000000
   18.55666542   90.01419830    0.05000000    0.05000000
   18.55805397   89.86319733    0.05000000    0.05000000
   18.56138802   89.36440277    0.05000000    0.05000000
   18.56472206   95.58270264    0.05000000    0.05000000
   18.56777954   92.21230316    0.05000000    0.05000000
   18.57389069   92.21230316    0.05000000    0.05000000
   18.57805634   90.19429779    0.05000000    0.05000000
   18.58111191   96.02390289    0.05000000    0.05000000
   18.58444595   93.21459961    0.05000000    0.05000000
   18.58777809   92.73590088    0.05000000    0.05000000
   18.59000015   99.83999634    0.05000000    0.05000000
   18.59138870   93.20709991    0.05000000    0.05000000
   18.59444427   94.87999725    0.05000000    0.05000000
   18.59777832   92.87210083    0.05000000    0.05000000
   18.60111237   95.19709778    0.05000000    0.05000000
   18.60416794  101.28099823    0.05000000    0.05000000
   18.60750008  105.70400238    0.05000000    0.05000000
   18.61055565  106.66400146    0.05000000    0.05000000
   18.61666679  106.66400146    0.05000000    0.05000000
   18.62083435  102.42700195    0.05000000    0.05000000
   18.62333298  107.61499786    0.05000000    0.05000000
   18.62444496   98.03549957    0.05000000    0.05000000
   18.62777710  102.99600220    0.05000000    0.05000000
   18.63083267   90.78589630    0.05000000    0.05000000
   18.63416672   96.63289642    0.05000000    0.05000000
   18.63722229  111.33499908    0.05000000    0.05000000
   18.64055634  110.51599884    0.05000000    0.05000000
   18.64388847   96.33070374    0.05000000    0.05000000
   18.64694405  103.44499969    0.05000000    0.05000000
   18.65027809  104.79299927    0.05000000    0.05000000
   18.65361023  108.70899963    0.05000000    0.05000000
   18.65972137  108.70899963    0.05000000    0.05000000
   18.66361046  102.57399750    0.05000000    0.05000000
   18.66694450   96.45850372    0.05000000    0.05000000
   18.67027664  109.53500366    0.05000000    0.05000000
   18.67333221  106.66300201    0.05000000    0.05000000
   18.67666626  115.59899902    0.05000000    0.05000000
   18.68000031  114.71600342    0.05000000    0.05000000
   18.68305397   97.60880280    0.05000000    0.05000000
   18.68638802  102.33799744    0.05000000    0.05000000
   18.68944359  102.59899902    0.05000000    0.05000000
   18.69055557  109.47299957    0.05000000    0.05000000
   18.69305420  115.46700287    0.05000000    0.05000000
   18.69638824   99.49289703    0.05000000    0.05000000
   18.70250130   99.49289703    0.05000000    0.05000000
   18.70666695  105.05500031    0.05000000    0.05000000
   18.70972252  104.04799652    0.05000000    0.05000000
   18.71305656  107.07099915    0.05000000    0.05000000
   18.71611214  109.94000244    0.05000000    0.05000000
   18.71944427  101.15799713    0.05000000    0.05000000
   18.72277832  115.25700378    0.05000000    0.05000000
   18.72389030  102.96399689    0.05000000    0.05000000
   18.72611237  104.97399902    0.05000000    0.05000000
   18.72944450  120.42800140    0.05000000    0.05000000
   18.73277855  108.10800171    0.05000000    0.05000000
   18.73583412  107.22200012    0.05000000    0.05000000
   18.73916626  109.84400177    0.05000000    0.05000000
   18.74527740  109.84400177    0.05000000    0.05000000
   18.74944496  104.13099670    0.05000000    0.05000000
   18.75250053  101.12400055    0.05000000    0.05000000
   18.75583267   99.36660004    0.05000000    0.05000000
   18.75722313   95.67710114    0.05000000    0.05000000
   18.75944519  101.44300079    0.05000000    0.05000000
   18.76277733  103.37500000    0.05000000    0.05000000
   18.76583290  101.56700134    0.05000000    0.05000000
   18.76916695  100.19100189    0.05000000    0.05000000
   18.77249908  107.52700043    0.05000000    0.05000000
   18.77555466  112.63899994    0.05000000    0.05000000
   18.77888870   97.43019867    0.05000000    0.05000000
   18.78194427   94.10109711    0.05000000    0.05000000
   18.78805542   94.10109711    0.05000000    0.05000000
   18.79222107   98.30580139    0.05000000    0.05000000
   18.79555511   98.25789642    0.05000000    0.05000000
   18.79861069   95.41950226    0.05000000    0.05000000
   18.80194283   94.21289825    0.05000000    0.05000000
   18.80527687  106.56500244    0.05000000    0.05000000
   18.80833244   96.94940186    0.05000000    0.05000000
   18.81166649   93.75720215    0.05000000    0.05000000
   18.81499863  100.76999664    0.05000000    0.05000000
   18.81805611   98.12650299    0.05000000    0.05000000
   18.82139015   96.94499969    0.05000000    0.05000000
   18.82416725  100.66400146    0.05000000    0.05000000
   18.82500076  108.06300354    0.05000000    0.05000000
   18.83083344  108.06300354    0.05000000    0.05000000
   18.83500099  107.89499664    0.05000000    0.05000000
   18.83833313   97.25669861    0.05000000    0.05000000
   18.84166718  105.23100281    0.05000000    0.05000000
   18.84472275   99.03469849    0.05000000    0.05000000
   18.84805679  107.43299866    0.05000000    0.05000000
   18.85111237  101.79799652    0.05000000    0.05000000
   18.85444450  101.38300323    0.05000000    0.05000000
   18.85750008   98.97779846    0.05000000    0.05000000
   18.85805511   96.84429932    0.05000000    0.05000000
   18.86138916   92.88279724    0.05000000    0.05000000
   18.86444473   94.31359863    0.05000000    0.05000000
   18.86777878  104.08200073    0.05000000    0.05000000
   18.87361145  104.08200073    0.05000000    0.05000000
   18.87777710   98.04290009    0.05000000    0.05000000
   18.88111115  110.44300079    0.05000000    0.05000000
   18.88444519   92.57180023    0.05000000    0.05000000
   18.88750076   98.35900116    0.05000000    0.05000000
   18.89055634   99.76540375    0.05000000    0.05000000
   18.89111137   98.44619751    0.05000000    0.05000000
   18.89444351   99.81880188    0.05000000    0.05000000
   18.89749908   97.96060181    0.05000000    0.05000000
   18.90083313  107.77300262    0.05000000    0.05000000
   18.90416718  101.45800018    0.05000000    0.05000000
   18.90722275  103.09999847    0.05000000    0.05000000
   18.91055489  118.33100128    0.05000000    0.05000000
   18.91666603  118.33100128    0.05000000    0.05000000
   18.92083359  102.99500275    0.05000000    0.05000000
   18.92388916   98.01480103    0.05000000    0.05000000
   18.92444420  104.61100006    0.05000000    0.05000000
   18.92777634   99.58640289    0.05000000    0.05000000
   18.93083191  100.77899933    0.05000000    0.05000000
   18.93416595  101.15100098    0.05000000    0.05000000
   18.93750000  101.59200287    0.05000000    0.05000000
   18.94055557   84.39959717    0.05000000    0.05000000
   18.94388771   99.06169891    0.05000000    0.05000000
   18.94722176  100.08300018    0.05000000    0.05000000
   18.95027924   96.00119781    0.05000000    0.05000000
   18.95361137   98.34739685    0.05000000    0.05000000
   18.95944595   98.34739685    0.05000000    0.05000000
   18.96361160  108.77100372    0.05000000    0.05000000
   18.96694565   97.18139648    0.05000000    0.05000000
   18.97000122  102.04599762    0.05000000    0.05000000
   18.97333336  106.05699921    0.05000000    0.05000000
   18.97666740  101.54499817    0.05000000    0.05000000
   18.97972298  105.30500031    0.05000000    0.05000000
   18.98305511  105.11900330    0.05000000    0.05000000
   18.98611069  101.12899780    0.05000000    0.05000000
   18.98944473  101.19799805    0.05000000    0.05000000
   18.99083328   97.17479706    0.05000000    0.05000000
   18.99305534   99.18560028    0.05000000    0.05000000
   18.99638939   95.04049683    0.05000000    0.05000000
   19.00222206   95.04049683    0.05000000    0.05000000
   19.00638962  102.99700165    0.05000000    0.05000000
   19.00972176   98.76599884    0.05000000    0.05000000
   19.01305580  101.18099976    0.05000000    0.05000000
   19.01611137   99.94059753    0.05000000    0.05000000
   19.01944351  104.52999878    0.05000000    0.05000000
   19.02249908   96.61550140    0.05000000    0.05000000
   19.02416611   97.68969727    0.05000000    0.05000000
   19.02611160  105.47599792    0.05000000    0.05000000
   19.02944374  106.82900238    0.05000000    0.05000000
   19.03277779  102.82700348    0.05000000    0.05000000
   19.03583336  104.98100281    0.05000000    0.05000000
   19.03916550   98.79239655    0.05000000    0.05000000
   19.04527664   98.79239655    0.05000000    0.05000000
   19.04916573  101.37500000    0.05000000    0.05000000
   19.05249977   97.85600281    0.05000000    0.05000000
   19.05583191   99.58070374    0.05000000    0.05000000
   19.05749893  102.94599915    0.05000000    0.05000000
   19.05944443   98.43759918    0.05000000    0.05000000
   19.06277657   96.01529694    0.05000000    0.05000000
   19.06583214   98.17569733    0.05000000    0.05000000
   19.06916809   95.21749878    0.05000000    0.05000000
   19.07222366  102.53500366    0.05000000    0.05000000
   19.07555580   97.22299957    0.05000000    0.05000000
   19.07888985   95.32620239    0.05000000    0.05000000
   19.08194542  101.06700134    0.05000000    0.05000000
   19.08805656  101.06700134    0.05000000    0.05000000
   19.09222221  101.12999725    0.05000000    0.05000000
   19.09527779   96.65260315    0.05000000    0.05000000
   19.09861183   96.49990082    0.05000000    0.05000000
   19.10194397   97.58540344    0.05000000    0.05000000
   19.10499954   96.11630249    0.05000000    0.05000000
   19.10833359  105.24500275    0.05000000    0.05000000
   19.11138916   93.78780365    0.05000000    0.05000000
   19.11472321   97.26090240    0.05000000    0.05000000
   19.11805534   97.61409760    0.05000000    0.05000000
   19.12111092  101.01899719    0.05000000    0.05000000
   19.12416649   95.78309631    0.05000000    0.05000000
   19.12472153   91.03450012    0.05000000    0.05000000
   19.13083267   91.03450012    0.05000000    0.05000000
   19.13500023  103.62400055    0.05000000    0.05000000
   19.13833237  109.21399689    0.05000000    0.05000000
   19.14138794  100.52500153    0.05000000    0.05000000
   19.14472198   95.88159943    0.05000000    0.05000000
   19.14777756  102.04399872    0.05000000    0.05000000
   19.15111160  101.23500061    0.05000000    0.05000000
   19.15444374   99.21459961    0.05000000    0.05000000
   19.15749931  104.18000031    0.05000000    0.05000000
   19.15805435  101.54499817    0.05000000    0.05000000
   19.16138840  106.72899628    0.05000000    0.05000000
   19.16444397   93.15489960    0.05000000    0.05000000
   19.16777802  103.45800018    0.05000000    0.05000000
   19.17361069  103.45800018    0.05000000    0.05000000
   19.17777634   95.94129944    0.05000000    0.05000000
   19.18111038  102.24500275    0.05000000    0.05000000
   19.18416595   97.08180237    0.05000000    0.05000000
   19.18750000  101.54399872    0.05000000    0.05000000
   19.19083214  100.33699799    0.05000000    0.05000000
   19.19111061  108.55400085    0.05000000    0.05000000
   19.19444275   99.53579712    0.05000000    0.05000000
   19.19777679   97.24069977    0.05000000    0.05000000
   19.20083427   98.87850189    0.05000000    0.05000000
   19.20416832   98.70950317    0.05000000    0.05000000
   19.20750046   99.00379944    0.05000000    0.05000000
   19.21055603  100.37000275    0.05000000    0.05000000
   19.21666718  100.37000275    0.05000000    0.05000000
   19.22055626  100.76100159    0.05000000    0.05000000
   19.22389030   96.48169708    0.05000000    0.05000000
   19.22472191   99.87220001    0.05000000    0.05000000
   19.22750092   99.84200287    0.05000000    0.05000000
   19.23083305   93.65989685    0.05000000    0.05000000
   19.23388863   99.15979767    0.05000000    0.05000000
   19.23722267  100.06500244    0.05000000    0.05000000
   19.24055672   97.87719727    0.05000000    0.05000000
   19.24361229  104.41899872    0.05000000    0.05000000
   19.24694443   99.39569855    0.05000000    0.05000000
   19.25027847  102.69699860    0.05000000    0.05000000
   19.25333405   98.07479858    0.05000000    0.05000000
   19.25944519   98.07479858    0.05000000    0.05000000
   19.26361084  101.83399963    0.05000000    0.05000000
   19.26666641   97.90309906    0.05000000    0.05000000
   19.27000046   95.59480286    0.05000000    0.05000000
   19.27333260   99.70659637    0.05000000    0.05000000
   19.27638817   98.25250244    0.05000000    0.05000000
   19.27972221   94.01830292    0.05000000    0.05000000
   19.28277779   94.85330200    0.05000000    0.05000000
   19.28610992   96.78720093    0.05000000    0.05000000
   19.28944397   95.25869751    0.05000000    0.05000000
   19.29111099   93.04830170    0.05000000    0.05000000
   19.29305458   97.64240265    0.05000000    0.05000000
   19.29638863   99.46150208    0.05000000    0.05000000
   19.30222130   99.46150208    0.05000000    0.05000000
   19.30638885  100.09999847    0.05000000    0.05000000
   19.30944443   98.17389679    0.05000000    0.05000000
   19.31277657   97.50279999    0.05000000    0.05000000
   19.31611061   99.39230347    0.05000000    0.05000000
   19.31916809  100.99500275    0.05000000    0.05000000
   19.32250023  101.46199799    0.05000000    0.05000000
   19.32444572   96.53179932    0.05000000    0.05000000
   19.32611275   91.95770264    0.05000000    0.05000000
   19.32944489   91.47119904    0.05000000    0.05000000
   19.33250046   99.64830017    0.05000000    0.05000000
   19.33583450   96.98699951    0.05000000    0.05000000
   19.33916664   94.86599731    0.05000000    0.05000000
   19.34500122   94.86599731    0.05000000    0.05000000
   19.34916687  100.00399780    0.05000000    0.05000000
   19.35250092   98.71240234    0.05000000    0.05000000
   19.35555649   91.90589905    0.05000000    0.05000000
   19.35777855  103.01799774    0.05000000    0.05000000
   19.35916710   95.07060242    0.05000000    0.05000000
   19.36250114  102.27700043    0.05000000    0.05000000
   19.36555672   96.34680176    0.05000000    0.05000000
   19.36888885  101.79199982    0.05000000    0.05000000
   19.37222290   97.67469788    0.05000000    0.05000000
   19.37527847   98.41349792    0.05000000    0.05000000
   19.37861061   97.59439850    0.05000000    0.05000000
   19.38166618   98.56479645    0.05000000    0.05000000
   19.38777733   98.56479645    0.05000000    0.05000000
   19.40638924  104.29399872    0.05000000    0.05000000
   19.40944481   95.98629761    0.05000000    0.05000000
   19.41277695  101.93199921    0.05000000    0.05000000
   19.41611099  102.83100128    0.05000000    0.05000000
   19.41916656  104.23300171    0.05000000    0.05000000
   19.42249870  104.50000000    0.05000000    0.05000000
   19.42555428   97.90789795    0.05000000    0.05000000
   19.43083191   97.90789795    0.05000000    0.05000000
   19.43499947  100.45700073    0.05000000    0.05000000
   19.43833160  100.81400299    0.05000000    0.05000000
   19.43916512  103.00399780    0.05000000    0.05000000
   19.44194412  103.45999908    0.05000000    0.05000000
   19.44527626  100.01599884    0.05000000    0.05000000
   19.44833183  102.81700134    0.05000000    0.05000000
   19.45166779  100.05300140    0.05000000    0.05000000
   19.45499992   99.70690155    0.05000000    0.05000000
   19.45805550  104.36000061    0.05000000    0.05000000
   19.46138954  107.81700134    0.05000000    0.05000000
   19.46472359   98.52420044    0.05000000    0.05000000
   19.46777916  100.04199982    0.05000000    0.05000000
   19.47389030  100.04199982    0.05000000    0.05000000
   19.47805595  102.73300171    0.05000000    0.05000000
   19.48111153  102.35099792    0.05000000    0.05000000
   19.48444557   93.41159821    0.05000000    0.05000000
   19.48777771   99.66139984    0.05000000    0.05000000
   19.49111176   99.41899872    0.05000000    0.05000000
   19.49416733  104.13500214    0.05000000    0.05000000
   19.49749947   98.01119995    0.05000000    0.05000000
   19.50055504   96.13980103    0.05000000    0.05000000
   19.50388908  101.36499786    0.05000000    0.05000000
   19.50611115   93.27780151    0.05000000    0.05000000
   19.50749969   97.13670349    0.05000000    0.05000000
   19.51083374   91.39530182    0.05000000    0.05000000
   19.51666641   91.39530182    0.05000000    0.05000000
   19.52083397  100.55500031    0.05000000    0.05000000
   19.52416611   99.36180115    0.05000000    0.05000000
   19.52722168  101.62300110    0.05000000    0.05000000
   19.53055573  101.03900146    0.05000000    0.05000000
   19.53361130  105.36900330    0.05000000    0.05000000
   19.53694344  110.12599945    0.05000000    0.05000000
   19.53944397  102.05999756    0.05000000    0.05000000
   19.54055595  109.35299683    0.05000000    0.05000000
   19.54388809  101.91500092    0.05000000    0.05000000
   19.54694366   99.82700348    0.05000000    0.05000000
   19.55027771  103.07099915    0.05000000    0.05000000
   19.55360985  100.01499939    0.05000000    0.05000000
   19.55944443  100.01499939    0.05000000    0.05000000
   19.56361008  102.78900146    0.05000000    0.05000000
   19.56694603  102.21600342    0.05000000    0.05000000
   19.57000160   95.08760071    0.05000000    0.05000000
   19.57277870   96.56220245    0.05000000    0.05000000
   19.57361221  105.73000336    0.05000000    0.05000000
   19.57694626   95.08599854    0.05000000    0.05000000
   19.58027840   96.80249786    0.05000000    0.05000000
   19.58333397   96.36360168    0.05000000    0.05000000
   19.58666801   98.89050293    0.05000000    0.05000000
   19.59000015   94.97930145    0.05000000    0.05000000
   19.59305573  106.62699890    0.05000000    0.05000000
   19.59638977  100.29599762    0.05000000    0.05000000
   19.60222244  100.29599762    0.05000000    0.05000000
   19.60639000  100.53800201    0.05000000    0.05000000
   19.60972214   97.55870056    0.05000000    0.05000000
   19.61277771   99.09510040    0.05000000    0.05000000
   19.61611176   96.44349670    0.05000000    0.05000000
   19.61944389   93.67449951    0.05000000    0.05000000
   19.62249947   96.85289764    0.05000000    0.05000000
   19.62583351   95.89510345    0.05000000    0.05000000
   19.62916756   99.98979950    0.05000000    0.05000000
   19.63222313   99.33119965    0.05000000    0.05000000
   19.63555527  100.30899811    0.05000000    0.05000000
   19.63861084   90.66429901    0.05000000    0.05000000
   19.63944435   99.36679840    0.05000000    0.05000000
   19.64527702   99.36679840    0.05000000    0.05000000
   19.64944458   96.62010193    0.05000000    0.05000000
   19.65250015   98.78440094    0.05000000    0.05000000
   19.65583229   97.08170319    0.05000000    0.05000000
   19.65888786   97.09040070    0.05000000    0.05000000
   19.66222191   97.55919647    0.05000000    0.05000000
   19.66555595  100.37799835    0.05000000    0.05000000
   19.66860962  104.40799713    0.05000000    0.05000000
   19.67194366   98.23210144    0.05000000    0.05000000
   19.67277718  102.80300140    0.05000000    0.05000000
   19.67555428   94.37969971    0.05000000    0.05000000
   19.67888832  100.38300323    0.05000000    0.05000000
   19.68194389   96.21759796    0.05000000    0.05000000
   19.68805504   96.21759796    0.05000000    0.05000000
   19.69222069   93.51360321    0.05000000    0.05000000
   19.69527626  103.35299683    0.05000000    0.05000000
   19.69861031  104.94799805    0.05000000    0.05000000
   19.70194435   99.77799988    0.05000000    0.05000000
   19.70499992   97.60070038    0.05000000    0.05000000
   19.70611191  101.36199951    0.05000000    0.05000000
   19.70861244   96.69860077    0.05000000    0.05000000
   19.71194458   94.82440186    0.05000000    0.05000000
   19.71527863   94.58360291    0.05000000    0.05000000
   19.71833420   96.05269623    0.05000000    0.05000000
   19.72166634   95.88700104    0.05000000    0.05000000
   19.72500038   92.50550079    0.05000000    0.05000000
   19.73083305   92.50550079    0.05000000    0.05000000
   19.73500061   97.83650208    0.05000000    0.05000000
   19.73833275   93.42690277    0.05000000    0.05000000
   19.73944473   93.37149811    0.05000000    0.05000000
   19.74166679   92.74069977    0.05000000    0.05000000
   19.74500084   88.14630127    0.05000000    0.05000000
   19.74833298   94.99179840    0.05000000    0.05000000
   19.75138855   94.58730316    0.05000000    0.05000000
   19.75472260   93.36730194    0.05000000    0.05000000
   19.75777817   88.90720367    0.05000000    0.05000000
   19.76111031   99.30639648    0.05000000    0.05000000
   19.76444435  101.58399963    0.05000000    0.05000000
   19.76749992   97.46900177    0.05000000    0.05000000
   19.77361107   97.46900177    0.05000000    0.05000000
   19.77777672   96.79149628    0.05000000    0.05000000
   19.78111076   95.18270111    0.05000000    0.05000000
   19.78416634   96.84269714    0.05000000    0.05000000
   19.78750038  100.19499969    0.05000000    0.05000000
   19.79083252  102.48400116    0.05000000    0.05000000
   19.79388809   90.58730316    0.05000000    0.05000000
   19.79722214   98.03079987    0.05000000    0.05000000
   19.80055428   92.26249695    0.05000000    0.05000000
   19.80360985   90.88929749    0.05000000    0.05000000
   19.80611038   95.33589935    0.05000000    0.05000000
   19.80722237  102.05500031    0.05000000    0.05000000
   19.81055450   91.94840240    0.05000000    0.05000000
   19.81666756   91.94840240    0.05000000    0.05000000
   19.82055664   96.27390289    0.05000000    0.05000000
   19.82389069   93.63510132    0.05000000    0.05000000
   19.82722282   94.37079620    0.05000000    0.05000000
   19.83027840  101.18900299    0.05000000    0.05000000
   19.83361244   96.54090118    0.05000000    0.05000000
   19.83694458   93.00689697    0.05000000    0.05000000
   19.83944511   92.87460327    0.05000000    0.05000000
   19.84027863   99.56529999    0.05000000    0.05000000
   19.84361267   92.24810028    0.05000000    0.05000000
   19.84694481  102.15200043    0.05000000    0.05000000
   19.85000038   92.90290070    0.05000000    0.05000000
   19.85333443   96.95099640    0.05000000    0.05000000
   19.85944557   96.95099640    0.05000000    0.05000000
   19.86361122  101.08699799    0.05000000    0.05000000
   19.86666679  104.76699829    0.05000000    0.05000000
   19.87000084   95.91649628    0.05000000    0.05000000
   19.87277794   91.72750092    0.05000000    0.05000000
   19.87361145   91.33699799    0.05000000    0.05000000
   19.87694550   98.17209625    0.05000000    0.05000000
   19.88027763   95.32189941    0.05000000    0.05000000
   19.88333321   91.09639740    0.05000000    0.05000000
   19.88666725   92.79319763    0.05000000    0.05000000
   19.88972282   93.42320251    0.05000000    0.05000000
   19.89305496   95.55069733    0.05000000    0.05000000
   19.89638901  104.76599884    0.05000000    0.05000000
   19.90222168  104.76599884    0.05000000    0.05000000
   19.90638924   93.95390320    0.05000000    0.05000000
   19.90972137   96.06310272    0.05000000    0.05000000
   19.91277695   85.71070099    0.05000000    0.05000000
   19.91611099   92.10780334    0.05000000    0.05000000
   19.91916656   93.92099762    0.05000000    0.05000000
   19.92249870   88.52390289    0.05000000    0.05000000
   19.92583275   93.12000275    0.05000000    0.05000000
   19.92888832   97.50170135    0.05000000    0.05000000
   19.93222237   87.40540314    0.05000000    0.05000000
   19.93555450   96.51979828    0.05000000    0.05000000
   19.93861008   92.48789978    0.05000000    0.05000000
   19.93944359   86.22820282    0.05000000    0.05000000
   19.94499969   86.22820282    0.05000000    0.05000000
   19.94916534   99.63200378    0.05000000    0.05000000
   19.95250130   94.16909790    0.05000000    0.05000000
   19.95583344   93.62470245    0.05000000    0.05000000
   19.95888901  100.80599976    0.05000000    0.05000000
   19.96222305   99.76190186    0.05000000    0.05000000
   19.96527863  106.75000000    0.05000000    0.05000000
   19.96861076  106.88400269    0.05000000    0.05000000
   19.97194481  106.80500031    0.05000000    0.05000000
   19.97277832  102.65799713    0.05000000    0.05000000
   19.97527885  103.84400177    0.05000000    0.05000000
   19.97861099   97.59809875    0.05000000    0.05000000
   19.98194504   98.66680145    0.05000000    0.05000000
   19.98805618   98.66680145    0.05000000    0.05000000
   19.99222183  103.39199829    0.05000000    0.05000000
   19.99527740   99.04709625    0.05000000    0.05000000
   19.99861145  100.39900208    0.05000000    0.05000000
   20.00166702   91.75569916    0.05000000    0.05000000
   20.00499916  100.53299713    0.05000000    0.05000000
   20.00611115   89.13670349    0.05000000    0.05000000
   20.00861168   94.97180176    0.05000000    0.05000000
   20.01166725   97.01999664    0.05000000    0.05000000
   20.01499939  100.95600128    0.05000000    0.05000000
   20.01805496   90.53759766    0.05000000    0.05000000
   20.02138901   96.42630005    0.05000000    0.05000000
   20.02472115   94.64739990    0.05000000    0.05000000
   20.03083229   94.64739990    0.05000000    0.05000000
   20.03499985   97.64720154    0.05000000    0.05000000
   20.03805542   96.38980103    0.05000000    0.05000000
   20.03944397   98.15959930    0.05000000    0.05000000
   20.04166603  100.63500214    0.05000000    0.05000000
   20.04500008   97.31420135    0.05000000    0.05000000
   20.04833221   94.18710327    0.05000000    0.05000000
   20.05138779   87.34329987    0.05000000    0.05000000
   20.05472183   90.97149658    0.05000000    0.05000000
   20.05805397   95.99230194    0.05000000    0.05000000
   20.06110954   91.07749939    0.05000000    0.05000000
   20.06444359   88.77850342    0.05000000    0.05000000
   20.06750107   85.69460297    0.05000000    0.05000000
   20.07361221   85.69460297    0.05000000    0.05000000
   20.07777786  100.27799988    0.05000000    0.05000000
   20.08111191   97.94059753    0.05000000    0.05000000
   20.08416748   91.13379669    0.05000000    0.05000000
   20.08750153   95.61699677    0.05000000    0.05000000
   20.09055710   94.93679810    0.05000000    0.05000000
   20.09388924   98.85459900    0.05000000    0.05000000
   20.09722328  100.14099884    0.05000000    0.05000000
   20.10027885  100.97799683    0.05000000    0.05000000
   20.10361099   91.46929932    0.05000000    0.05000000
   20.10611153  107.47299957    0.05000000    0.05000000
   20.10694504  111.65299988    0.05000000    0.05000000
   20.11027908  106.82299805    0.05000000    0.05000000
   20.11638832  106.82299805    0.05000000    0.05000000
   20.12055588   91.22149658    0.05000000    0.05000000
   20.12388992   93.19110107    0.05000000    0.05000000
   20.12722206   97.10720062    0.05000000    0.05000000
   20.13027763   96.85240173    0.05000000    0.05000000
   20.13361168   98.81210327    0.05000000    0.05000000
   20.13666725   95.61740112    0.05000000    0.05000000
   20.13944435  101.31800079    0.05000000    0.05000000
   20.14055634   97.55059814    0.05000000    0.05000000
   20.14361191  101.48200226    0.05000000    0.05000000
   20.14694405  100.41799927    0.05000000    0.05000000
   20.14999962  106.07900238    0.05000000    0.05000000
   20.15333366   91.47640228    0.05000000    0.05000000
   20.15944481   91.47640228    0.05000000    0.05000000
   20.16361046   93.93939972    0.05000000    0.05000000
   20.16666603  106.68199921    0.05000000    0.05000000
   20.17000008  100.67500305    0.05000000    0.05000000
   20.17277718  103.62400055    0.05000000    0.05000000
   20.17361069  101.41400146    0.05000000    0.05000000
   20.17666626   93.25129700    0.05000000    0.05000000
   20.18000031  106.66500092    0.05000000    0.05000000
   20.18305397   97.62650299    0.05000000    0.05000000
   20.18638802   94.89920044    0.05000000    0.05000000
   20.18972206  100.96299744    0.05000000    0.05000000
   20.19277763   90.11100006    0.05000000    0.05000000
   20.19610977   93.05819702    0.05000000    0.05000000
   20.20222282   93.05819702    0.05000000    0.05000000
   20.20639038  100.09999847    0.05000000    0.05000000
   20.20944595  103.48600006    0.05000000    0.05000000
   20.21277809  108.63899994    0.05000000    0.05000000
   20.21583366  104.78299713    0.05000000    0.05000000
   20.21916771  107.96800232    0.05000000    0.05000000
   20.22249985  101.90499878    0.05000000    0.05000000
   20.22555542  106.23799896    0.05000000    0.05000000
   20.22888947  104.38400269    0.05000000    0.05000000
   20.23222351   98.35130310    0.05000000    0.05000000
   20.23527718  107.32900238    0.05000000    0.05000000
   20.23861122  103.33499908    0.05000000    0.05000000
   20.23944473   99.61489868    0.05000000    0.05000000
   20.24500084   99.61489868    0.05000000    0.05000000
   20.24916649   99.41169739    0.05000000    0.05000000
   20.25222206  110.66400146    0.05000000    0.05000000
   20.25555611   96.03140259    0.05000000    0.05000000
   20.25888824  104.61299896    0.05000000    0.05000000
   20.26222229   98.10630035    0.05000000    0.05000000
   20.26527786  105.61299896    0.05000000    0.05000000
   20.26861000  115.29199982    0.05000000    0.05000000
   20.27194405  102.05000305    0.05000000    0.05000000
   20.27277756  110.92199707    0.05000000    0.05000000
   20.27527809  102.16699982    0.05000000    0.05000000
   20.27861023   99.50000000    0.05000000    0.05000000
   20.28194427  111.42299652    0.05000000    0.05000000
