    HOUR (UT)   FLARE FACTOR    SKY TESTER    SUN TESTER
   11.44944477   -1.00000000   -1.00000000   -1.00000000
   11.47083282  277.86300659    2.30999994    1.58000004
   11.47611046  272.48400879    2.32999992    1.58000004
   11.48027706  273.38598633    2.32999992    1.60000002
   11.48361111  256.15200806    2.32999992    1.60000002
   11.48666668  252.43099976    2.34999990    1.60000002
   11.49000072  266.94900513    2.36999989    1.60000002
   11.49333382  259.34600830    2.36999989    1.61000001
   11.49638939  244.21299744    2.36999989    1.61000001
   11.49972248  253.03799438    2.36999989    1.61000001
   11.50305557  250.58399963    2.39000010    1.61000001
   11.50416660  245.88900757    2.36999989    1.61000001
   11.50666714  260.88699341    2.36999989    1.63000000
   11.50972176  264.00399780    2.36999989    1.63000000
   11.51305580  244.84899902    2.36999989    1.63000000
   11.51611137  226.24200439    2.39000010    1.63000000
   11.51944447  226.51600647    2.36999989    1.64999998
   11.52277756  228.47900391    2.36999989    1.66999996
   11.52583313  250.96800232    2.36999989    1.64999998
   11.52916622  224.87800598    2.36999989    1.66999996
   11.53249931  238.08999634    2.36999989    1.66999996
   11.53555584  244.34899902    2.39000010    1.66999996
   11.53750038  231.77499390    2.39000010    1.66999996
   11.53944492  233.52900696    2.36999989    1.66999996
   11.54250050  225.81100464    2.36999989    1.66999996
   11.54583359  239.86000061    2.36999989    1.69000006
   11.54888916  225.11099243    2.36999989    1.69000006
   11.55222225  210.41400146    2.36999989    1.69000006
   11.55555534  216.28100586    2.34999990    1.69000006
   11.55861092  203.71299744    2.34999990    1.71000004
   11.56194496  219.16400146    2.34999990    1.71000004
   11.56527805  219.51499939    2.34999990    1.71000004
   11.56861115  222.48500061    2.34999990    1.71000004
   11.57083321  215.84300232    2.32999992    1.73000002
   11.57222176  223.32000732    2.32999992    1.73000002
   11.57555580  210.45500183    2.32999992    1.73000002
   11.57861137  222.82099915    2.30999994    1.73000002
   11.58194447  215.63699341    2.30999994    1.73000002
   11.58500004  216.87399292    2.30999994    1.75000000
   11.58833313  224.63900757    2.28999996    1.75000000
   11.59166622  221.73899841    2.28999996    1.75000000
   11.59472179  212.81900024    2.28999996    1.75000000
   11.59805489  203.47599792    2.26999998    1.76999998
   11.60138893  203.66299438    2.26999998    1.75000000
   11.60416698  239.32299805    2.25000000    1.76999998
   11.60500050  217.60499573    2.25000000    1.76999998
   11.60833359  216.89599609    2.25000000    1.76999998
   11.61138916  206.88200378    2.25000000    1.76999998
   11.61472225  216.56700134    2.25000000    1.78999996
   11.61777782  222.68699646    2.23000002    1.78999996
   11.62111092  227.62300110    2.21000004    1.78999996
   11.62444496  227.00700378    2.21000004    1.78999996
   11.62750053  227.96099854    2.21000004    1.78999996
   11.63083363  210.08599854    2.21000004    1.78999996
   11.63416672  213.32800293    2.21000004    1.80999994
   11.63722229  211.99200439    2.21000004    1.80999994
   11.63777733  210.09800720    2.19000006    1.80999994
   11.64111137  217.18899536    2.19000006    1.80999994
   11.64416695  207.44900513    2.19000006    1.80999994
   11.64750004  218.60899353    2.17000008    1.80999994
   11.65055561  216.96299744    2.17000008    1.80999994
   11.65388870  216.39999390    2.17000008    1.80999994
   11.65694427  221.54699707    2.17000008    1.83000004
   11.66027737  199.46000671    2.15000010    1.83000004
   11.66361046  207.05099487    2.15000010    1.83000004
   11.66666698  202.96200562    2.13000011    1.83000004
   11.67000008  214.02099609    2.13000011    1.85000002
   11.67111111  225.72399902    2.13000011    1.85000002
   11.67333412  219.15800476    2.13000011    1.85000002
   11.67666721  227.35000610    2.11999989    1.85000002
   11.68000031  211.65899658    2.11999989    1.85000002
   11.68305588  235.58700562    2.11999989    1.85000002
   11.68638897  205.13600159    2.11999989    1.86000001
   11.68944454  215.77799988    2.09999990    1.86000001
   11.69277763  210.23899841    2.09999990    1.86000001
   11.69611073  213.19099426    2.09999990    1.86000001
   11.69916630  214.45899963    2.07999992    1.86000001
   11.70249939  200.47999573    2.07999992    1.86000001
   11.70444393  208.69299316    2.07999992    1.88000000
   11.70611095  212.58900452    2.07999992    1.88000000
   11.70944405  200.19999695    2.05999994    1.88000000
   11.71277714  219.63000488    2.05999994    1.88000000
   11.71583271  198.72099304    2.05999994    1.89999998
   11.71916580  197.09500122    2.05999994    1.88000000
   11.72249985  200.88699341    2.05999994    1.89999998
   11.72555542  207.44700623    2.05999994    1.89999998
   11.72888851  218.88999939    2.05999994    1.89999998
   11.73222160  213.33099365    2.03999996    1.89999998
   11.73527813  194.20599365    2.03999996    1.89999998
   11.73777771  203.82899475    2.03999996    1.89999998
   11.73888874  201.08599854    2.03999996    1.89999998
   11.74222279  183.16200256    2.03999996    1.89999998
   11.74555588  201.59100342    2.01999998    1.91999996
   11.74861145  194.49800110    2.01999998    1.91999996
   11.75194454  201.15400696    2.01999998    1.91999996
   11.75527763  196.58900452    2.01999998    1.91999996
   11.75833321  199.29600525    2.00000000    1.94000006
   11.76166630  215.38400269    2.00000000    1.94000006
   11.76472187  195.56100464    2.00000000    1.94000006
   11.76805496  207.79699707    2.00000000    1.94000006
   11.77111053  199.47099304    2.00000000    1.94000006
   11.77166653  195.40199280    2.00000000    1.94000006
   11.77499962  190.20399475    1.98000002    1.94000006
   11.77833271  201.00999451    1.98000002    1.94000006
   11.78138828  206.03399658    1.98000002    1.94000006
   11.78472233  186.83299255    1.98000002    1.96000004
   11.78777790  179.69000244    2.00000000    1.94000006
   11.79111195  172.00599670    2.00000000    1.96000004
   11.79444504  178.70300293    2.00000000    1.98000002
   11.79750061  181.79899597    2.00000000    1.98000002
   11.80083370  183.89999390    2.00000000    1.98000002
   11.80416679  179.43800354    2.00000000    1.96000004
   11.80444431  183.25000000    2.00000000    1.96000004
   11.80749989  185.37300110    2.00000000    1.98000002
   11.81083393  195.99600220    1.98000002    1.98000002
   11.81388950  191.28500366    1.98000002    1.98000002
   11.81722260  193.86599731    1.98000002    1.98000002
   11.82027817  192.94400024    1.98000002    1.98000002
   11.82361126  206.85899353    1.96000004    1.98000002
   11.82694435  204.85800171    1.96000004    2.00000000
   11.82999992  190.71499634    1.96000004    2.00000000
   11.83333302  194.34300232    1.94000006    2.00000000
   11.83666611  201.79400635    1.94000006    2.00000000
   11.83777714  204.04299927    1.94000006    2.00000000
   11.84027767  206.11000061    1.94000006    2.00000000
   11.84361076  198.66799927    1.94000006    2.00000000
   11.84666634  196.70300293    1.94000006    2.00000000
   11.85000038  196.95899963    1.94000006    2.01999998
   11.85305595  203.04100037    1.91999996    2.01999998
   11.85638905  215.74699402    1.91999996    2.01999998
   11.85972214  202.78300476    1.91999996    2.01999998
   11.86277771  191.44999695    1.91999996    2.01999998
   11.86611176  202.52200317    1.89999998    2.01999998
   11.86944485  195.01800537    1.89999998    2.01999998
   11.87111092  208.49400330    1.91999996    2.01999998
   11.87305546  210.30799866    1.91999996    2.01999998
   11.87638855  200.88900757    1.89999998    2.03999996
   11.87944412  204.82699585    1.89999998    2.03999996
   11.88277817  197.07299805    1.89999998    2.03999996
   11.88611126  202.96899414    1.89999998    2.03999996
   11.88916683  191.36900330    1.88000000    2.03999996
   11.89249992  205.36199951    1.88000000    2.03999996
   11.89583302  192.88999939    1.86000001    2.03999996
   11.89888859  223.53999329    1.86000001    2.03999996
   11.90222168  197.37899780    1.86000001    2.05999994
   11.90444374  215.66200256    1.86000001    2.05999994
   11.90583324  204.64399719    1.85000002    2.05999994
   11.90916634  201.83599854    1.85000002    2.05999994
   11.91222191  195.42700195    1.85000002    2.05999994
   11.91555500  201.49899292    1.85000002    2.05999994
   11.91888905  202.80999756    1.83000004    2.05999994
   11.92194462  206.58900452    1.83000004    2.05999994
   11.92527771  198.45199585    1.83000004    2.05999994
   11.92861176  204.47399902    1.83000004    2.05999994
   11.93166733  186.60099792    1.83000004    2.07999992
   11.93500042  194.27400208    1.83000004    2.07999992
   11.93777752  200.19999695    1.83000004    2.07999992
   11.93861103  196.89399719    1.83000004    2.07999992
   11.94194412  203.46899414    1.83000004    2.07999992
   11.94499969  199.16799927    1.83000004    2.07999992
   11.94833374  211.42599487    1.83000004    2.07999992
   11.95166683  194.06100464    1.83000004    2.07999992
   11.95499992  207.72700500    1.83000004    2.07999992
   11.95805550  198.33999634    1.83000004    2.07999992
   11.96138859  207.48300171    1.83000004    2.07999992
   11.96472168  205.81599426    1.80999994    2.09999990
   11.96777725  211.60800171    1.80999994    2.09999990
   11.97111034  203.41099548    1.80999994    2.09999990
   11.97166634  200.93499756    1.80999994    2.09999990
   11.97472191  209.09399414    1.80999994    2.09999990
   11.97805500  197.28799438    1.80999994    2.09999990
   11.98138809  214.73699951    1.80999994    2.09999990
   11.98444462  219.13200378    1.80999994    2.09999990
   11.98777771  239.30000305    1.78999996    2.11999989
   11.99111176  242.96400452    1.78999996    2.11999989
   11.99416733  238.95100403    1.78999996    2.11999989
   11.99750042  247.22900391    1.78999996    2.11999989
   12.00055599  223.77799988    1.76999998    2.11999989
   12.00388908  262.20901489    1.76999998    2.11999989
   12.00500011  257.01901245    1.76999998    2.11999989
   12.00722218  252.43299866    1.76999998    2.13000011
   12.01083374  237.46299744    1.75000000    2.11999989
   12.01388931  205.00000000    1.75000000    2.11999989
   12.01722240  221.66700745    1.75000000    2.11999989
   12.02027798  216.40899658    1.75000000    2.11999989
   12.02361107  209.99000549    1.75000000    2.13000011
   12.02694416  211.41900635    1.75000000    2.13000011
   12.02999973  223.30599976    1.75000000    2.13000011
   12.03333378  214.46099854    1.73000002    2.13000011
   12.03666687  210.95599365    1.73000002    2.13000011
   12.03833389  219.29499817    1.73000002    2.13000011
   12.04000092  197.49600220    1.73000002    2.13000011
   12.04333401  209.11999512    1.73000002    2.13000011
   12.04666710  209.91299438    1.73000002    2.13000011
   12.04972267  223.71400452    1.71000004    2.15000010
   12.05305576  214.77499390    1.71000004    2.15000010
   12.05638885  213.26499939    1.71000004    2.15000010
   12.05972195  210.54100037    1.71000004    2.15000010
   12.06277752  207.78599548    1.71000004    2.15000010
   12.06611156  212.30200195    1.69000006    2.15000010
   12.06916618  212.73599243    1.69000006    2.15000010
   12.07166672  210.02000427    1.69000006    2.15000010
   12.07277775  199.47000122    1.69000006    2.15000010
   12.07611084  215.48500061    1.69000006    2.15000010
   12.07944393  200.61099243    1.69000006    2.17000008
   12.08249950  209.27699280    1.69000006    2.17000008
   12.08583260  206.67100525    1.69000006    2.15000010
   12.08916664  203.34500122    1.66999996    2.17000008
   12.09222221  216.02499390    1.66999996    2.17000008
   12.09555531  218.37399292    1.66999996    2.17000008
   12.09861088  222.04600525    1.66999996    2.17000008
   12.10194492  213.08700562    1.66999996    2.17000008
   12.10500050  223.28199768    1.66999996    2.17000008
   12.10555553  208.33399963    1.66999996    2.17000008
   12.10888958  211.90899658    1.66999996    2.17000008
   12.11222267  227.39399719    1.64999998    2.19000006
   12.11527824  207.69000244    1.64999998    2.19000006
   12.11861134  212.88900757    1.66999996    2.19000006
   12.12166691  221.70899963    1.66999996    2.19000006
   12.12500000  213.49200439    1.64999998    2.19000006
   12.12833309  227.25100708    1.64999998    2.19000006
   12.13138866  210.28500366    1.64999998    2.19000006
   12.13472176  203.57400513    1.64999998    2.19000006
   12.13805580  207.25900269    1.64999998    2.19000006
   12.13861084  207.13699341    1.64999998    2.19000006
   12.14166641  212.54699707    1.66999996    2.19000006
   12.14499950  210.31599426    1.66999996    2.19000006
   12.14833355  211.83799744    1.64999998    2.21000004
   12.15138817  209.50100708    1.64999998    2.19000006
   12.15472221  201.67300415    1.64999998    2.21000004
   12.15777779  204.73500061    1.64999998    2.21000004
   12.16111088  209.25799561    1.64999998    2.21000004
   12.16444397  214.24400330    1.63000000    2.21000004
   12.16750050  200.92799377    1.63000000    2.21000004
   12.17083359  197.37399292    1.61000001    2.21000004
   12.17194462  214.54899597    1.61000001    2.21000004
   12.17444515  205.46200562    1.61000001    2.21000004
   12.17777824  195.83700562    1.61000001    2.21000004
   12.18111134  207.77799988    1.61000001    2.21000004
   12.18416691  187.55599976    1.61000001    2.21000004
   12.18750000  195.88699341    1.60000002    2.21000004
   12.19055557  213.33500671    1.60000002    2.23000002
   12.19388866  208.70599365    1.60000002    2.23000002
   12.19722271  206.18400574    1.60000002    2.23000002
   12.20027733  204.56399536    1.60000002    2.23000002
   12.20361137  209.07000732    1.60000002    2.23000002
   12.20527744  208.96499634    1.58000004    2.23000002
   12.20722198  217.05700684    1.58000004    2.23000002
   12.21055508  223.90400696    1.58000004    2.23000002
   12.21388912  204.67199707    1.58000004    2.23000002
   12.21694374  203.94400024    1.58000004    2.25000000
   12.22027779  226.93299866    1.58000004    2.23000002
   12.22361088  216.83500671    1.55999994    2.25000000
   12.22666645  216.01400757    1.55999994    2.25000000
   12.22999954  206.80400085    1.55999994    2.25000000
   12.23333359  205.35000610    1.55999994    2.25000000
   12.23638916  212.71600342    1.55999994    2.25000000
   12.23861122  216.60299683    1.53999996    2.25000000
   12.24000072  204.79899597    1.53999996    2.25000000
   12.24333382  197.53399658    1.53999996    2.25000000
   12.24638939  206.28900146    1.53999996    2.25000000
   12.24972248  210.57000732    1.53999996    2.25000000
   12.25305557  205.28300476    1.53999996    2.25000000
   12.25611115  214.42399597    1.53999996    2.25000000
   12.25944424  202.39799500    1.53999996    2.26999998
   12.26277733  211.73599243    1.51999998    2.26999998
   12.26583290  206.51499939    1.51999998    2.26999998
   12.26916599  205.52799988    1.51999998    2.26999998
   12.27166653  204.03900146    1.51999998    2.25000000
   12.27277756  202.43099976    1.51999998    2.25000000
   12.27611065  203.25199890    1.51999998    2.26999998
   12.27916622  207.88400269    1.51999998    2.26999998
   12.28249931  194.27000427    1.51999998    2.26999998
   12.28583336  196.77099609    1.50000000    2.28999996
   12.28888893  203.76699829    1.50000000    2.26999998
   12.29222298  204.34700012    1.50000000    2.26999998
   12.29555607  207.39999390    1.50000000    2.26999998
   12.29861164  201.71000671    1.50000000    2.26999998
   12.30194473  202.20100403    1.50000000    2.26999998
   12.30527782  200.58200073    1.50000000    2.28999996
   12.30555534  203.50500488    1.50000000    2.28999996
   12.30888939  200.83999634    1.48000002    2.28999996
   12.31194496  197.99299622    1.48000002    2.28999996
   12.31527805  205.14399719    1.48000002    2.28999996
   12.31861115  196.75000000    1.48000002    2.28999996
   12.32166672  196.00000000    1.48000002    2.28999996
   12.32499981  199.47999573    1.48000002    2.28999996
   12.32805538  201.47200012    1.48000002    2.28999996
   12.33138847  208.53199768    1.48000002    2.28999996
   12.33472157  192.94799805    1.48000002    2.28999996
   12.33777714  196.69400024    1.48000002    2.28999996
   12.33861065  190.64500427    1.48000002    2.28999996
   12.34138870  179.22399902    1.48000002    2.28999996
   12.34472179  197.14700317    1.48000002    2.28999996
   12.34777737  198.71299744    1.46000004    2.30999994
   12.35111141  197.10200500    1.46000004    2.30999994
   12.35444450  201.54800415    1.46000004    2.30999994
   12.35750008  190.86700439    1.46000004    2.30999994
   12.36083412  192.32000732    1.46000004    2.30999994
   12.36416721  198.56500244    1.44000006    2.30999994
   12.36722279  192.05299377    1.44000006    2.30999994
   12.37055588  194.32800293    1.44000006    2.30999994
   12.37194443  187.80599976    1.44000006    2.30999994
   12.37416649  198.00199890    1.44000006    2.30999994
   12.37750053  196.21299744    1.44000006    2.32999992
   12.38083363  208.10699463    1.44000006    2.32999992
   12.38388920  189.51800537    1.44000006    2.32999992
   12.38722229  199.95399475    1.44000006    2.30999994
   12.39055538  212.03599548    1.46000004    2.32999992
   12.39361095  203.13099670    1.46000004    2.30999994
   12.39694405  200.21299744    1.44000006    2.30999994
   12.40027714  196.67100525    1.44000006    2.32999992
   12.40333271  202.20100403    1.44000006    2.32999992
   12.40527725  199.39500427    1.44000006    2.32999992
   12.40694427  207.33900452    1.44000006    2.32999992
   12.41027737  188.75199890    1.41999996    2.32999992
   12.41333294  192.11399841    1.41999996    2.32999992
   12.41666698  201.86000061    1.41999996    2.32999992
   12.42000008  194.29600525    1.41999996    2.32999992
   12.42305565  181.93499756    1.41999996    2.32999992
   12.42638874  192.10200500    1.41999996    2.32999992
   12.42972279  193.88900757    1.41999996    2.32999992
   12.43277836  190.07099915    1.41999996    2.32999992
   12.43611145  191.74200439    1.41999996    2.32999992
   12.43861103  195.02600098    1.39999998    2.32999992
   12.43972206  185.94799805    1.39999998    2.32999992
   12.44305515  194.18600464    1.39999998    2.32999992
   12.44611073  190.02000427    1.39999998    2.32999992
   12.44944477  209.00500488    1.39999998    2.32999992
   12.45277786  202.67900085    1.39999998    2.32999992
   12.45583344  208.72999573    1.38000000    2.34999990
   12.45916653  189.11599731    1.39999998    2.34999990
   12.46249962  187.90400696    1.38000000    2.34999990
   12.46555519  191.58700562    1.38000000    2.34999990
   12.46888828  197.42599487    1.38000000    2.34999990
   12.48750019  193.69299316    1.36000001    2.34999990
   12.48888874  193.00199890    1.36000001    2.34999990
   12.49194431  196.75000000    1.36000001    2.36999989
   12.49527836  181.32099915    1.36000001    2.36999989
   12.49861145  171.36000061    1.34000003    2.36999989
   12.50166702  194.23800659    1.36000001    2.34999990
   12.50500011  183.91400146    1.34000003    2.36999989
   12.50805569  187.18699646    1.34000003    2.36999989
   12.51138878  195.17599487    1.34000003    2.36999989
   12.51472187  195.61500549    1.34000003    2.36999989
   12.51777744  191.16999817    1.34000003    2.36999989
   12.52083302  190.64300537    1.34000003    2.36999989
   12.52138901  187.20500183    1.34000003    2.36999989
   12.52472210  182.96000671    1.33000004    2.36999989
   12.52805519  186.47500610    1.33000004    2.39000010
   12.53111076  188.66299438    1.33000004    2.36999989
   12.53444481  186.52699280    1.33000004    2.36999989
   12.53777790  184.43899536    1.33000004    2.36999989
   12.54083347  184.90199280    1.33000004    2.36999989
   12.54416752  179.70899963    1.33000004    2.36999989
   12.54722309  180.51800537    1.30999994    2.36999989
   12.55055618  180.27000427    1.30999994    2.36999989
   12.55388927  170.48199463    1.30999994    2.39000010
   12.55444431  180.41499329    1.30999994    2.39000010
   12.55749989  183.74000549    1.30999994    2.39000010
   12.56083393  174.84100342    1.30999994    2.36999989
   12.56416702  179.60000610    1.30999994    2.39000010
   12.56722260  179.76800537    1.28999996    2.39000010
   12.57055569  187.12199402    1.28999996    2.39000010
   12.57388878  180.65199280    1.30999994    2.39000010
   12.57694435  171.03999329    1.28999996    2.39000010
   12.58027744  184.79699707    1.28999996    2.39000010
   12.58333302  192.98599243    1.28999996    2.39000010
   12.58666611  180.79400635    1.28999996    2.39000010
   12.58777714  186.33999634    1.28999996    2.39000010
   12.59027767  182.87399292    1.28999996    2.40000010
   12.59361076  180.91099548    1.28999996    2.39000010
   12.59694386  187.45500183    1.28999996    2.39000010
   12.60000038  183.11799622    1.26999998    2.39000010
   12.60333347  188.21000671    1.26999998    2.40000010
   12.60638905  186.32299805    1.26999998    2.40000010
   12.60972214  193.36099243    1.26999998    2.39000010
   12.61305618  189.42199707    1.26999998    2.39000010
   12.61611176  191.98899841    1.26999998    2.40000010
   12.61944485  181.48899841    1.26999998    2.40000010
   12.62111092  197.20399475    1.26999998    2.40000010
   12.62305546  194.04200745    1.25000000    2.40000010
   12.62638855  192.41299438    1.25000000    2.40000010
   12.62972260  188.70300293    1.25000000    2.40000010
   12.63277817  189.33700562    1.25000000    2.40000010
   12.63611126  189.75900269    1.25000000    2.40000010
   12.63944435  189.94500732    1.25000000    2.40000010
   12.64249992  188.48699951    1.25000000    2.40000010
   12.64583302  195.92100525    1.25000000    2.40000010
   12.64916611  195.05200195    1.25000000    2.40000010
   12.65222168  193.48500061    1.25000000    2.40000010
   12.65444374  187.62600708    1.25000000    2.40000010
   12.65583324  190.41200256    1.23000002    2.40000010
   12.65916634  180.01100159    1.23000002    2.40000010
   12.66249943  170.22200012    1.23000002    2.40000010
   12.66555500  176.22099304    1.23000002    2.40000010
   12.66888905  180.15400696    1.23000002    2.40000010
   12.67194462  175.89199829    1.21000004    2.42000008
   12.67527771  179.18400574    1.21000004    2.42000008
   12.67861176  178.54499817    1.21000004    2.40000010
   12.68166733  186.16000366    1.21000004    2.42000008
   12.68500042  183.76300049    1.21000004    2.40000010
   12.68777752  184.20199585    1.21000004    2.40000010
   12.68861103  180.98100281    1.21000004    2.42000008
   12.69194412  182.49699402    1.21000004    2.42000008
   12.69527817  193.55099487    1.21000004    2.42000008
   12.69833374  194.98899841    1.19000006    2.42000008
   12.70166683  193.21800232    1.19000006    2.42000008
   12.70472240  187.03100586    1.19000006    2.42000008
   12.70805550  188.50199890    1.19000006    2.42000008
   12.71138859  180.72999573    1.19000006    2.42000008
   12.71444416  201.21200562    1.19000006    2.42000008
   12.71777725  190.97399902    1.19000006    2.42000008
   12.72111034  188.76600647    1.19000006    2.42000008
   12.72138882  183.73800659    1.19000006    2.42000008
   12.72472191  187.79200745    1.19000006    2.42000008
   12.72805500  181.09899902    1.19000006    2.42000008
   12.73138809  185.79899597    1.19000006    2.42000008
   12.73472214  190.31799316    1.19000006    2.42000008
   12.73777771  184.92999268    1.19000006    2.42000008
   12.74111176  196.22000122    1.16999996    2.42000008
   12.74444485  186.74699402    1.16999996    2.42000008
   12.74750042  199.56100464    1.16999996    2.44000006
   12.75083351  183.09700012    1.16999996    2.44000006
   12.75388908  193.07000732    1.16999996    2.44000006
   12.75444412  189.48800659    1.16999996    2.44000006
   12.75749969  190.80599976    1.16999996    2.44000006
   12.76083374  183.78900146    1.16999996    2.44000006
   12.76388931  172.21499634    1.16999996    2.44000006
   12.76722240  184.27999878    1.16999996    2.44000006
   12.77027798  184.13999939    1.14999998    2.44000006
   12.77361107  183.96800232    1.14999998    2.44000006
   12.77694416  180.03799438    1.14999998    2.44000006
   12.77999973  193.34899902    1.14999998    2.44000006
   12.78333378  184.38699341    1.14999998    2.44000006
   12.78638935  183.75100708    1.14999998    2.44000006
   12.78777790  183.20199585    1.14999998    2.44000006
   12.79027843  188.05400085    1.14999998    2.44000006
   12.79333401  179.46299744    1.14999998    2.44000006
   12.79666710  175.95799255    1.16999996    2.46000004
   12.80000019  190.03599548    1.14999998    2.44000006
   12.80305576  189.00100708    1.14999998    2.46000004
   12.80638885  181.11300659    1.14999998    2.44000006
   12.80972195  185.12100220    1.14999998    2.46000004
   12.81277752  179.99000549    1.14999998    2.46000004
   12.81611156  181.63000488    1.14999998    2.46000004
   12.81944466  181.14799500    1.14999998    2.46000004
   12.82111073  172.21299744    1.13000000    2.46000004
   12.82305527  185.14799500    1.13000000    2.46000004
   12.82638836  187.17700195    1.13000000    2.46000004
   12.82944393  168.21600342    1.13000000    2.46000004
   12.83277798  170.92199707    1.13000000    2.46000004
   12.83611107  182.31700134    1.13000000    2.46000004
   12.83916664  174.27400208    1.13000000    2.46000004
   12.84249973  179.30900574    1.13000000    2.46000004
   12.84583282  169.87699890    1.13000000    2.46000004
   12.84888840  177.70899963    1.13000000    2.46000004
   12.85222244  186.05599976    1.13000000    2.46000004
   12.85444450  177.26600647    1.13000000    2.46000004
   12.85583401  186.21400452    1.13000000    2.48000002
   12.85916710  180.14300537    1.14999998    2.46000004
   12.86222267  178.48500061    1.14999998    2.46000004
   12.86555576  180.91799927    1.13000000    2.46000004
   12.86888885  179.89199829    1.13000000    2.46000004
   12.87194443  179.81199646    1.13000000    2.46000004
   12.87527752  176.26600647    1.14999998    2.46000004
   12.87861156  179.65699768    1.13000000    2.48000002
   12.88166714  177.95399475    1.14999998    2.46000004
   12.88500023  182.49699402    1.14999998    2.46000004
   12.88777733  183.21499634    1.13000000    2.46000004
   12.88861084  182.17999268    1.13000000    2.46000004
   12.89194393  189.85099792    1.13000000    2.48000002
   12.89499950  187.60299683    1.13000000    2.48000002
   12.89833355  191.07600403    1.13000000    2.48000002
   12.90138817  185.21800232    1.13000000    2.46000004
   12.90472221  191.45700073    1.13000000    2.48000002
   12.90805531  181.04100037    1.13000000    2.48000002
   13.01916599   -1.00000000   -1.00000000   -1.00000000
   13.11583328   -1.00000000   -1.00000000   -1.00000000
   13.21555519   -1.00000000   -1.00000000   -1.00000000
   13.24722290  102.24199677    0.98000002    2.53999996
   13.25055599  174.08599854    0.98000002    2.53999996
   13.25388908  170.95100403    0.98000002    2.53999996
   13.25722218  172.94500732    0.98000002    2.53999996
   13.26027775  169.28599548    0.98000002    2.53999996
   13.26361084  171.72200012    0.98000002    2.53999996
   13.26777744  171.72200012    0.98000002    2.53999996
   13.27194405  172.84500122    0.98000002    2.55999994
   13.27499962  175.42100525    0.98000002    2.55999994
   13.27833271  162.90199280    0.98000002    2.53999996
   13.28055573  177.67199707    1.00000000    2.53999996
   13.28194427  171.66600037    1.00000000    2.53999996
   13.28527832  174.82699585    1.00000000    2.53999996
   13.28833389  177.56900024    1.00000000    2.53999996
   13.29166698  177.34899902    0.98000002    2.53999996
   13.29472256  182.55999756    0.98000002    2.53999996
   13.29805565  180.12500000    0.98000002    2.53999996
   13.30138874  183.11999512    0.98000002    2.55999994
   13.30444431  178.86300659    0.98000002    2.53999996
   13.31055546  178.86300659    0.98000002    2.53999996
   13.31472206  168.97000122    0.98000002    2.55999994
   13.31805515  174.58200073    0.98000002    2.53999996
   13.32111073  157.89700317    0.98000002    2.53999996
   13.32444477  179.49699402    0.98000002    2.53999996
   13.32777786  168.80099487    0.98000002    2.55999994
   13.33083344  171.99800110    0.98000002    2.55999994
   13.33416653  172.18400574    0.98000002    2.55999994
   13.33722210  169.74699402    0.98000002    2.55999994
   13.34055519  173.36199951    0.98000002    2.55999994
   13.34388828  160.91999817    0.98000002    2.53999996
   13.34694386  168.24099731    0.98000002    2.53999996
   13.34749985  170.01699829    0.98000002    2.53999996
   13.35333347  170.01699829    1.00000000    2.55999994
   13.35750008  169.74600220    0.98000002    2.55999994
   13.36083412  157.10200500    0.98000002    2.55999994
   13.36388969  182.11099243    0.98000002    2.55999994
   13.36722279  170.54899597    0.98000002    2.55999994
   13.37055588  175.42799377    0.98000002    2.55999994
   13.37361145  172.22900391    0.98000002    2.55999994
   13.37694454  177.30499268    0.95999998    2.55999994
   13.38027763  168.33999634    0.98000002    2.55999994
   13.38083363  163.67799377    0.98000002    2.55999994
   13.38388920  169.93600464    0.98000002    2.55999994
   13.38694477  167.66099548    0.98000002    2.55999994
   13.39027786  180.78799438    0.98000002    2.55999994
   13.39638901  180.78799438    1.00000000    2.55999994
   13.40055561  173.59100342    0.98000002    2.55999994
   13.40388870  184.43099976    0.98000002    2.55999994
   13.40694427  163.84700012    1.00000000    2.55999994
   13.41027737  161.01300049    1.00000000    2.55999994
   13.41361046  167.21299744    0.98000002    2.55999994
   13.41416645  171.43200684    0.98000002    2.55999994
   13.41722298  175.44599915    0.98000002    2.55999994
   13.42055607  166.94599915    0.98000002    2.55999994
   13.42388916  167.40899658    0.98000002    2.57999992
   13.42694473  162.00300598    0.98000002    2.55999994
   13.43027782  163.44200134    0.98000002    2.55999994
   13.43361092  167.59899902    0.98000002    2.55999994
   13.43916702  167.59899902    0.98000002    2.57999992
   13.44333363  164.17500305    1.00000000    2.55999994
   13.44638920  164.09800720    0.98000002    2.57999992
   13.44750023  160.28599548    0.98000002    2.57999992
   13.44999981  156.77200317    1.00000000    2.55999994
   13.45333290  160.26300049    0.98000002    2.55999994
   13.45638847  161.10699463    0.95999998    2.55999994
   13.45972157  150.63600159    0.95999998    2.57999992
   13.46305561  169.81300354    0.95999998    2.57999992
   13.46611118  164.53799438    0.95999998    2.57999992
   13.46944427  174.81599426    0.94000000    2.57999992
   13.47277737  161.24400330    0.94000000    2.57999992
   13.47583294  170.04400635    0.94000000    2.57999992
   13.48194408  170.04400635    0.94000000    2.57999992
   13.48611164  160.31199646    0.94000000    2.57999992
   13.48944473  162.93099976    0.94000000    2.57999992
   13.49250031  164.55000305    0.94000000    2.57999992
   13.49583340  151.30799866    0.94000000    2.57999992
   13.49916649  163.77699280    0.94000000    2.57999992
   13.50222206  162.78199768    0.94000000    2.57999992
   13.50555515  170.44099426    0.94000000    2.57999992
   13.50888920  173.25000000    0.94000000    2.57999992
   13.51194477  158.00900269    0.92000002    2.57999992
   13.51444435  166.41200256    0.92000002    2.59999990
   13.51555538  159.72700500    0.92000002    2.59999990
   13.51888847  170.56900024    0.94000000    2.57999992
   13.52472210  170.56900024    0.92000002    2.57999992
   13.52888870  160.37600708    0.92000002    2.57999992
   13.53222179  172.43400574    0.89999998    2.59999990
   13.53555584  156.35800171    0.92000002    2.59999990
   13.53861141  155.29699707    0.92000002    2.57999992
   13.54194450  159.47599792    0.92000002    2.57999992
   13.54500008  157.08399963    0.92000002    2.57999992
   13.54777813  163.32099915    0.92000002    2.57999992
   13.54861164  158.29200745    0.92000002    2.57999992
   13.55194473  151.43400574    0.92000002    2.57999992
   13.55500031  167.41400146    0.92000002    2.57999992
   13.55833340  160.67100525    0.94000000    2.57999992
   13.56138897  159.57899475    1.00000000    2.59999990
   13.56750011  159.57899475    1.01999998    2.57999992
   13.57166672  160.07600403    1.01999998    2.59999990
   13.57499981  162.03399658    1.00000000    2.59999990
   13.57833290  143.61199951    0.98000002    2.59999990
   13.58083344  163.12500000    0.98000002    2.59999990
   13.58194447  167.22099304    0.98000002    2.59999990
   13.58500004  155.06599426    1.01999998    2.59999990
   13.58833313  155.88499451    1.03999996    2.57999992
   13.59166622  154.32400513    1.03999996    2.57999992
   13.59472179  165.37199402    1.11000001    2.57999992
   13.59805489  163.94700623    1.16999996    2.59999990
   13.60138893  163.64500427    1.13000000    2.59999990
   13.60444450  163.51600647    1.05999994    2.59999990
   13.61055565  163.51600647    1.05999994    2.59999990
   13.61472225  170.44599915    1.07000005    2.59999990
   13.61777782  169.97700500    1.09000003    2.57999992
   13.62111092  166.24000549    1.09000003    2.57999992
   13.62416649  173.79600525    1.07000005    2.59999990
   13.62750053  176.39599609    1.07000005    2.59999990
   13.63083363  172.87800598    1.07000005    2.59999990
   13.63388920  162.70300293    1.07000005    2.59999990
   13.63722229  173.75100708    1.07000005    2.59999990
   13.64055538  161.87800598    1.05999994    2.59999990
   13.64361095  172.53599548    1.05999994    2.59999990
   13.64694405  164.06199646    1.03999996    2.59999990
   13.64750004  165.02299500    1.03999996    2.59999990
   13.65333271  165.02299500    1.03999996    2.59999990
   13.65749931  162.82699585    1.01999998    2.59999990
   13.66083336  160.36500549    1.01999998    2.59999990
   13.66388893  169.87800598    1.01999998    2.59999990
   13.66722298  154.48100281    1.01999998    2.59999990
   13.67027855  166.10800171    1.01999998    2.59999990
   13.67361164  178.58599854    1.01999998    2.59999990
   13.67694473  169.96400452    1.03999996    2.59999990
   13.68000031  155.80299377    1.01999998    2.59999990
   13.68083382  157.80799866    1.01999998    2.59999990
   13.68361092  160.07200623    1.00000000    2.59999990
   13.68694496  156.86599731    0.98000002    2.61999989
   13.69000053  172.11700439    0.98000002    2.59999990
   13.69611073  172.11700439    0.95999998    2.59999990
   13.70027733  158.13400269    0.94000000    2.59999990
   13.70361137  162.59899902    0.94000000    2.59999990
   13.70666695  171.46699524    0.94000000    2.61999989
   13.71000004  157.76100159    0.94000000    2.59999990
   13.71333313  166.02099609    0.94000000    2.59999990
   13.71416664  167.31900024    0.94000000    2.59999990
   13.71694374  168.03700256    0.94000000    2.59999990
   13.72027779  156.86000061    0.94000000    2.59999990
   13.72333336  168.13499451    0.94000000    2.61999989
   13.72666645  165.67100525    0.92000002    2.59999990
   13.72972202  162.97900391    0.92000002    2.59999990
   13.73305511  163.14199829    0.92000002    2.61999989
   13.73888874  163.14199829    0.92000002    2.61999989
   13.74305534  148.14500427    0.92000002    2.61999989
   13.74638939  169.94400024    0.92000002    2.61999989
   13.74750042  165.56100464    0.92000002    2.61999989
   13.75000000  167.39900208    0.92000002    2.59999990
   13.75305557  158.94400024    0.89999998    2.61999989
   13.75638866  160.45300293    0.89999998    2.61999989
   13.75972176  152.11999512    0.89999998    2.61999989
   13.76277733  162.13699341    0.89999998    2.61999989
   13.76611137  160.91299438    0.89999998    2.61999989
   13.76944447  163.16600037    0.89999998    2.61999989
   13.77250004  161.63299561    0.89999998    2.61999989
   13.77583313  163.23399353    0.89999998    2.61999989
   13.78194427  163.23399353    0.89999998    2.61999989
   13.78583336  168.90800476    0.89999998    2.61999989
   13.78916740  157.72900391    0.89999998    2.61999989
   13.79250050  164.16600037    0.89999998    2.61999989
   13.79555607  165.58500671    0.92000002    2.61999989
   13.79888916  162.70500183    0.92000002    2.61999989
   13.80222225  171.13000488    0.92000002    2.61999989
   13.80527782  162.69000244    0.95999998    2.61999989
   13.80861092  161.45199585    0.95999998    2.61999989
   13.81194496  170.52600098    0.94000000    2.61999989
   13.81416702  165.47399902    0.94000000    2.61999989
   13.81555557  156.00100708    0.94000000    2.61999989
   13.81888866  173.35600281    0.95999998    2.61999989
   13.82472229  173.35600281    1.00000000    2.61999989
   13.82888889  166.65499878    0.98000002    2.61999989
   13.83222198  167.68499756    0.94000000    2.59999990
   13.83527756  165.54600525    0.94000000    2.59999990
   13.83861065  167.86099243    0.95999998    2.59999990
   13.84166622  168.94999695    0.95999998    2.61999989
   13.84499931  158.15400696    0.95999998    2.61999989
   13.84749985  168.76499939    0.94000000    2.61999989
   13.84861088  163.89700317    0.94000000    2.61999989
   13.85194492  172.42599487    0.92000002    2.61999989
   13.85500050  174.48100281    0.92000002    2.61999989
   13.85833359  166.42799377    0.89999998    2.61999989
   13.86138916  187.58099365    0.88000000    2.61999989
   13.86750031  187.58099365    0.86000001    2.61999989
   13.87166691  186.52999878    0.83999997    2.61999989
   13.87500000  172.64300537    0.86000001    2.64000010
   13.87805557  173.61099243    0.83999997    2.61999989
   13.88083363  172.22799683    0.83999997    2.61999989
   13.88166714  184.02499390    0.83999997    2.61999989
   13.88500023  188.47200012    0.83999997    2.64000010
   13.88805580  169.51199341    0.83999997    2.64000010
   13.89138889  186.16799927    0.83999997    2.64000010
   13.89444447  182.64999390    0.83999997    2.61999989
   13.89777756  166.65899658    0.83999997    2.64000010
   13.90111065  197.12600708    0.83999997    2.61999989
   13.90416622  195.13000488    0.81999999    2.61999989
   13.91027737  195.13000488    0.83999997    2.64000010
   13.91444397  173.10800171    0.81999999    2.64000010
   13.91777802  213.18499756    0.81999999    2.64000010
   13.92111111  196.93899536    0.81999999    2.64000010
   13.92416668  179.75000000    0.81999999    2.64000010
   13.92750072  194.21400452    0.81999999    2.64000010
   13.93055630  182.99299622    0.80000001    2.64000010
   13.93388939  210.05299377    0.80000001    2.64000010
   13.93722248  197.78599548    0.80000001    2.64000010
   13.94027805  213.06900024    0.80000001    2.64000010
   13.94361115  198.09700012    0.80000001    2.64000010
   13.94694424  200.56599426    0.80000001    2.64000010
   13.94750023  175.31100464    0.80000001    2.64000010
   13.95333290  175.31100464    0.80000001    2.64000010
   13.95749950  189.07400513    0.81999999    2.64000010
   13.96055508  195.41400146    0.81999999    2.64000010
   13.96388912  191.29699707    0.81999999    2.64000010
   13.96694374  214.71600342    0.81999999    2.64000010
   13.97027779  203.63600159    0.80000001    2.64000010
   13.97361088  214.71800232    0.80000001    2.64000010
   13.97666645  197.43800354    0.80000001    2.64000010
   13.97999954  218.28100586    0.80000001    2.64000010
   13.98083305  193.86300659    0.80000001    2.64000010
   13.98361111  193.51100159    0.80000001    2.64000010
   13.98694515  206.06300354    0.80000001    2.64000010
   13.99000072  213.82200623    0.80000001    2.64000010
   13.99611092  213.82200623    0.80000001    2.64000010
   14.00027752  243.22300720    0.80000001    2.64000010
   14.00361156  193.94700623    0.80000001    2.64000010
   14.00666714  220.08299255    0.79000002    2.64000010
   14.01000023  231.87500000    0.79000002    2.64000010
   14.01333332  226.77000427    0.80000001    2.64000010
   14.01416683  227.90899658    0.80000001    2.64000010
   14.01694393  236.16499329    0.80000001    2.64000010
   14.02027798  217.99400330    0.79000002    2.66000009
   14.02361107  238.47000122    0.80000001    2.64000010
   14.02694416  215.73800659    0.79000002    2.64000010
   14.02999973  223.56300354    0.79000002    2.64000010
   14.03333378  242.48599243    0.79000002    2.64000010
   14.03888893  242.48599243    0.79000002    2.64000010
   14.04305553   54.28850174    0.79000002    2.64000010
   14.04638958  229.80599976    0.79000002    2.64000010
   14.04750061  221.26800537    0.79000002    2.64000010
   14.05000019  247.01100159    0.79000002    2.64000010
   14.05333328  268.02301025    0.79000002    2.64000010
   14.05638885  243.20700073    0.79000002    2.64000010
   14.05972195  254.58000183    0.79000002    2.66000009
   14.06305599  263.63900757    0.79000002    2.66000009
   14.06611156  235.45799255    0.79000002    2.64000010
   14.06944466  236.33399963    0.79000002    2.64000010
   14.07277775  203.31700134    0.79000002    2.64000010
   14.07583332  236.08700562    0.79000002    2.66000009
   14.08166695  236.08700562    0.79000002    2.64000010
   14.08583260  175.94299316    0.76999998    2.64000010
   14.08916664  171.27099609    0.76999998    2.66000009
   14.09249973  164.45199585    0.76999998    2.66000009
   14.09555531  177.95799255    0.79000002    2.64000010
   14.09888840  179.19099426    0.76999998    2.64000010
   14.10194492  171.47500610    0.76999998    2.66000009
   14.10527802  177.28300476    0.76999998    2.66000009
   14.10861111  174.07499695    0.79000002    2.66000009
   14.11166668  175.01300049    0.76999998    2.64000010
   14.11444473  158.61700439    0.79000002    2.64000010
   14.11527824  185.52600098    0.79000002    2.64000010
   14.11861134  191.54299927    0.79000002    2.66000009
   14.12472248  191.54299927    0.79000002    2.66000009
   14.12888908  172.41999817    0.80000001    2.64000010
   14.13194466  183.57800293    0.81999999    2.66000009
   14.13527775  189.21400452    0.81999999    2.66000009
   14.13861084  169.87500000    0.80000001    2.66000009
   14.14166641  174.56700134    0.81999999    2.66000009
   14.14499950  173.43299866    0.81999999    2.66000009
   14.14750004  172.47999573    0.81999999    2.66000009
   14.14861107  173.83599854    0.81999999    2.66000009
   14.15194416  156.29699707    0.81999999    2.66000009
   14.15499973  172.52799988    0.80000001    2.66000009
   14.15833282  178.86500549    0.79000002    2.66000009
   14.16166592  178.12699890    0.79000002    2.66000009
   14.16750050  178.12699890    0.79000002    2.66000009
   14.17166710  176.07600403    0.80000001    2.66000009
   14.17472267  171.29400635    0.80000001    2.66000009
   14.17805576  195.29400635    0.80000001    2.66000009
   14.18083382  178.06500244    0.80000001    2.66000009
   14.18166733  175.03599548    0.80000001    2.66000009
   14.18500042  160.48599243    0.81999999    2.67000008
   14.18805599  187.44000244    0.81999999    2.66000009
   14.19138908  178.99800110    0.81999999    2.66000009
   14.19444466  171.44700623    0.81999999    2.66000009
   14.19777775  190.99099731    0.81999999    2.66000009
   14.20111084  173.13099670    0.83999997    2.66000009
   14.20416641  190.56500244    0.83999997    2.66000009
   14.21027756  190.56500244    0.83999997    2.66000009
   14.21444416  181.07600403    0.81999999    2.66000009
   14.21777725  194.92599487    0.81999999    2.66000009
   14.22083282  177.62199402    0.81999999    2.66000009
   14.22416592  171.68200684    0.83999997    2.67000008
   14.22722149  177.34399414    0.83999997    2.67000008
   14.23055553  169.85099792    0.80000001    2.66000009
   14.23388958  178.12100220    0.80000001    2.66000009
   14.23694515  186.25700378    0.80000001    2.66000009
   14.24027824  165.04200745    0.79000002    2.66000009
   14.24361134  183.15299988    0.79000002    2.66000009
   14.24666691  181.50999451    0.79000002    2.66000009
   14.24750042  175.88699341    0.79000002    2.66000009
   14.26833344  175.88699341    0.79000002    2.66000009
   14.27250004  174.73500061    0.76999998    2.66000009
   14.27555561  172.99200439    0.76999998    2.66000009
   14.27888870  171.39700317    0.76999998    2.66000009
   14.28083324  156.97200012    0.76999998    2.66000009
   14.28249931  170.89100647    0.76999998    2.66000009
   14.28583336  166.82299805    0.76999998    2.66000009
   14.28888893  157.83200073    0.75000000    2.67000008
   14.29222298  173.24499512    0.75000000    2.66000009
   14.29555607  156.90899658    0.75000000    2.66000009
   14.29861164  169.56100464    0.76999998    2.66000009
   14.30194473  164.50500488    0.76999998    2.66000009
   14.30527782  174.71400452    0.75000000    2.66000009
   14.31111145  174.71400452    0.75000000    2.67000008
   14.31527805  166.52299500    0.75000000    2.66000009
   14.31833363  160.01899719    0.75000000    2.67000008
   14.32166672  176.50399780    0.75000000    2.67000008
   14.32499981  170.23599243    0.75000000    2.67000008
   14.32805538  168.99800110    0.73000002    2.67000008
   14.33138847  158.17100525    0.75000000    2.67000008
   14.33472157  161.64599609    0.73000002    2.66000009
   14.33777714  164.42700195    0.73000002    2.67000008
   14.34111118  168.64199829    0.73000002    2.66000009
   14.34416676  174.04699707    0.73000002    2.66000009
   14.34749985  160.52200317    0.73000002    2.66000009
   14.34805489  170.53300476    0.73000002    2.66000009
   14.35388947  170.53300476    0.73000002    2.66000009
   14.35805607  171.30900574    0.73000002    2.67000008
   14.36138916  160.79600525    0.73000002    2.67000008
   14.36444473  171.64999390    0.73000002    2.67000008
   14.36777782  167.32099915    0.73000002    2.67000008
   14.37111092  160.22500610    0.73000002    2.67000008
   14.37416649  172.71600342    0.73000002    2.67000008
   14.37750053  168.26899719    0.73000002    2.67000008
   14.38083363  179.20799255    0.73000002    2.66000009
   14.38138866  172.83599854    0.73000002    2.66000009
   14.38416672  178.87500000    0.73000002    2.66000009
   14.38749981  158.88900757    0.73000002    2.67000008
   14.39083290  166.26600647    0.73000002    2.67000008
   14.39666653  166.26600647    0.73000002    2.67000008
   14.40083313  168.13499451    0.73000002    2.67000008
   14.40416622  165.65100098    0.73000002    2.67000008
   14.40722179  177.77000427    0.73000002    2.67000008
   14.41055489  170.22700500    0.73000002    2.67000008
   14.41388893  177.15899658    0.73000002    2.67000008
   14.41472149  171.08799744    0.73000002    2.67000008
   14.41722298  157.41299438    0.73000002    2.67000008
   14.42055607  179.58999634    0.73000002    2.67000008
   14.42388916  175.09899902    0.73000002    2.67000008
   14.42694473  183.63299561    0.73000002    2.67000008
   14.43027782  168.86700439    0.73000002    2.67000008
   14.43333340  173.79200745    0.75000000    2.67000008
   14.43944454  173.79200745    0.73000002    2.66000009
   14.44361115  181.80999756    0.73000002    2.67000008
   14.44694424  202.64900208    0.73000002    2.67000008
   14.44805527  190.04400635    0.73000002    2.67000008
   14.45055580  167.68899536    0.73000002    2.67000008
   14.45388889  163.09899902    0.73000002    2.67000008
   14.45722198  187.88499451    0.73000002    2.67000008
   14.46027756  167.82400513    0.73000002    2.67000008
   14.46361065  192.42999268    0.73000002    2.69000006
   14.46666622  175.28300476    0.73000002    2.69000006
   14.46999931  189.38200378    0.73000002    2.67000008
   14.47333336  177.81700134    0.73000002    2.67000008
   14.47638798  178.07099915    0.73000002    2.67000008
   14.48249912  178.07099915    0.73000002    2.67000008
   14.48666668  162.25199890    0.73000002    2.67000008
   14.48972225  159.92500305    0.73000002    2.69000006
   14.49305534  182.10000610    0.73000002    2.67000008
   14.49638939  187.13499451    0.73000002    2.67000008
   14.49944496  187.25100708    0.70999998    2.67000008
   14.50277805  179.80799866    0.73000002    2.67000008
   14.50611115  177.95199585    0.70999998    2.67000008
   14.50916672  178.14799500    0.70999998    2.67000008
   14.51249981  187.30200195    0.70999998    2.67000008
   14.51472187  196.97099304    0.70999998    2.67000008
   14.51611137  179.30599976    0.70999998    2.67000008
   14.51916599  196.70899963    0.70999998    2.69000006
   14.52527714  196.70899963    0.69000000    2.67000008
   14.52944374  155.36500549    0.69000000    2.67000008
   14.53249931  192.26499939    0.69000000    2.67000008
   14.53583336  172.08500671    0.69000000    2.67000008
   14.53916740  178.76400757    0.69000000    2.69000006
   14.54222298  174.74099731    0.70999998    2.67000008
   14.54555607  171.01300049    0.70999998    2.67000008
   14.54805565  170.41499329    0.70999998    2.67000008
   14.54916668  157.57400513    0.70999998    2.67000008
   14.55249977  162.88099670    0.70999998    2.69000006
   14.55583382  162.33799744    0.70999998    2.67000008
   14.55888939  148.50599670    0.70999998    2.67000008
   14.56222248  185.92500305    0.69000000    2.69000006
   14.56805515  185.92500305    0.70999998    2.67000008
   14.57222176  157.25500488    0.69000000    2.69000006
   14.57555580  151.85000610    0.69000000    2.69000006
   14.57861137  167.42399597    0.70999998    2.67000008
   14.58138847  170.58599854    0.69000000    2.67000008
   14.58222198  171.39999390    0.69000000    2.67000008
   14.58555508  177.75700378    0.70999998    2.69000006
   14.58888817  176.66499329    0.70999998    2.67000008
   14.59194374  178.53599548    0.70999998    2.69000006
   14.59527779  179.86799622    0.70999998    2.69000006
   14.59833336  171.55299377    0.70999998    2.67000008
   14.60166740  191.26199341    0.75000000    2.69000006
   14.60500050  174.24299622    0.75000000    2.67000008
   14.61111164  174.24299622    0.75000000    2.67000008
   14.61500072  179.57699585    0.73000002    2.69000006
   14.61833382  185.46400452    0.73000002    2.69000006
   14.62166691  175.57699585    0.73000002    2.69000006
   14.62500000  165.68800354    0.73000002    2.69000006
   14.62805557  174.43600464    0.73000002    2.69000006
   14.63138866  179.41799927    0.70999998    2.69000006
   14.63472176  179.76600647    0.70999998    2.69000006
   14.63777733  169.85400391    0.70999998    2.69000006
   14.64111137  171.20599365    0.73000002    2.69000006
   14.64444447  173.60800171    0.73000002    2.69000006
   14.64777756  171.16799927    0.73000002    2.69000006
   14.64833355  175.92799377    0.73000002    2.69000006
   14.65388870  175.92799377    0.75000000    2.67000008
   14.65805531  175.23100281    0.76999998    2.69000006
   14.66111088  163.07699585    0.76999998    2.69000006
   14.66444397  186.18099976    0.81999999    2.69000006
   14.66750050  182.97799683    0.81999999    2.69000006
   14.67083359  166.69400024    0.79000002    2.69000006
   14.67416668  179.14900208    0.79000002    2.69000006
   14.67722225  170.45199585    0.79000002    2.69000006
   14.68055630  161.49400330    0.83999997    2.69000006
   14.68166733  179.29800415    0.83999997    2.69000006
   14.68416691  174.62500000    0.86000001    2.69000006
   14.68750000  158.39300537    0.86000001    2.69000006
   14.69083309  173.23899841    0.81999999    2.69000006
   14.69666672  173.23899841    0.76999998    2.69000006
   14.70083332  163.53900146    0.75000000    2.69000006
   14.70388889  174.82699585    0.73000002    2.69000006
   14.70722198  174.99499512    0.73000002    2.69000006
   14.71055508  179.58399963    0.73000002    2.69000006
   14.71361065  161.20100403    0.70999998    2.69000006
   14.71500015  169.37199402    0.70999998    2.69000006
   14.71722221  163.30599976    0.70999998    2.69000006
   14.72055531  165.72500610    0.70999998    2.69000006
   14.72388840  168.55700684    0.70999998    2.69000006
   14.72694397  162.07600403    0.69000000    2.69000006
   14.73027706  169.19200134    0.69000000    2.71000004
   14.73333359  169.16999817    0.69000000    2.69000006
   14.73944473  169.16999817    0.69000000    2.69000006
   14.74361134  163.55200195    0.67000002    2.69000006
   14.74694443  168.68299866    0.67000002    2.69000006
   14.74833393  157.86599731    0.67000002    2.69000006
   14.75027752  156.76699829    0.69000000    2.69000006
   14.75361156  159.71699524    0.69000000    2.69000006
   14.75694466  164.17999268    0.67000002    2.69000006
   14.76000023  155.85400391    0.67000002    2.69000006
   14.76333332  150.92700195    0.67000002    2.69000006
   14.76638889  162.15699768    0.67000002    2.69000006
   14.76972198  151.13299561    0.67000002    2.69000006
   14.77305508  176.40100098    0.67000002    2.71000004
   14.77611065  164.35000610    0.64999998    2.69000006
   14.78222179  164.35000610    0.64999998    2.69000006
   14.78638935  158.13099670    0.64999998    2.69000006
   14.78972244  155.44400024    0.64999998    2.69000006
   14.79277802  159.05499268    0.64999998    2.69000006
   14.79611111  164.74000549    0.64999998    2.69000006
   14.79944515  154.50500488    0.64999998    2.69000006
   14.80249977  163.31599426    0.64999998    2.69000006
   14.80583382  160.10499573    0.64999998    2.69000006
   14.80916691  167.47599792    0.64999998    2.71000004
   14.81222248  151.04200745    0.64999998    2.71000004
   14.81500053  161.60899353    0.64999998    2.69000006
   14.81583309  152.92599487    0.64999998    2.69000006
   14.81916618  156.21099854    0.67000002    2.69000006
   14.82527733  156.21099854    0.67000002    2.71000004
   14.82944393  157.69500732    0.67000002    2.71000004
   14.83249950  153.53399658    0.67000002    2.69000006
   14.83583260  153.16700745    0.67000002    2.71000004
   14.83888817  153.45100403    0.69000000    2.69000006
   14.84222221  150.51199341    0.67000002    2.69000006
   14.84555531  156.68800354    0.69000000    2.69000006
   14.84833336  152.67199707    0.67000002    2.69000006
   14.84888840  145.63600159    0.67000002    2.71000004
   14.85222244  152.64399719    0.67000002    2.69000006
   14.85555553  159.03100586    0.67000002    2.69000006
   14.85861111  152.38400269    0.67000002    2.71000004
   14.86194515  147.21699524    0.67000002    2.71000004
   14.86805534  147.21699524    0.69000000    2.69000006
   14.87222195  156.54600525    0.69000000    2.71000004
   14.87527752  145.15899658    0.69000000    2.71000004
   14.87861156  149.75100708    0.67000002    2.69000006
   14.88166714  147.16099548    0.67000002    2.69000006
   14.88222218  160.41400146    0.67000002    2.69000006
   14.88555527  156.57200623    0.67000002    2.69000006
   14.88888836  141.11700439    0.64999998    2.71000004
   14.89194393  163.87699890    0.64999998    2.69000006
   14.89527798  157.60000610    0.64999998    2.69000006
   14.89833355  159.39199829    0.64999998    2.69000006
   14.90166664  154.11999512    0.64999998    2.69000006
   14.90499973  153.09899902    0.64999998    2.71000004
   14.91083336  153.09899902    0.64999998    2.71000004
   14.91499996  149.66299438    0.64999998    2.71000004
   14.91833401  152.01100159    0.67000002    2.69000006
   14.92138958  152.80700684    0.64999998    2.69000006
   14.92472267  148.32499695    0.64999998    2.69000006
   14.92805576  162.45399475    0.64999998    2.69000006
   14.93111134  153.15800476    0.67000002    2.71000004
   14.93444443  145.25300598    0.67000002    2.71000004
   14.93777752  148.06599426    0.64999998    2.71000004
   14.94083309  155.14799500    0.64999998    2.69000006
   14.94416714  146.05099487    0.64999998    2.71000004
   14.94750023  148.57800293    0.64999998    2.71000004
   14.94833374  145.85000610    0.64999998    2.71000004
   14.95361137  145.85000610    0.64999998    2.71000004
   14.95777798  149.28500366    0.63000000    2.71000004
   14.96111107  149.62600708    0.63000000    2.71000004
   14.96416664  145.94400024    0.63000000    2.71000004
   14.96749973  145.29600525    0.63000000    2.71000004
   14.97083282  144.22399902    0.63000000    2.71000004
   14.97388840  143.15100098    0.63000000    2.71000004
   14.97722149  152.37300110    0.63000000    2.71000004
   14.98055553  151.08200073    0.63000000    2.71000004
   14.98166656  155.21800232    0.64999998    2.71000004
   14.98388958  148.07000732    0.64999998    2.71000004
   14.98722267  143.74200439    0.63000000    2.71000004
   14.99055576  151.86900330    0.63000000    2.71000004
   14.99666691  151.86900330    0.63000000    2.71000004
   15.00083351  148.76499939    0.63000000    2.71000004
   15.00388908  148.37300110    0.63000000    2.71000004
   15.00722218  143.41600037    0.63000000    2.71000004
   15.01055527  146.72300720    0.63000000    2.71000004
   15.01388931  145.72399902    0.63000000    2.71000004
   15.01500034  153.00700378    0.63000000    2.71000004
   15.01749992  147.25799561    0.63000000    2.73000002
   15.02055550  139.55599976    0.63000000    2.73000002
   15.02388859  142.64900208    0.63000000    2.73000002
   15.02694416  141.32000732    0.63000000    2.71000004
   15.03027725  143.65100098    0.63000000    2.71000004
   15.03361130  142.59399414    0.63000000    2.71000004
   15.03944492  142.59399414    0.63000000    2.71000004
   15.04361153  145.58000183    0.63000000    2.71000004
   15.04666710  139.81799316    0.63000000    2.71000004
   15.04833412  138.87399292    0.63000000    2.71000004
   15.05027771  135.43699646    0.63000000    2.71000004
   15.05361176  142.91299438    0.63000000    2.71000004
   15.05694485  141.80599976    0.64999998    2.71000004
   15.06000042  155.24000549    0.64999998    2.71000004
   15.06333351  141.62500000    0.64999998    2.71000004
   15.06666660  139.45399475    0.64999998    2.71000004
   15.06972218  142.63699341    0.63000000    2.71000004
   15.07305527  145.21299744    0.63000000    2.71000004
   15.07611084  144.19999695    0.64999998    2.71000004
   15.08222198  144.19999695    0.63000000    2.71000004
   15.08638859  141.01800537    0.63000000    2.71000004
   15.08972168  143.66299438    0.63000000    2.71000004
   15.09277725  146.61900330    0.61000001    2.71000004
   15.09611034  143.99000549    0.61000001    2.71000004
   15.09944439  136.11799622    0.61000001    2.71000004
   15.10249996  144.11399841    0.63000000    2.71000004
   15.10583401  140.32299805    0.63000000    2.71000004
   15.10916710  142.30599976    0.63000000    2.73000002
   15.11222267  145.20100403    0.63000000    2.73000002
   15.11500072  139.59100342    0.63000000    2.73000002
   15.11583328  139.91999817    0.63000000    2.71000004
   15.11916637  144.30299377    0.63000000    2.71000004
   15.12500000  144.30299377    0.63000000    2.71000004
   15.12916660  143.51400757    0.63000000    2.71000004
   15.13249969  143.69000244    0.64999998    2.71000004
   15.13583279  148.04899597    0.63000000    2.71000004
   15.13888836  145.88099670    0.63000000    2.71000004
   15.14222240  148.02299500    0.63000000    2.71000004
   15.14555550  144.72200012    0.63000000    2.71000004
   15.14833355  137.48500061    0.63000000    2.71000004
   15.14888859  134.81100464    0.63000000    2.71000004
   15.15222168  140.74000549    0.63000000    2.71000004
   15.15555477  153.86900330    0.63000000    2.71000004
   15.15861034  143.71299744    0.63000000    2.71000004
   15.16194439  147.83700562    0.63000000    2.71000004
   15.16805553  147.83700562    0.63000000    2.71000004
   15.17222214  146.91499329    0.63000000    2.71000004
   15.17527771  148.51600647    0.63000000    2.71000004
   15.17861176  132.02999878    0.63000000    2.71000004
   15.18166733  150.09700012    0.61000001    2.71000004
   15.18194485  149.72099304    0.61000001    2.71000004
   15.18527794  138.06100464    0.61000001    2.71000004
   15.18861103  142.93499756    0.61000001    2.71000004
   15.19166660  139.99499512    0.61000001    2.73000002
   15.19499969  131.65100098    0.61000001    2.73000002
   15.19833374  138.11999512    0.61000001    2.71000004
   15.20138836  140.60899353    0.58999997    2.71000004
   15.20472240  139.42300415    0.61000001    2.73000002
   15.21083355  139.42300415    0.61000001    2.73000002
   15.21500015  133.67599487    0.61000001    2.73000002
   15.21527767  134.44799805    0.61000001    2.71000004
   15.21861076  140.73899841    0.61000001    2.71000004
   15.22194386  143.98399353    0.61000001    2.73000002
   15.22499943  144.09300232    0.61000001    2.73000002
   15.22833252  152.78399658    0.61000001    2.71000004
   15.23166656  141.61999512    0.61000001    2.71000004
   15.23472214  134.17999268    0.61000001    2.71000004
   15.23805618  135.99400330    0.61000001    2.73000002
   15.24111176  131.89199829    0.58999997    2.73000002
   15.24444485  135.61700439    0.61000001    2.73000002
   15.24777794  124.19100189    0.61000001    2.71000004
   15.24833393  125.14299774    0.61000001    2.71000004
   15.25361156  125.14299774    0.63000000    2.73000002
   15.25777817  132.76400757    0.63000000    2.73000002
   15.26111126  139.86000061    0.63000000    2.73000002
   15.26416683  139.24499512    0.61000001    2.73000002
   15.28194427  138.31199646    0.61000001    2.71000004
   15.28416729  137.72200012    0.61000001    2.73000002
   15.28750038  141.80000305    0.63000000    2.71000004
   15.29055595  141.29699707    0.63000000    2.71000004
   15.29666710  141.29699707    0.63000000    2.73000002
   15.30083370  132.99000549    0.61000001    2.73000002
   15.30388927  123.77999878    0.61000001    2.73000002
   15.30722237  125.53900146    0.61000001    2.73000002
   15.31055546  143.32699585    0.61000001    2.73000002
   15.31361103  132.05000305    0.61000001    2.73000002
   15.31500053  134.30200195    0.61000001    2.73000002
   15.31722260  132.63200378    0.61000001    2.73000002
   15.32027817  130.08700562    0.61000001    2.73000002
   15.32361126  134.51600647    0.61000001    2.73000002
   15.32694435  133.92199707    0.61000001    2.73000002
   15.32999992  133.25999451    0.61000001    2.73000002
   15.33333302  132.75000000    0.61000001    2.73000002
   15.33944416  132.75000000    0.61000001    2.73000002
   15.34361076  134.81300354    0.61000001    2.73000002
   15.34694386  135.19799805    0.61000001    2.73000002
   15.34833336  139.67900085    0.61000001    2.73000002
   15.35055637  131.35899353    0.61000001    2.73000002
   15.35388947  138.58599854    0.61000001    2.73000002
   15.35694504  138.45500183    0.61000001    2.73000002
   15.36027813  142.64300537    0.61000001    2.73000002
   15.36333370  136.20100403    0.61000001    2.73000002
   15.36694431  139.88000488    0.61000001    2.73000002
   15.37027836  140.31100464    0.61000001    2.73000002
   15.37333393  140.91499329    0.61000001    2.73000002
   15.37666702  132.45799255    0.61000001    2.73000002
   15.38222218  132.45799255    0.61000001    2.73000002
   15.38638878  137.35299683    0.61000001    2.73000002
   15.38972187  138.16799927    0.61000001    2.73000002
   15.39305496  140.83200073    0.61000001    2.73000002
   15.39611053  135.65299988    0.61000001    2.73000002
   15.39944458  138.61399841    0.61000001    2.73000002
   15.40249920  134.37899780    0.58999997    2.73000002
   15.40583324  136.09700012    0.58999997    2.73000002
   15.40916634  133.61199951    0.58999997    2.73000002
   15.41222191  137.76800537    0.58999997    2.73000002
   15.41499996  130.46299744    0.58999997    2.73000002
   15.41583252  135.43800354    0.58999997    2.73000002
   15.41916656  137.40800476    0.58999997    2.73000002
   15.42527771  137.40800476    0.56999999    2.73000002
   15.42944431  142.44400024    0.58999997    2.73000002
   15.43249989  141.92100525    0.58999997    2.73000002
   15.43583298  145.93299866    0.58999997    2.73000002
   15.43888855  139.98199463    0.58999997    2.73000002
   15.44222260  131.11399841    0.58999997    2.73000002
   15.44555569  136.82800293    0.58999997    2.73000002
   15.44833374  133.17999268    0.58999997    2.73000002
   15.44916630  130.21299744    0.58999997    2.73000002
   15.45249939  141.36599731    0.58999997    2.73000002
   15.45583344  141.37100220    0.61000001    2.73000002
   15.45888901  133.02200317    0.61000001    2.73000002
   15.46222210  134.56900024    0.61000001    2.73000002
   15.46805477  134.56900024    0.61000001    2.75000000
   15.47222137  137.95500183    0.61000001    2.73000002
   15.47527695  133.73199463    0.61000001    2.73000002
   15.47861099  131.30000305    0.61000001    2.73000002
   15.48166656  136.97000122    0.58999997    2.73000002
   15.48222160  133.96899414    0.58999997    2.73000002
   15.48555565  144.03500366    0.61000001    2.73000002
   15.48861122  133.22000122    0.61000001    2.73000002
   15.49194431  138.88000488    0.61000001    2.73000002
   15.49499989  135.19200134    0.61000001    2.73000002
   15.49833393  131.80700684    0.61000001    2.75000000
   15.50166702  135.40199280    0.61000001    2.75000000
   15.50472260  135.81900024    0.61000001    2.73000002
   15.51083374  135.81900024    0.61000001    2.75000000
   15.51500034  121.38500214    0.61000001    2.73000002
   15.51555538  124.01799774    0.61000001    2.73000002
   15.51861095  124.47899628    0.61000001    2.73000002
   15.52194405  130.95199585    0.63000000    2.75000000
   15.52527714  133.11900330    0.63000000    2.73000002
   15.52833271  138.75799561    0.61000001    2.75000000
   15.53166676  135.73199463    0.61000001    2.75000000
   15.53472233  137.96499634    0.63000000    2.73000002
   15.53805637  139.63800049    0.61000001    2.73000002
   15.54138947  140.52200317    0.61000001    2.73000002
   15.54444504  133.40600586    0.64999998    2.75000000
   15.54777813  126.07299805    0.64999998    2.73000002
   15.54888916  137.59899902    0.64999998    2.73000002
   15.55361176  137.59899902    0.61000001    2.73000002
   15.55777836  138.39300537    0.63000000    2.75000000
   15.56111145  132.95399475    0.64999998    2.75000000
   15.56444454  129.28100586    0.64999998    2.75000000
   15.56750011  132.68299866    0.63000000    2.73000002
   15.57083321  145.05000305    0.63000000    2.73000002
   15.57388878  129.00399780    0.63000000    2.73000002
   15.57722187  134.28999329    0.63000000    2.73000002
   15.58055592  134.43200684    0.63000000    2.73000002
   15.58222198  126.05300140    0.63000000    2.73000002
   15.58388901  134.32000732    0.61000001    2.73000002
   15.58722210  136.33000183    0.58999997    2.73000002
   15.59055519  135.28599548    0.58999997    2.73000002
   15.59666634  135.28599548    0.56999999    2.73000002
   15.60055637  130.58599854    0.56999999    2.73000002
   15.60388947  142.47399902    0.56999999    2.73000002
   15.60722256  135.18800354    0.56999999    2.75000000
   15.61027813  120.77200317    0.56999999    2.73000002
   15.61361122  135.23599243    0.56999999    2.73000002
   15.61555576  132.76300049    0.56999999    2.73000002
   15.61722279  129.30999756    0.56999999    2.73000002
   15.62055588  134.45599365    0.56999999    2.75000000
   15.62388897  127.26799774    0.56999999    2.73000002
   15.62694454  131.49800110    0.56999999    2.75000000
   15.63027763  135.65400696    0.56999999    2.73000002
   15.63361073  132.72099304    0.56999999    2.73000002
   15.63944435  132.72099304    0.56999999    2.75000000
   15.64361095  133.87699890    0.55000001    2.73000002
   15.64666653  135.04600525    0.56999999    2.75000000
   15.64888859  139.76899719    0.56999999    2.75000000
   15.65027714  131.44900513    0.56999999    2.75000000
   15.65361118  134.84300232    0.56999999    2.73000002
   15.65694427  137.81100464    0.55000001    2.75000000
   15.65999985  125.75000000    0.55000001    2.73000002
   15.66333294  141.53199768    0.55000001    2.75000000
   15.66666698  129.35400391    0.55000001    2.75000000
   15.66972256  130.50500488    0.55000001    2.75000000
   15.67305565  138.84100342    0.55000001    2.75000000
   15.67611122  132.20599365    0.55000001    2.75000000
   15.68222237  132.20599365    0.55000001    2.73000002
   15.68638897  123.45899963    0.55000001    2.75000000
   15.68972206  138.03999329    0.55000001    2.75000000
   15.69277763  130.63200378    0.55000001    2.75000000
   15.69611073  131.77099609    0.56999999    2.75000000
   15.69944477  131.97399902    0.56999999    2.73000002
   15.70249939  143.36099243    0.58999997    2.73000002
   15.70583344  138.65400696    0.61000001    2.73000002
   15.70916653  129.33200073    0.69000000    2.73000002
   15.71222210  138.93899536    0.70999998    2.73000002
   15.71555519  134.00199890    0.70999998    2.73000002
   15.71583271  130.66400146    0.70999998    2.73000002
   15.71916580  134.62899780    0.67000002    2.73000002
   15.72499943  134.62899780    0.70999998    2.75000000
   15.72916603  122.63800049    0.69000000    2.73000002
   15.73249912  127.92700195    0.67000002    2.73000002
   15.73555565  130.41999817    0.67000002    2.73000002
   15.73888874  135.94700623    0.64999998    2.73000002
   15.74222279  136.79499817    0.63000000    2.75000000
   15.74527836  141.06399536    0.63000000    2.75000000
   15.74861145  140.63499451    0.63000000    2.75000000
   15.74916649  130.05400085    0.63000000    2.75000000
   15.75249958  135.10200500    0.63000000    2.75000000
   15.75583363  140.40299988    0.61000001    2.75000000
   15.75888920  138.55400085    0.61000001    2.75000000
   15.76222229  138.53399658    0.58999997    2.75000000
   15.76805496  138.53399658    0.56999999    2.73000002
   15.77194405  132.82800293    0.56999999    2.75000000
   15.77527714  143.51400757    0.56999999    2.75000000
   15.77861118  140.16000366    0.56999999    2.75000000
   15.78166676  136.14199829    0.56999999    2.75000000
   15.78249931  137.37199402    0.56999999    2.75000000
   15.78555584  134.28100586    0.56999999    2.73000002
   15.78861141  147.50399780    0.55000001    2.75000000
   15.79194450  130.55499268    0.55000001    2.75000000
   15.79500008  151.97300720    0.55000001    2.73000002
   15.79833412  134.59599304    0.55000001    2.75000000
   15.80166721  136.73800659    0.55000001    2.75000000
   15.80472279  144.53599548    0.55000001    2.75000000
   15.81083393  144.53599548    0.55000001    2.75000000
   15.81500053  138.30900574    0.55000001    2.73000002
   15.81583309  125.09899902    0.55000001    2.73000002
   15.81833363  141.90199280    0.55000001    2.75000000
   15.82166672  131.28199768    0.55000001    2.75000000
   15.82499981  131.88999939    0.55000001    2.75000000
   15.82805538  125.31900024    0.55000001    2.75000000
   15.83138847  136.41799927    0.55000001    2.75000000
   15.83472157  130.29499817    0.55000001    2.75000000
   15.83777714  140.45500183    0.55000001    2.75000000
   15.84111118  138.18099976    0.55000001    2.75000000
   15.84416676  133.28700256    0.55000001    2.75000000
   15.84749985  138.31500244    0.55000001    2.75000000
   15.84916592  141.67100525    0.55000001    2.75000000
   15.85361195  141.67100525    0.55000001    2.73000002
   15.85777855  145.42799377    0.56999999    2.75000000
   15.86111164  133.68499756    0.56999999    2.75000000
   15.86416721  130.32699585    0.55000001    2.75000000
   15.86750031  136.51699829    0.56999999    2.75000000
   15.87083340  135.87800598    0.55000001    2.75000000
   15.87388897  133.01300049    0.56999999    2.75000000
   15.87722206  149.58700562    0.56999999    2.75000000
   15.88055611  138.18499756    0.56999999    2.75000000
   15.88249969  131.21499634    0.55000001    2.75000000
   15.88416672  130.34899902    0.55000001    2.75000000
   15.88722229  134.56199646    0.56999999    2.75000000
   15.89055538  123.12999725    0.55000001    2.73000002
   15.89638901  123.12999725    0.56999999    2.73000002
   15.90055561  133.95899963    0.64999998    2.73000002
   15.90388870  141.27900696    0.64999998    2.73000002
   15.90694427  138.89799500    0.64999998    2.73000002
   15.91027737  140.17999268    0.63000000    2.75000000
   15.91361046  129.33099365    0.64999998    2.75000000
   15.91583252  123.38999939    0.63000000    2.75000000
   15.91694450  128.08399963    0.63000000    2.75000000
   15.92027855  132.40899658    0.63000000    2.73000002
   15.92361164  128.92900085    0.63000000    2.73000002
   15.92666721  144.47500610    0.61000001    2.73000002
   15.93000031  141.39799500    0.58999997    2.75000000
   15.93333340  129.25100708    0.56999999    2.75000000
   15.93944454  129.25100708    0.55000001    2.75000000
   15.94333363  120.84400177    0.56999999    2.75000000
   15.94666672  142.41099548    0.55000001    2.75000000
   15.94916630  135.38900757    0.55000001    2.73000002
   15.95027733  140.88099670    0.55000001    2.73000002
   15.95361137  138.87500000    0.55000001    2.75000000
   15.95694447  137.02099609    0.55000001    2.73000002
   15.96000004  139.10899353    0.55000001    2.73000002
   15.96333313  137.03500366    0.55000001    2.75000000
   15.96666622  135.59300232    0.55000001    2.75000000
   15.96972179  146.46499634    0.55000001    2.75000000
   15.97305489  142.31399536    0.61000001    2.73000002
   15.97611046  139.34399414    0.63000000    2.75000000
   15.98222160  139.34399414    0.64999998    2.75000000
   15.98638916  122.89600372    0.63000000    2.75000000
   15.98944473  137.22799683    0.63000000    2.75000000
   15.99277782  144.21600342    0.64999998    2.75000000
   15.99611092  139.37600708    0.63000000    2.75000000
   15.99916649  141.23199463    0.63000000    2.75000000
   16.00250053  128.17500305    0.64999998    2.75000000
   16.00583267  128.32600403    0.64999998    2.75000000
   16.00888824  132.30599976    0.63000000    2.73000002
   16.01222229  120.66999817    0.64999998    2.75000000
   16.01527786  131.14300537    0.63000000    2.73000002
   16.01722145  129.79299927    0.63000000    2.73000002
   16.01888847  130.07800293    0.64999998    2.75000000
   16.02499962  130.07800293    0.67000002    2.75000000
   16.02916718  119.68299866    0.63000000    2.73000002
   16.03249931  136.10400391    0.63000000    2.73000002
   16.03555489  131.17100525    0.63000000    2.75000000
   16.03888893  134.32899475    0.61000001    2.75000000
   16.04222107  126.53199768    0.61000001    2.75000000
   16.04527664  130.67999268    0.58999997    2.75000000
   16.04861069  134.56199646    0.58999997    2.75000000
   16.05055428  137.31900024    0.56999999    2.73000002
   16.05194283  131.42100525    0.56999999    2.73000002
   16.05527687  129.35400391    0.56999999    2.75000000
   16.05861092  136.27999878    0.55000001    2.75000000
   16.06166649  135.97900391    0.55000001    2.75000000
   16.06777954  135.97900391    0.55000001    2.75000000
   16.07194519  126.76699829    0.55000001    2.73000002
   16.07527924  140.97900391    0.52999997    2.75000000
   16.07833481  140.86199951    0.52999997    2.75000000
   16.08166695  135.44500732    0.55000001    2.75000000
   16.08416748  142.46800232    0.55000001    2.75000000
   16.08527756  131.12100220    0.52999997    2.75000000
   16.08861160  133.01100159    0.52999997    2.75000000
   16.09166718  137.13200378    0.52999997    2.75000000
   16.09500122  138.10400391    0.52999997    2.75000000
   16.09833336  143.81300354    0.52999997    2.75000000
   16.10138893  131.32400513    0.52999997    2.75000000
   16.10472298  134.60899353    0.51999998    2.75000000
   16.11083412  134.60899353    0.52999997    2.75000000
   16.11472321  141.92399597    0.51999998    2.75000000
   16.11750031  141.28799438    0.51999998    2.75000000
   16.11833382  128.00500488    0.51999998    2.75000000
   16.12166595  141.56599426    0.52999997    2.75000000
   16.12500000  148.55299377    0.51999998    2.73000002
   16.12805557  144.38900757    0.51999998    2.75000000
   16.13138962  153.84700012    0.51999998    2.75000000
   16.13444519  143.47399902    0.51999998    2.75000000
   16.13777733  155.13200378    0.51999998    2.75000000
   16.14111137  153.40100098    0.52999997    2.75000000
   16.14416695  148.12100220    0.51999998    2.75000000
   16.14749908  149.00500488    0.51999998    2.75000000
   16.15361023  149.00500488    0.52999997    2.75000000
   16.15777779  162.61500549    0.52999997    2.75000000
   16.16083336  145.52099609    0.52999997    2.75000000
   16.16416550  147.54299927    0.55000001    2.75000000
   16.16749954  145.80400085    0.55000001    2.75000000
   16.17055511  141.74000549    0.52999997    2.75000000
   16.17388916  148.66999817    0.52999997    2.75000000
   16.17694473  153.97399902    0.52999997    2.75000000
   16.18027687  148.47200012    0.55000001    2.75000000
   16.18361092  139.79600525    0.56999999    2.75000000
   16.18444443  143.54100037    0.56999999    2.75000000
   16.18722153  146.44599915    0.56999999    2.75000000
   16.19027710  143.78500366    0.56999999    2.75000000
   16.19638824  143.78500366    0.58999997    2.75000000
   16.20055580  147.14399719    0.58999997    2.75000000
   16.20388985  139.38200378    0.58999997    2.75000000
   16.20722389  144.70300293    0.58999997    2.75000000
   16.21027946  139.12199402    0.58999997    2.75000000
   16.21361160  133.27499390    0.56999999    2.75000000
   16.21666718  137.78500366    0.58999997    2.75000000
   16.21777916  134.82899475    0.58999997    2.75000000
   16.22055626  138.48599243    0.56999999    2.75000000
   16.22361183  132.19299316    0.56999999    2.75000000
   16.22694588  134.35899353    0.55000001    2.75000000
   16.23027802  136.57200623    0.55000001    2.75000000
   16.23333359  135.30099487    0.56999999    2.75000000
   16.23916626  135.30099487    0.56999999    2.75000000
   16.24333382  147.52699280    0.56999999    2.75000000
   16.24666786  141.13800049    0.56999999    2.75000000
   16.24972153  146.12399292    0.56999999    2.75000000
   16.25138855  137.40600586    0.56999999    2.75000000
   16.25333405  142.26600647    0.56999999    2.75000000
   16.25666618  129.58399963    0.56999999    2.75000000
   16.26000023  140.37399292    0.56999999    2.75000000
   16.26305580  138.18499756    0.55000001    2.75000000
   16.26638794  141.01400757    0.55000001    2.75000000
   16.26972198  133.98500061    0.55000001    2.75000000
   16.27277756  135.25500488    0.55000001    2.75000000
   16.27611160  149.72900391    0.52999997    2.75000000
   16.28222275  149.72900391    0.52999997    2.75000000
   16.30055428  129.35200500    0.52999997    2.75000000
   16.30360985  142.22700500    0.52999997    2.75000000
   16.30694389  130.23500061    0.52999997    2.75000000
   16.31027794  129.69000244    0.52999997    2.75000000
   16.31333351  122.46199799    0.52999997    2.75000000
   16.31666756  133.21699524    0.52999997    2.75000000
   16.31972313  135.55799866    0.52999997    2.75000000
   16.32527924  135.55799866    0.52999997    2.75000000
   16.32916832  141.57400513    0.51999998    2.76999998
   16.33250046  137.36099243    0.52999997    2.75000000
   16.33361244  132.08200073    0.51999998    2.75000000
   16.33611107  140.91799927    0.51999998    2.75000000
   16.33944511  130.60299683    0.51999998    2.75000000
   16.34250069  139.88299561    0.51999998    2.75000000
   16.34583473  135.41400146    0.51999998    2.75000000
   16.34916687  138.35200500    0.52999997    2.75000000
   16.35222244  137.49800110    0.52999997    2.75000000
   16.35555649  138.72099304    0.52999997    2.75000000
   16.35888863  128.83799744    0.52999997    2.75000000
   16.36194420  132.15899658    0.52999997    2.75000000
   16.36805534  132.15899658    0.52999997    2.75000000
   16.37222290  135.93899536    0.52999997    2.75000000
   16.37527847  135.66200256    0.55000001    2.75000000
   16.37861061  134.59899902    0.52999997    2.75000000
   16.38166618  136.63200378    0.52999997    2.75000000
   16.38500023  132.47799683    0.52999997    2.75000000
   16.38833237  137.75799561    0.52999997    2.75000000
   16.39138794  139.96800232    0.51999998    2.75000000
   16.39472198  133.83200073    0.51999998    2.75000000
   16.39805603  126.83300018    0.51999998    2.75000000
   16.40027809  135.34599304    0.51999998    2.75000000
   16.40138817  129.98199463    0.51999998    2.75000000
   16.40472221  136.80000305    0.51999998    2.75000000
   16.41083336  136.80000305    0.52999997    2.75000000
   16.41499901  128.63600159    0.52999997    2.75000000
   16.41805458  128.49400330    0.51999998    2.73000002
   16.42138863  135.48599243    0.52999997    2.75000000
   16.42472076  142.44099426    0.51999998    2.75000000
   16.42777634  137.84800720    0.51999998    2.75000000
   16.43111038  140.24000549    0.51999998    2.75000000
   16.43361092  134.94099426    0.51999998    2.76999998
   16.43472099  136.90199280    0.51999998    2.76999998
   16.43805504  129.23699951    0.52999997    2.76999998
   16.44138718  136.72300720    0.51999998    2.75000000
   16.44444275  129.93200684    0.51999998    2.75000000
   16.44777679  137.23399353    0.51999998    2.75000000
   16.45361137  137.23399353    0.52999997    2.75000000
   16.45777893  138.63299561    0.56999999    2.75000000
   16.46111107  129.45300293    0.63000000    2.75000000
   16.46416664  132.18099976    0.64999998    2.75000000
   16.46694565  135.06700134    0.64999998    2.75000000
   16.46805573  128.78500366    0.64999998    2.75000000
   16.47111130  134.52999878    0.67000002    2.75000000
   16.47444534  142.69099426    0.67000002    2.75000000
   16.47777748  136.36099243    0.63000000    2.75000000
   16.48083305  143.34700012    0.63000000    2.75000000
   16.48416710  132.66600037    0.61000001    2.76999998
   16.48722267  132.39300537    0.63000000    2.75000000
   16.49055672  134.30099487    0.64999998    2.75000000
   16.49666786  134.30099487    0.64999998    2.75000000
   16.50055504  129.83200073    0.61000001    2.75000000
   16.50388908  126.86299896    0.61000001    2.75000000
   16.50722313  141.50900269    0.61000001    2.75000000
   16.51027870  126.79299927    0.56999999    2.75000000
   16.51361084  135.72000122    0.56999999    2.75000000
   16.51694489  137.41700745    0.55000001    2.75000000
   16.52000046  138.35699463    0.55000001    2.75000000
   16.52333260  140.19900513    0.55000001    2.75000000
   16.52638817  131.98199463    0.56999999    2.75000000
   16.52972221  143.25900269    0.55000001    2.75000000
   16.53305435  140.66099548    0.55000001    2.75000000
   16.53361130  132.08299255    0.55000001    2.75000000
   16.53944397  132.08299255    0.56999999    2.75000000
   16.54361153  137.76899719    0.55000001    2.75000000
   16.54666710  135.97300720    0.55000001    2.75000000
   16.54999924  132.01400757    0.55000001    2.75000000
   16.55333328  135.05000305    0.56999999    2.75000000
   16.55638885  140.21099854    0.61000001    2.75000000
   16.55972099  147.76899719    0.63000000    2.75000000
   16.56277657  140.66299438    0.61000001    2.75000000
   16.56611061  143.22500610    0.64999998    2.75000000
   16.56694603  143.59300232    0.64999998    2.75000000
   16.57000160  132.16799927    0.64999998    2.75000000
   16.57333374  133.17799377    0.64999998    2.75000000
   16.57666779  136.48100281    0.67000002    2.75000000
   16.58222389  136.48100281    0.67000002    2.75000000
   16.58638954  144.38400269    0.64999998    2.76999998
   16.58972359  135.58799744    0.61000001    2.75000000
   16.59277916  128.05400085    0.61000001    2.75000000
   16.59611130  130.17199707    0.63000000    2.75000000
   16.59916687  119.77200317    0.63000000    2.75000000
   16.60027885  131.83299255    0.61000001    2.75000000
   16.60277748  135.51100159    0.61000001    2.75000000
   16.60611153  148.89100647    0.58999997    2.75000000
   16.60944557  142.63800049    0.58999997    2.75000000
   16.61250114  140.33000183    0.58999997    2.75000000
   16.61583328  143.43699646    0.61000001    2.75000000
   16.61916733  143.69500732    0.63000000    2.75000000
   16.62500000  143.69500732    0.63000000    2.75000000
   16.62916756  138.95500183    0.61000001    2.75000000
   16.63249969  131.61900330    0.58999997    2.76999998
   16.63361168  137.13099670    0.58999997    2.76999998
   16.63583374  134.23899841    0.56999999    2.75000000
   16.63916588  122.43599701    0.58999997    2.75000000
   16.64249992  146.91200256    0.55000001    2.75000000
   16.64555550  151.03300476    0.63000000    2.75000000
   16.64888954  130.67900085    0.63000000    2.75000000
   16.65194321  133.09399414    0.63000000    2.75000000
   16.65527725  143.35400391    0.64999998    2.75000000
   16.65861130  128.89700317    0.73000002    2.75000000
   16.66166687  128.27900696    0.75000000    2.75000000
   16.66777802  128.27900696    0.75000000    2.75000000
   16.67194366  124.56500244    0.76999998    2.75000000
   16.67527771  148.30299377    0.76999998    2.75000000
   16.67860985  164.50999451    0.79000002    2.75000000
   16.68166542  165.03500366    0.75000000    2.75000000
   16.68499947  149.98599243    0.70999998    2.75000000
   16.68805504  162.11199951    0.70999998    2.75000000
   16.69138718  159.54200745    0.67000002    2.75000000
   16.69472122  163.09100342    0.67000002    2.75000000
   16.69777679  168.76899719    0.64999998    2.75000000
   16.70027924  160.68499756    0.63000000    2.75000000
   16.70138931  176.51199341    0.63000000    2.75000000
   16.70472336  177.85299683    0.64999998    2.75000000
   16.71083450  177.85299683    0.63000000    2.75000000
   16.71500015  143.40800476    0.64999998    2.75000000
   16.71805573  153.60699463    0.64999998    2.75000000
   16.72138977  150.15400696    0.64999998    2.75000000
   16.72444534  155.78999329    0.64999998    2.75000000
   16.72777748  148.46200562    0.63000000    2.73000002
   16.73111153  166.63900757    0.61000001    2.75000000
   16.73361206  139.10800171    0.63000000    2.76999998
   16.73444557  139.08399963    0.63000000    2.76999998
   16.73777771  165.23500061    0.63000000    2.76999998
   16.74111176  125.20999908    0.61000001    2.76999998
   16.74416733  140.11900330    0.61000001    2.76999998
   16.74749947  151.82800293    0.58999997    2.75000000
   16.75361061  151.82800293    0.58999997    2.75000000
   16.75777817  144.77799988    0.56999999    2.75000000
   16.76083374  146.53500366    0.56999999    2.75000000
   16.76416588  153.80200195    0.55000001    2.75000000
   16.76694489  148.51100159    0.55000001    2.75000000
   16.76777840  145.50599670    0.55000001    2.75000000
   16.77111053  153.99499512    0.55000001    2.75000000
   16.77444458  156.86000061    0.55000001    2.75000000
   16.77750015  156.56900024    0.55000001    2.75000000
   16.78083229  155.86399841    0.56999999    2.75000000
   16.78416634  147.13299561    0.55000001    2.75000000
   16.78722191  136.39900208    0.55000001    2.75000000
   16.79055595  161.59899902    0.52999997    2.75000000
   16.79638863  161.59899902    0.52999997    2.75000000
   16.80055428  158.58000183    0.55000001    2.75000000
   16.80388832  166.88600159    0.55000001    2.75000000
   16.80722237  165.53100586    0.56999999    2.75000000
   16.81027794  140.45700073    0.56999999    2.75000000
   16.81361008  156.05999756    0.56999999    2.75000000
   16.81694603  154.47500610    0.55000001    2.76999998
   16.82000160  147.28399658    0.55000001    2.75000000
   16.82333374  154.95199585    0.52999997    2.75000000
   16.82638931  160.40600586    0.51999998    2.75000000
   16.82972336  165.10699463    0.51999998    2.76999998
   16.83305550  156.88400269    0.51999998    2.76999998
   16.83361244  149.37300110    0.51999998    2.75000000
   16.83916664  149.37300110    0.51999998    2.75000000
   16.84333420  134.57699585    0.51999998    2.75000000
   16.84666824  150.95599365    0.51999998    2.75000000
   16.85000038  145.34899902    0.51999998    2.75000000
   16.85305595  160.34599304    0.50000000    2.75000000
   16.85639000  136.04100037    0.47999999    2.75000000
   16.85944557  146.69099426    0.47999999    2.75000000
   16.86277771  155.98599243    0.47999999    2.75000000
   16.86611176  150.94099426    0.47999999    2.75000000
   16.86694527  142.54600525    0.47999999    2.75000000
   16.86944389  163.57699585    0.47999999    2.75000000
   16.87277794  145.21600342    0.46000001    2.76999998
   16.87611198  145.70500183    0.47999999    2.75000000
   16.88222313  145.70500183    0.51999998    2.75000000
   16.88638878  160.46499634    0.51999998    2.75000000
   16.88944435  155.53900146    0.55000001    2.75000000
   16.89277840  151.40899658    0.56999999    2.75000000
   16.89611053  138.29800415    0.56999999    2.75000000
   16.89916611  151.07699585    0.67000002    2.75000000
   16.90027809  143.36900330    0.67000002    2.75000000
   16.90277672  141.35299683    0.89999998    2.76999998
   16.90611076  157.57699585    1.01999998    2.75000000
   16.90944481  144.31700134    1.05999994    2.75000000
   16.91250038  132.94799805    1.46000004    2.73000002
   16.91583252  146.31599426    1.76999998    2.73000002
   16.91916656  146.32899475    1.78999996    2.73000002
   16.92499924  146.32899475    2.07999992    2.71000004
   16.92916679  142.74299622    2.17000008    2.71000004
   16.93222237  139.30000305    2.36999989    2.75000000
   16.93361092  131.68499756    2.40000010    2.75000000
   16.93610954  133.77999878    2.48000002    2.75000000
   16.93916512  137.32000732    2.48000002    2.69000006
   16.94249916  139.23399353    2.59999990    2.71000004
   16.94555473  143.80999756    2.80999994    2.71000004
   16.94888878  132.46000671    2.96000004    2.71000004
   16.95222282  130.40499878    3.00000000    2.71000004
   16.95527840  134.66600037    3.01999998    2.71000004
   16.95861244  126.97699738    3.05999994    2.73000002
   16.96194458  132.25000000    3.11999989    2.73000002
   16.96777916  132.25000000    3.50000000    2.71000004
   16.97194481  126.53900146    3.76999998    2.71000004
   16.97527885  129.02000427    3.93000007    2.71000004
   16.97833443  123.76300049    4.11999989    2.71000004
   16.98166656  131.74400330    4.34999990    2.69000006
   16.98500061  129.76800537    4.44999981    2.66000009
   16.98805618  139.06100464    4.38999987    2.64000010
   16.99138832  137.22300720    4.23999977    2.66000009
   16.99444389  132.85699463    4.05999994    2.67000008
   16.99777794  136.33999634    4.00000000    2.69000006
   17.00027847  140.75399780    4.11999989    2.71000004
   17.00111198  128.29200745    4.19999981    2.71000004
   17.00444412  143.20799255    4.36999989    2.71000004
   17.01055527  143.20799255    4.51000023    2.73000002
   17.01472282  136.05799866    4.57999992    2.71000004
   17.01805496  138.67100525    4.80000019    2.67000008
   17.02138901  138.59399414    4.90999985    2.69000006
   17.02444458  133.04800415    4.90999985    2.69000006
   17.02777672  148.25500488    4.90999985    2.69000006
   17.03083229  142.67900085    4.90999985    2.67000008
   17.03361130  132.18099976    4.90999985    2.66000009
   17.03444481  131.26699829    4.90999985    2.67000008
   17.03777695  143.19099426    4.90999985    2.71000004
   17.04111099  139.01600647    4.82999992    2.67000008
   17.04416656  123.37000275    4.65999985    2.71000004
   17.04749870  144.17999268    4.44999981    2.71000004
   17.05360985  144.17999268    4.26999998    2.69000006
   17.05777740  138.22999573    4.17999983    2.71000004
   17.06083298  142.94799805    4.03999996    2.71000004
   17.06416512  148.38900757    4.01999998    2.71000004
   17.06694603  143.75100708    4.21999979    2.71000004
   17.06750107  140.08099365    4.21999979    2.71000004
   17.07083511  135.41999817    4.61999989    2.71000004
   17.07416725  132.48800659    4.71999979    2.71000004
   17.07722282  137.63900757    4.61999989    2.71000004
   17.08055687  132.38600159    4.48999977    2.64000010
   17.08388901  140.80900574    4.53999996    2.64000010
   17.08694458  133.11999512    4.67999983    2.66000009
   17.09027863  154.47599792    4.26999998    2.69000006
   17.09638977  154.47599792    2.48000002    2.73000002
   17.10055542  130.10600281    1.63000000    2.76999998
   17.10361099  128.76199341    1.26999998    2.76999998
   17.10694504  142.85699463    0.76999998    2.75000000
   17.11027908  134.87300110    0.56999999    2.75000000
   17.11333466  139.67500305    0.52999997    2.76999998
   17.11666679  137.96699524    0.47999999    2.75000000
   17.12000084  130.14199829    0.47999999    2.76999998
   17.12305641  141.84800720    0.46000001    2.75000000
   17.12638855  145.23800659    0.47999999    2.75000000
   17.12972260  135.03700256    0.47999999    2.75000000
   17.13277817  130.07099915    0.47999999    2.75000000
   17.13361168  123.42600250    0.47999999    2.75000000
   17.13916588  123.42600250    0.47999999    2.75000000
   17.14333344  145.27400208    0.46000001    2.75000000
   17.14666748  140.05700684    0.46000001    2.75000000
   17.14972115  138.80499268    0.47999999    2.75000000
   17.15305519  132.71299744    0.47999999    2.75000000
   17.15638924  137.82600403    0.47999999    2.75000000
   17.15944481  134.02400208    0.47999999    2.75000000
   17.16277695  132.17700195    0.47999999    2.75000000
   17.16611099  136.15499878    0.47999999    2.75000000
   17.16694450  132.34800720    0.47999999    2.75000000
   17.16972160  132.09300232    0.47999999    2.75000000
   17.17277718  129.84599304    0.46000001    2.76999998
   17.17611122  138.32000732    0.47999999    2.75000000
   17.18194389  138.32000732    0.46000001    2.75000000
   17.18610954  143.77400208    0.47999999    2.75000000
   17.18944359  141.30099487    0.46000001    2.75000000
   17.19249916  148.88699341    0.47999999    2.75000000
   17.19583321  143.53599548    0.47999999    2.75000000
   17.19916534  133.74299622    0.47999999    2.75000000
   17.20027924  149.48500061    0.47999999    2.75000000
   17.20277786  143.17599487    0.46000001    2.75000000
   17.20583344  140.57000732    0.46000001    2.75000000
   17.20916748  145.58599854    0.46000001    2.75000000
   17.21222305  144.88600159    0.47999999    2.76999998
   17.21555710  149.40100098    0.47999999    2.75000000
   17.21888924  158.53399658    0.46000001    2.75000000
   17.22500038  158.53399658    0.47999999    2.76999998
   17.22888947  153.28799438    0.47999999    2.75000000
   17.23222351  146.99899292    0.47999999    2.75000000
   17.23361206  162.19599915    0.47999999    2.75000000
   17.23583412  151.38200378    0.47999999    2.75000000
   17.23888969  159.06700134    0.47999999    2.75000000
   17.24222183  147.41900635    0.47999999    2.75000000
   17.24555588  152.32099915    0.47999999    2.75000000
   17.24861145  142.15199280    0.50000000    2.75000000
   17.25194359  149.11900330    0.50000000    2.76999998
   17.25527763  143.63200378    0.50000000    2.75000000
   17.25833321  142.25700378    0.50000000    2.75000000
   17.26166725  134.04600525    0.50000000    2.75000000
   17.26777840  134.04600525    0.51999998    2.75000000
   17.27194405  135.11500549    0.51999998    2.75000000
   17.27499962  140.24099731    0.51999998    2.75000000
   17.27833366  138.27799988    0.51999998    2.75000000
   17.28166580  135.61900330    0.51999998    2.75000000
   17.28472137  136.84199524    0.52999997    2.75000000
   17.28805542  141.89399719    0.51999998    2.75000000
   17.29138756  136.69200134    0.51999998    2.75000000
   17.29444313  131.78799438    0.55000001    2.75000000
   17.29777718  138.27200317    0.52999997    2.75000000
   17.30027771  138.17399597    0.52999997    2.75000000
   17.32083511  138.17399597    0.52999997    2.75000000
   17.32500076  134.82899475    0.52999997    2.75000000
   17.32833481  126.49500275    0.51999998    2.75000000
   17.33139038  134.69799805    0.51999998    2.75000000
   17.33361244  125.35700226    0.51999998    2.76999998
   17.33527756  132.87500000    0.51999998    2.75000000
   17.33861160  138.18800354    0.51999998    2.75000000
   17.34166718  131.77000427    0.51999998    2.75000000
   17.34500122  125.05599976    0.51999998    2.75000000
   17.34805679  133.93299866    0.51999998    2.75000000
   17.35138893  129.90699768    0.51999998    2.75000000
   17.35472298  131.42900085    0.52999997    2.76999998
   17.35777855  128.51199341    0.51999998    2.75000000
   17.36361122  128.51199341    0.51999998    2.75000000
   17.36777878  132.45899963    0.51999998    2.73000002
   17.37083435  139.07899475    0.52999997    2.73000002
   17.37416649  138.76100159    0.52999997    2.75000000
   17.37750053  136.57600403    0.51999998    2.75000000
   17.38055611  140.12600708    0.51999998    2.75000000
   17.38388824  140.33900452    0.51999998    2.75000000
   17.38694382  143.23100281    0.51999998    2.75000000
   17.39027786  138.29200745    0.51999998    2.75000000
   17.39361191  140.94799805    0.52999997    2.75000000
   17.39666748  149.30900574    0.51999998    2.75000000
   17.39999962  138.80999756    0.52999997    2.75000000
   17.40055466  142.00199890    0.52999997    2.75000000
   17.40638924  142.00199890    0.52999997    2.75000000
   17.41055489  132.66700745    0.51999998    2.75000000
   17.41388893  135.26199341    0.51999998    2.75000000
   17.41694450  135.43400574    0.51999998    2.75000000
   17.42027664  137.72999573    0.51999998    2.75000000
   17.42361069  118.42299652    0.51999998    2.76999998
   17.42666626  122.88099670    0.50000000    2.75000000
   17.43000031  134.77499390    0.50000000    2.75000000
   17.43305397  129.45500183    0.50000000    2.75000000
   17.43388748  130.55700684    0.50000000    2.75000000
   17.43666649  143.98699951    0.50000000    2.75000000
   17.43999863  139.59399414    0.47999999    2.75000000
   17.44333267  137.20399475    0.50000000    2.75000000
   17.44916534  137.20399475    0.50000000    2.75000000
   17.45333481  141.96299744    0.50000000    2.75000000
   17.45666695  138.96899414    0.50000000    2.75000000
   17.46000099  126.40399933    0.50000000    2.75000000
   17.46305656  147.15400696    0.50000000    2.75000000
   17.46638870  128.06700134    0.51999998    2.75000000
   17.46722221  127.63300323    0.51999998    2.75000000
   17.46972275  120.42400360    0.51999998    2.75000000
   17.47305679  134.74899292    0.51999998    2.75000000
   17.47638893  133.56500244    0.51999998    2.75000000
   17.47944450  134.73899841    0.51999998    2.75000000
   17.48277855  132.31900024    0.51999998    2.75000000
   17.48583412  135.16900635    0.51999998    2.76999998
   17.49222183  135.16900635    0.52999997    2.75000000
   17.49638939  134.65800476    0.52999997    2.75000000
   17.49972153  118.49299622    0.52999997    2.75000000
   17.50055504  124.20400238    0.52999997    2.75000000
   17.50305557  118.65799713    0.52999997    2.75000000
   17.50638962  123.37200165    0.52999997    2.75000000
   17.50972176  122.86499786    0.52999997    2.75000000
   17.51277733  138.81399536    0.52999997    2.75000000
   17.51611137  135.10600281    0.52999997    2.75000000
   17.51944351  125.68499756    0.52999997    2.73000002
   17.52249908  124.04900360    0.51999998    2.75000000
   17.52583313  120.86499786    0.51999998    2.75000000
   17.52888870  138.65499878    0.52999997    2.75000000
   17.53499985  138.65499878    0.52999997    2.75000000
   17.53916550  145.63600159    0.51999998    2.75000000
   17.54249954  136.34399414    0.51999998    2.75000000
   17.54555511  127.14199829    0.51999998    2.75000000
   17.54888916  120.46700287    0.51999998    2.75000000
   17.55194283  124.13200378    0.51999998    2.75000000
   17.55527687  133.27799988    0.51999998    2.75000000
   17.55861092  147.05499268    0.51999998    2.75000000
   17.56166649  126.93599701    0.51999998    2.75000000
   17.56499863  142.22999573    0.51999998    2.75000000
   17.56722260  128.14599609    0.51999998    2.73000002
   17.56861115  130.93699646    0.51999998    2.73000002
   17.57166672  133.27600098    0.51999998    2.75000000
   17.57777786  133.27600098    0.51999998    2.75000000
   17.58194542  124.36499786    0.51999998    2.75000000
   17.58527756  125.59600067    0.51999998    2.75000000
   17.58833313  130.01400757    0.52999997    2.75000000
   17.59166718  139.55900574    0.52999997    2.75000000
   17.59500122  135.27400208    0.55000001    2.75000000
   17.59805679  127.60099792    0.56999999    2.75000000
   17.60055542  140.12199402    0.56999999    2.75000000
   17.60194397  124.25299835    0.58999997    2.75000000
   17.60499954  130.42700195    0.58999997    2.75000000
   17.60833359  130.72700500    0.70999998    2.75000000
   17.61166763  137.32800293    0.79000002    2.75000000
   17.61472321  135.06599426    0.79000002    2.75000000
   17.62083435  135.06599426    0.83999997    2.75000000
   17.62500000  122.03500366    0.92000002    2.75000000
   17.62805557  126.65000153    1.01999998    2.73000002
   17.63138962  124.09500122    1.19000006    2.73000002
   17.63388824  128.61799622    1.33000004    2.73000002
   17.63500023  132.53300476    1.33000004    2.73000002
   17.63805580  124.69499969    1.33000004    2.75000000
   17.64138794  124.70899963    1.33000004    2.75000000
   17.64472198  128.93200684    1.38000000    2.75000000
   17.64777756  134.43099976    1.44000006    2.75000000
   17.65111160  138.85699463    1.41999996    2.73000002
   17.65416718  129.70799255    1.33000004    2.73000002
   17.65749931  118.76599884    1.33000004    2.73000002
   17.66361046  118.76599884    1.33000004    2.75000000
   17.66777802  125.99600220    1.34000003    2.73000002
   17.67083359  132.32899475    1.39999998    2.75000000
   17.67416573  129.59100342    1.41999996    2.75000000
   17.67722130  134.67100525    1.41999996    2.75000000
   17.68055534  136.48399353    1.16999996    2.75000000
   17.68388748  133.41900635    1.16999996    2.75000000
   17.68694305  135.54400635    1.14999998    2.73000002
   17.69027710  119.45899963    1.07000005    2.75000000
   17.69361115  130.42500305    0.94000000    2.75000000
   17.69666672  134.55900574    0.94000000    2.75000000
   17.70000076  132.52000427    0.83999997    2.75000000
   17.70055580  137.34500122    0.83999997    2.75000000
   17.70639038  137.34500122    0.80000001    2.75000000
   17.71055603  129.26199341    0.79000002    2.75000000
   17.71389008  137.70899963    0.79000002    2.75000000
   17.71694565  139.33500671    0.79000002    2.75000000
   17.72027779  140.85000610    0.79000002    2.75000000
   17.72333336  130.86199951    0.80000001    2.73000002
   17.72666740  129.70899963    0.86000001    2.75000000
   17.73000145  123.00800323    0.89999998    2.75000000
   17.73305511  130.13999939    0.89999998    2.75000000
   17.73388863  135.62300110    0.89999998    2.75000000
   17.73694420  132.95899963    0.94000000    2.75000000
   17.73999977  131.84599304    1.13000000    2.73000002
   17.74333382  129.26300049    1.21000004    2.73000002
   17.74916649  129.26300049    1.26999998    2.73000002
   17.75333405  123.77999878    1.33000004    2.73000002
   17.75666618  132.64599609    1.41999996    2.73000002
   17.75972176  128.38600159    1.41999996    2.73000002
   17.76305580  138.59500122    1.55999994    2.73000002
   17.76638794  121.84100342    1.71000004    2.75000000
   17.76722145  125.64199829    1.71000004    2.75000000
   17.77000046  135.28500366    2.05999994    2.75000000
   17.77305603  134.70300293    2.26999998    2.73000002
   17.77638817  123.94100189    2.39000010    2.73000002
   17.77972221  130.51100159    2.69000006    2.73000002
   17.78277779  133.55900574    2.86999989    2.71000004
   17.78610992  136.67399597    3.11999989    2.71000004
   17.79194450  136.67399597    3.50000000    2.69000006
   17.79611015  140.83900452    3.97000003    2.69000006
   17.79944420  134.19299316    4.90999985    2.75000000
   17.80055428  129.93299866    0.86000001    2.66000009
   17.80305481  140.45100403    0.09000000    0.47999999
   17.80611038  134.83999634    0.07000000    0.31999999
   17.80944443  141.55799866    0.03000000    0.07000000
   17.81305504  135.40199280    0.03000000    0.07000000
   17.81638718  131.38499451    0.03000000    0.07000000
   17.81972313  128.89199829    0.03000000    0.07000000
   17.82277870  135.00100708    0.03000000    0.07000000
   17.82611275  126.21399689    0.03000000    0.07000000
   17.82916832  127.87100220    0.03000000    0.07000000
   17.83527756  127.87100220    0.03000000    0.07000000
   17.83944511  119.36199951    0.03000000    0.07000000
   17.84277916  129.11500549    0.03000000    0.07000000
   17.84611130  139.68200684    0.03000000    0.07000000
   17.84916687  136.06399536    0.03000000    0.07000000
   17.85250092  135.97999573    0.03000000    0.07000000
   17.85555649  136.80299377    0.03000000    0.07000000
   17.85888863  131.44099426    0.03000000    0.07000000
   17.86222267  146.61000061    0.03000000    0.07000000
   17.86527824  131.10899353    0.03000000    0.07000000
   17.86777878  131.78199768    0.03000000    0.07000000
   17.86888885  126.92700195    0.03000000    0.07000000
   17.87222290  126.82499695    0.03000000    0.07000000
   17.87833405  126.82499695    0.03000000    0.07000000
   17.88249969  145.59500122    0.03000000    0.07000000
   17.88555527  126.74199677    0.03000000    0.07000000
   17.88888931  128.73599243    0.03000000    0.07000000
   17.89194489  136.90100098    0.03000000    0.07000000
   17.89472198  127.70300293    0.03000000    0.07000000
   17.89805603  122.87000275    0.03000000    0.07000000
   17.90055466  129.13099670    0.03000000    0.07000000
   17.90166664  129.50900269    0.03000000    0.07000000
   17.90472221  123.59700012    0.03000000    0.07000000
   17.90805435  131.85200500    0.03000000    0.07000000
   17.91110992  140.26699829    0.03000000    0.07000000
   17.91444397  124.34999847    0.03000000    0.07000000
   17.92055511  124.34999847    0.03000000    0.07000000
   17.92472076  128.90499878    0.03000000    0.07000000
   17.92805481  140.40400696    0.03000000    0.07000000
   17.93111038  139.18299866    0.03000000    0.07000000
   17.93388748  132.60000610    0.03000000    0.07000000
   17.93499947  140.64199829    0.03000000    0.07000000
   17.93805504  144.98500061    0.03000000    0.07000000
   17.94138718  140.09700012    0.03000000    0.07000000
   17.94444275  134.96899414    0.03000000    0.07000000
   17.94777679  122.59400177    0.03000000    0.07000000
   17.95111275  133.76300049    0.03000000    0.07000000
   17.95416832  125.62899780    0.03000000    0.07000000
   17.95750046  131.98800659    0.03000000    0.07000000
   17.96333504  131.98800659    0.03000000    0.07000000
   17.96750069  132.21699524    0.03000000    0.07000000
   17.97083473  131.01100159    0.03000000    0.07000000
   17.97389030  131.70799255    0.03000000    0.07000000
   17.97722244  148.73599243    0.03000000    0.07000000
   17.98055649  131.77699280    0.03000000    0.07000000
   17.98361206  136.17500305    0.03000000    0.07000000
   17.98694420  140.90400696    0.03000000    0.07000000
   17.99027824  139.39900208    0.03000000    0.07000000
   17.99333382  141.15899658    0.03000000    0.07000000
   17.99666786  138.08500671    0.03000000    0.07000000
   17.99972153  150.02600098    0.03000000    0.07000000
   18.00055504  142.21299744    0.03000000    0.07000000
   18.00638962  142.21299744    0.03000000    0.07000000
   18.01027870  134.56799316    0.03000000    0.07000000
   18.01361084  144.67900085    0.03000000    0.07000000
   18.01694489  140.30700684    0.03000000    0.07000000
   18.02000046  136.31799316    0.03000000    0.07000000
   18.02333260  137.66700745    0.03000000    0.07000000
   18.02666664  126.50199890    0.03000000    0.07000000
   18.02972221  122.22200012    0.03000000    0.07000000
   18.03305435  127.89499664    0.03000000    0.07000000
   18.03388786  122.26999664    0.03000000    0.07000000
   18.03666687  121.50399780    0.03000000    0.07000000
   18.03972244  129.31599426    0.03000000    0.07000000
   18.04305458  127.51999664    0.03000000    0.07000000
   18.04916573  127.51999664    0.03000000    0.07000000
   18.05333328  132.78199768    0.03000000    0.07000000
   18.05638885  127.39299774    0.03000000    0.07000000
   18.05972099  130.22200012    0.03000000    0.07000000
   18.06305504  132.61900330    0.03000000    0.07000000
   18.06611061  128.35699463    0.03000000    0.07000000
   18.06722260  126.20200348    0.03000000    0.07000000
   18.06972313  127.80799866    0.03000000    0.07000000
   18.07277870  132.54400635    0.03000000    0.07000000
   18.07611275  127.44400024    0.03000000    0.07000000
   18.07944489  128.38600159    0.03000000    0.07000000
   18.08250046  126.64299774    0.03000000    0.07000000
   18.08583450  131.23699951    0.03000000    0.07000000
   18.09194565  131.23699951    0.03000000    0.07000000
   18.09611130  130.31900024    0.03000000    0.07000000
   18.09944534  130.72500610    0.03000000    0.07000000
   18.10055542  128.63800049    0.03000000    0.07000000
   18.10305595  130.59599304    0.03000000    0.07000000
   18.10639000  132.75199890    0.03000000    0.07000000
   18.10944557  131.99299622    0.03000000    0.07000000
   18.11277771  130.46299744    0.03000000    0.07000000
   18.11583328  126.59500122    0.03000000    0.07000000
   18.11916733  134.07099915    0.03000000    0.07000000
   18.12249947  129.54899597    0.03000000    0.07000000
   18.12555504  136.82099915    0.03000000    0.07000000
   18.12888908  130.42900085    0.03000000    0.07000000
   18.13472176  130.42900085    0.03000000    0.07000000
   18.13888931  126.06199646    0.03000000    0.07000000
   18.14222145  130.55599976    0.03000000    0.07000000
   18.14527702  123.81900024    0.03000000    0.07000000
   18.14861107  131.51899719    0.03000000    0.07000000
   18.15194321  122.79799652    0.03000000    0.07000000
   18.15499878  124.05899811    0.03000000    0.07000000
   18.15833282  124.70899963    0.03000000    0.07000000
   18.16166687  136.53399658    0.03000000    0.07000000
   18.16472244  127.91999817    0.03000000    0.07000000
   18.16722107  134.82200623    0.03000000    0.07000000
   18.16833305  128.80299377    0.03000000    0.07000000
   18.17138863  137.04600525    0.03000000    0.07000000
   18.17777634  137.04600525    0.03000000    0.07000000
   18.18166542  148.77499390    0.03000000    0.07000000
   18.18499947  142.91999817    0.03000000    0.07000000
   18.18833160  146.07899475    0.03000000    0.07000000
