    HOUR (UT)   FLARE FACTOR    SKY TESTER    SUN TESTER
   15.33888817   -1.00000000   -1.00000000   -1.00000000
   15.36333370  173.82000732    0.00000000    0.00000000
   15.36638927  175.38200378    0.00000000    0.00000000
   15.36972237  166.40899658    0.00000000    0.00000000
   15.37305546  195.25399780    0.00000000    0.00000000
   15.37611103  167.04600525    0.00000000    0.00000000
   15.37944412  177.55400085    0.00000000    0.00000000
   15.38361073  177.55400085    0.00000000    0.00000000
   15.38777733  177.75300598    0.00000000    0.00000000
   15.39083290  174.25000000    0.00000000    0.00000000
   15.39416695  169.12800598    0.00000000    0.00000000
   15.39638901  177.12199402    0.00000000    0.00000000
   15.39777756  169.08500671    0.00000000    0.00000000
   15.40111065  164.75000000    0.00000000    0.00000000
   15.40416622  167.72999573    0.00000000    0.00000000
   15.40749931  170.20899963    0.00000000    0.00000000
   15.41055489  170.61500549    0.00000000    0.00000000
   15.41388893  174.68699646    0.00000000    0.00000000
   15.41722298  164.95199585    0.00000000    0.00000000
   15.42027855  165.32899475    0.00000000    0.00000000
   15.42638874  165.32899475    0.00000000    0.00000000
   15.43055630  166.54600525    0.00000000    0.00000000
   15.43388939  170.00100708    0.00000000    0.00000000
   15.43694496  162.78500366    0.00000000    0.00000000
   15.44027805  166.41099548    0.00000000    0.00000000
   15.44333363  163.30400085    0.00000000    0.00000000
   15.44666672  167.27600098    0.00000000    0.00000000
   15.44999981  159.83099365    0.00000000    0.00000000
   15.45305538  161.92500305    0.00000000    0.00000000
   15.45638847  162.46699524    0.00000000    0.00000000
   15.45972157  161.25199890    0.00000000    0.00000000
   15.46277714  157.16900635    4.90999985    2.53999996
   15.46333313  158.78399658    4.90999985    2.53999996
   15.46916580  158.78399658    4.90999985    2.53999996
   15.47333336  162.62500000    4.90999985    2.53999996
   15.47666645  171.41799927    4.90999985    2.53999996
   15.47972202  161.76499939    4.90999985    2.53999996
   15.48305511  159.61300659    4.90999985    2.53999996
   15.48638916  163.05999756    4.90999985    2.53999996
   15.48944473  160.62300110    4.90999985    2.53999996
   15.49277782  160.78700256    4.90999985    2.53999996
   15.49611092  165.46200562    4.90999985    2.53999996
   15.49666691  161.38600159    4.90999985    2.53999996
   15.49972248  165.87800598    4.90999985    2.53999996
   15.50277805  164.26199341    4.90999985    2.53999996
   15.50611115  159.01400757    4.90999985    2.53999996
   15.51194477  159.01400757    4.90999985    2.53999996
   15.51611137  156.29100037    4.90999985    2.53999996
   15.51944447  157.59199524    4.90999985    2.53999996
   15.52277756  156.84700012    4.90999985    2.53999996
   15.52583313  163.93899536    4.90999985    2.53999996
   15.52916622  170.56500244    4.90999985    2.53999996
   15.52999973  162.80900574    4.90999985    2.53999996
   15.53277779  161.25900269    4.90999985    2.53999996
   15.53583336  161.32699585    4.90999985    2.53999996
   15.53916740  168.14500427    4.90999985    2.53999996
   15.54222298  165.54699707    4.90999985    2.53999996
   15.54555607  166.65499878    4.90999985    2.53999996
   15.54888916  161.11300659    4.90999985    2.53999996
   15.55500031  161.11300659    4.90999985    2.53999996
   15.55916691  162.69000244    4.90999985    2.53999996
   15.56222248  165.16600037    4.90999985    2.53999996
   15.56333351  156.87600708    4.90999985    2.53999996
   15.56611156  164.09300232    4.90999985    2.53999996
   15.56916618  157.14700317    4.90999985    2.53999996
   15.57250023  159.56500244    4.90999985    2.53999996
   15.57583332  158.90899658    4.90999985    2.53999996
   15.57888889  158.91200256    4.90999985    2.53999996
   15.58222198  158.26400757    4.90999985    2.53999996
   15.58527756  156.68299866    4.90999985    2.53999996
   15.58861065  155.85899353    4.90999985    2.53999996
   15.59194374  155.61900330    4.90999985    2.53999996
   15.59777737  155.61900330    4.90999985    2.53999996
   15.60194492  153.78799438    4.90999985    2.53999996
   15.60527802  161.93299866    4.90999985    2.53999996
   15.60833359  159.03700256    4.90999985    2.53999996
   15.61166668  158.20399475    4.90999985    2.53999996
   15.61472225  156.66799927    4.90999985    2.53999996
   15.61805534  156.44500732    4.90999985    2.53999996
   15.62138939  154.17100525    4.90999985    2.53999996
   15.62444496  197.88800049    4.90999985    2.53999996
   15.62777805  208.24800110    4.90999985    2.53999996
   15.63000011  213.99400330    4.90999985    2.53999996
   15.63138866  204.99800110    4.90999985    2.53999996
   15.63444424  203.91499329    4.90999985    2.53999996
   15.64055538  203.91499329    4.90999985    2.53999996
   15.64472198  224.95199585    4.90999985    2.53999996
   15.64805508  221.12699890    4.90999985    2.53999996
   15.65111065  243.40600586    4.90999985    2.53999996
   15.65444374  244.52400208    4.90999985    2.53999996
   15.65777779  244.40199280    4.90999985    2.53999996
   15.66083336  254.81399536    4.90999985    2.53999996
   15.66333294  233.30999756    4.90999985    2.53999996
   15.66472149  229.41700745    4.90999985    2.53999996
   15.66777802  228.58399963    4.90999985    2.53999996
   15.67111111  239.64500427    4.90999985    2.53999996
   15.67444515  222.95799255    4.90999985    2.53999996
   15.67750072  232.69900513    4.90999985    2.53999996
   15.68361092  232.69900513    4.90999985    2.53999996
   15.68750000  220.70100403    4.90999985    2.53999996
   15.69083309  209.66999817    4.90999985    2.53999996
   15.69416714  195.48899841    4.90999985    2.53999996
   15.69666672  197.31300354    4.90999985    2.53999996
   15.69777775  191.93299866    4.90999985    2.53999996
   15.70083332  190.75599670    4.90999985    2.53999996
   15.70416641  188.58099365    4.90999985    2.53999996
   15.70749950  191.44000244    4.90999985    2.53999996
   15.71055508  187.32499695    4.90999985    2.53999996
   15.71388912  191.50900269    4.90999985    2.53999996
   15.71694374  193.60800171    4.90999985    2.53999996
   15.72027779  177.32400513    4.90999985    2.53999996
   15.72638798  177.32400513    4.90999985    2.53999996
   15.73055553  189.81100464    4.90999985    2.53999996
   15.73361111  186.46400452    4.90999985    2.53999996
   15.73694515  184.69000244    4.90999985    2.53999996
   15.74027824  205.91499329    4.90999985    2.53999996
   15.74333382  198.58700562    4.90999985    2.53999996
   15.74666691  187.39199829    4.90999985    2.53999996
   15.74972248  188.52499390    4.90999985    2.53999996
   15.75305557  198.12500000    4.90999985    2.53999996
   15.75638866  189.44400024    4.90999985    2.53999996
   15.75944424  181.04499817    4.90999985    2.53999996
   15.76277733  188.50500488    4.90999985    2.53999996
   15.76333332  182.04400635    4.90999985    2.53999996
   15.76916599  182.04400635    4.90999985    2.53999996
   15.77333355  176.24000549    4.90999985    2.53999996
   15.77666664  182.67399597    4.90999985    2.53999996
   15.77972221  174.12100220    4.90999985    2.53999996
   15.78305531  175.83099365    4.90999985    2.53999996
   15.78611183  174.00300598    4.90999985    2.53999996
   15.78972244  174.26899719    4.90999985    2.53999996
   15.79305553  170.66099548    4.90999985    2.53999996
   15.79611111  171.38000488    4.90999985    2.53999996
   15.79666710  172.35600281    4.90999985    2.53999996
   15.79972267  168.87899780    4.90999985    2.53999996
   15.80277824  175.32400513    4.90999985    2.53999996
   15.80611134  180.76400757    4.90999985    2.53999996
   15.81194496  180.76400757    4.90999985    2.53999996
   15.81611156  184.36000061    4.90999985    2.53999996
   15.81944466  182.23100281    4.90999985    2.53999996
   15.82277775  191.91900635    4.90999985    2.53999996
   15.82583332  192.16600037    4.90999985    2.53999996
   15.82916641  186.99499512    4.90999985    2.53999996
   15.82999992  194.70799255    4.90999985    2.53999996
   15.83277798  210.05200195    4.90999985    2.53999996
   15.83583260  204.17500305    4.90999985    2.53999996
   15.83916664  209.55799866    4.90999985    2.53999996
   15.84249973  216.12800598    4.90999985    2.53999996
   15.84555531  231.98699951    4.90999985    2.53999996
   15.84888840  243.56300354    4.90999985    2.53999996
   15.85472298  243.56300354    4.90999985    2.53999996
   15.85888958  276.84100342    4.90999985    2.53999996
   15.86222267  290.78900146    4.90999985    2.53999996
   15.86333370  304.83999634    4.90999985    2.53999996
   15.86583328  320.11898804    4.90999985    2.53999996
   15.86777782  326.22399902    4.90999985    2.53999996
   15.86916637  317.02700806    4.90999985    2.53999996
   15.87055588  311.47799683    4.90999985    2.53999996
   15.87222195  258.36999512    4.90999985    2.53999996
   15.87333393  210.75799561    4.90999985    2.53999996
   15.87333393  276.84100342    4.90999985    2.53999996
   15.87333393  290.78900146    4.90999985    2.53999996
   15.87333393  320.11898804    4.90999985    2.53999996
   15.87333393  210.05200195    4.90999985    2.53999996
   15.87361145  204.17500305    4.90999985    2.53999996
   15.87361145  209.55799866    4.90999985    2.53999996
   15.87361145  216.12800598    4.90999985    2.53999996
   15.87361145  231.98699951    4.90999985    2.53999996
   15.87361145  243.56300354    4.90999985    2.53999996
   15.87416649  189.99699402    4.90999985    2.53999996
   15.87750053  179.10200500    4.90999985    2.53999996
   15.88083363  148.82699585    4.90999985    2.53999996
   15.88388920  151.32699585    4.90999985    2.53999996
   15.88722229  138.72200012    4.90999985    2.53999996
   15.89388847  138.72200012    4.90999985    2.53999996
   15.89805508   69.68219757    4.90999985    2.53999996
   15.90138817   -1.00000000   -1.00000000   -1.00000000
   15.90472221   -1.00000000    4.90999985    2.53999996
   15.90805531   -1.00000000    4.90999985    2.53999996
   15.91138840   -1.00000000    4.90999985    2.53999996
   15.91444397   -1.00000000    4.90999985    2.53999996
   15.91777802   -1.00000000    4.90999985    2.53999996
   15.92083359   -1.00000000    4.90999985    2.53999996
   15.92416668   -1.00000000    4.90999985    2.53999996
   15.92750072   -1.00000000    4.90999985    2.53999996
   15.93055630   -1.00000000    4.90999985    2.53999996
   15.94083309   -1.00000000    4.90999985    2.53999996
   15.94416714  204.33999634    4.90999985    2.53999996
   15.94750023  227.99499512    4.90999985    2.53999996
   15.95055580  197.24200439    4.90999985    2.53999996
   15.95388889  202.47300720    4.90999985    2.53999996
   15.95722198  188.50399780    4.90999985    2.53999996
   15.96027756  206.39100647    4.90999985    2.53999996
   15.96361065  210.02999878    4.90999985    2.53999996
   15.96666622  198.91999817    4.90999985    2.53999996
   15.96999931  199.21400452    4.90999985    2.53999996
   15.97333336  191.91900635    4.90999985    2.53999996
   15.97388840  185.58399963    4.90999985    2.53999996
   15.97972202  185.58399963    4.90999985    2.53999996
   15.98388958  194.48500061    4.90999985    2.53999996
   15.98694515  187.17399597    4.90999985    2.53999996
   15.99027824  188.40800476    4.90999985    2.53999996
   15.99361134  204.49000549    4.90999985    2.53999996
   15.99666691  193.60899353    4.90999985    2.53999996
   16.00000000  191.92500305    4.90999985    2.53999996
   16.00333405  169.39399719    4.90999985    2.53999996
   16.00638962  185.28599548    4.90999985    2.53999996
   16.00722313  208.23899841    4.90999985    2.53999996
   16.01000023  174.30499268    4.90999985    2.53999996
   16.01333427  187.62199402    4.90999985    2.53999996
   16.01638794  201.50700378    4.90999985    2.53999996
   16.02249908  201.50700378    4.90999985    2.53999996
   16.02666664  190.29299927    4.90999985    2.53999996
   16.03000069  200.76800537    4.90999985    2.53999996
   16.03333282  183.28700256    4.90999985    2.53999996
   16.03638840  189.04200745    4.90999985    2.53999996
   16.03972244  188.92999268    4.90999985    2.53999996
   16.04055595  183.82600403    4.90999985    2.53999996
   16.04305458  177.53599548    4.90999985    2.53999996
   16.04638863  188.96400452    4.90999985    2.53999996
   16.04972076  181.43400574    4.90999985    2.53999996
   16.05277634  190.28799438    4.90999985    2.53999996
   16.05611038  184.28500366    4.90999985    2.53999996
   16.05916595  184.19000244    4.90999985    2.53999996
   16.06555557  184.19000244    4.90999985    2.53999996
   16.06944466  185.90499878    4.90999985    2.53999996
   16.07277870  175.81500244    4.90999985    2.53999996
   16.07389069  183.23800659    4.90999985    2.53999996
   16.07638931  183.82600403    4.90999985    2.53999996
   16.07972336  180.21499634    4.90999985    2.53999996
   16.08305550  185.17199707    4.90999985    2.53999996
   16.08611107  185.05599976    4.90999985    2.53999996
   16.08944511  183.36399841    4.90999985    2.53999996
   16.09250069  177.57899475    4.90999985    2.53999996
   16.09583473  179.16200256    4.90999985    2.53999996
   16.09916687  171.40499878    4.90999985    2.53999996
   16.10222244  173.72300720    4.90999985    2.53999996
   16.10833359  173.72300720    4.90999985    2.53999996
   16.11250114  162.15400696    4.90999985    2.53999996
   16.11555672  169.99400330    4.90999985    2.53999996
   16.11888885  168.16700745    4.90999985    2.53999996
   16.12222290  170.13099670    4.90999985    2.53999996
   16.12527847  163.90600586    4.90999985    2.53999996
   16.12861061  177.97900391    4.90999985    2.53999996
   16.13194466  167.05799866    4.90999985    2.53999996
   16.13500023  166.64700317    4.90999985    2.53999996
   16.13833237  173.29299927    4.90999985    2.53999996
   16.14055634  170.37399292    4.90999985    2.53999996
   16.14166641  169.26699829    4.90999985    2.53999996
   16.14500046  166.03700256    4.90999985    2.53999996
   16.15111160  166.03700256    4.90999985    2.53999996
   16.15527725  167.41299438    4.90999985    2.53999996
   16.15861130  161.45899963    4.90999985    2.53999996
   16.16166687  165.65600586    4.90999985    2.53999996
   16.16499901  161.06199646    4.90999985    2.53999996
   16.16833305  166.84399414    4.90999985    2.53999996
   16.17138863  161.61399841    4.90999985    2.53999996
   16.17388916  160.28900146    4.90999985    2.53999996
   16.17499924  164.71499634    4.90999985    2.53999996
   16.17833328  163.56799316    4.90999985    2.53999996
   16.18166542  158.81700134    4.90999985    2.53999996
   16.18472099  157.73800659    4.90999985    2.53999996
   16.18805504  159.54299927    4.90999985    2.53999996
   16.19388771  159.54299927    4.90999985    2.53999996
   16.19805527  158.74299622    4.90999985    2.53999996
   16.20138931  156.98500061    4.90999985    2.53999996
   16.20444489  163.66799927    4.90999985    2.53999996
   16.20722389  157.55200195    4.90999985    2.53999996
   16.20805550  155.73199463    4.90999985    2.53999996
   16.21138954  153.33799744    4.90999985    2.53999996
   16.21472359  164.24600220    4.90999985    2.53999996
   16.21777916  150.66900635    4.90999985    2.53999996
   16.22111130  154.26100159    4.90999985    2.53999996
   16.22416687  158.10899353    4.90999985    2.53999996
   16.22750092  153.71000671    4.90999985    2.53999996
   16.23083305  151.33000183    4.90999985    2.53999996
   16.23694420  151.33000183    4.90999985    2.53999996
   16.24111176  170.97300720    4.90999985    2.53999996
   16.24416733  178.97399902    4.90999985    2.53999996
   16.24749947  196.74400330    4.90999985    2.53999996
   16.25083351  172.66099548    4.90999985    2.53999996
   16.25388908  170.78599548    4.90999985    2.53999996
   16.25722313  180.91900635    4.90999985    2.53999996
   16.26055527  164.89300537    4.90999985    2.53999996
   16.26361084  180.37399292    4.90999985    2.53999996
   16.26694489  207.72200012    4.90999985    2.53999996
   16.27000046  190.94500732    4.90999985    2.53999996
   16.27333260  176.54100037    4.90999985    2.53999996
   16.27388954  174.38900757    4.90999985    2.53999996
   16.27972221  174.38900757    4.90999985    2.53999996
   16.28388786  155.79899597    4.90999985    2.53999996
   16.28694344  175.38099670    4.90999985    2.53999996
   16.29027748  172.06900024    4.90999985    2.53999996
   16.29361153  170.47300720    4.90999985    2.53999996
   16.29694366  170.00100708    4.90999985    2.53999996
   16.29999924  167.83999634    4.90999985    2.53999996
   16.30333328  165.11000061    4.90999985    2.53999996
   16.30638885  174.04699707    4.90999985    2.53999996
   16.30722237  163.65400696    4.90999985    2.53999996
   16.30999947  166.73800659    4.90999985    2.53999996
   16.31333351  160.04499817    4.90999985    2.53999996
   16.31666756  169.75000000    4.90999985    2.53999996
   16.32250023  169.75000000    4.90999985    2.53999996
   16.32666779  171.84899902    4.90999985    2.53999996
   16.32972336  163.67599487    4.90999985    2.53999996
   16.33305550  165.93499756    4.90999985    2.53999996
   16.33638954  164.08999634    4.90999985    2.53999996
   16.33944511  164.15400696    4.90999985    2.53999996
   16.34055710  172.37399292    4.90999985    2.53999996
   16.34333420  165.65299988    4.90999985    2.53999996
   16.34638977  162.76699829    4.90999985    2.53999996
   16.34972191  163.98599243    4.90999985    2.53999996
   16.35277748  161.96499634    4.90999985    2.53999996
   16.35611153  233.42100525    4.90999985    2.53999996
   16.35944557  279.70401001    4.90999985    2.53999996
   16.38083267  151.61999512    4.90999985    2.53999996
   16.38111115  149.30299377    4.90999985    2.53999996
   16.38444519  244.54899597    4.90999985    2.53999996
   16.38777733  214.98300171    4.90999985    2.53999996
   16.39083290  226.96600342    4.90999985    2.53999996
   16.39416695  222.28300476    4.90999985    2.53999996
   16.39749908  218.25100708    4.90999985    2.53999996
   16.40055466  198.94999695    4.90999985    2.53999996
   16.40388870  184.49200439    4.90999985    2.53999996
   16.40805435  184.49200439    4.90999985    2.53999996
   16.41222191  171.82200623    4.90999985    2.53999996
   16.41388893  191.93499756    4.90999985    2.53999996
   16.41611099  184.10800171    4.90999985    2.53999996
   16.41916656  192.78900146    4.90999985    2.53999996
   16.42249870  180.08399963    4.90999985    2.53999996
   16.42583275  183.53700256    4.90999985    2.53999996
   16.42888832  197.10400391    4.90999985    2.53999996
   16.43222237  210.73699951    4.90999985    2.53999996
   16.43555450  176.71699524    4.90999985    2.53999996
   16.43861008  187.75500488    4.90999985    2.53999996
   16.44194412  210.25700378    4.90999985    2.53999996
   16.44499969  184.63600159    4.90999985    2.53999996
   16.44722176  179.78799438    4.90999985    2.53999996
   16.45138931  179.78799438    4.90999985    2.53999996
   16.45555687  188.83200073    4.90999985    2.53999996
   16.45888901  192.32099915    4.90999985    2.53999996
   16.46194458  174.07299805    4.90999985    2.53999996
   16.46527863  176.11900330    4.90999985    2.53999996
   16.46833420  182.20899963    4.90999985    2.53999996
   16.47166634  182.93499756    4.90999985    2.53999996
   16.47500038  169.10299683    4.90999985    2.53999996
   16.47805595  193.30299377    4.90999985    2.53999996
   16.48055649  188.66000366    4.90999985    2.53999996
   16.48166656  191.82699585    4.90999985    2.53999996
   16.48472214  172.68699646    4.90999985    2.53999996
   16.48805618  187.94500732    4.90999985    2.53999996
   16.49416733  187.94500732    4.90999985    2.53999996
   16.49833298  187.42999268    4.90999985    2.53999996
   16.50166702  187.95100403    4.90999985    2.53999996
   16.50472260  170.85299683    4.90999985    2.53999996
   16.50805473  191.49000549    4.90999985    2.53999996
   16.51138878  192.05400085    4.90999985    2.53999996
   16.51388931  183.53999329    4.90999985    2.53999996
   16.51499939  183.91099548    4.90999985    2.53999996
   16.51833344  168.48800659    4.90999985    2.53999996
   16.52166557  187.55200195    4.90999985    2.53999996
   16.52472115  161.11300659    4.90999985    2.53999996
   16.52805519  172.08200073    4.90999985    2.53999996
   16.53138924  168.42399597    4.90999985    2.53999996
   16.53722191  168.42399597    4.90999985    2.53999996
   16.54111099  168.03300476    4.90999985    2.53999996
   16.54444313  169.31500244    4.90999985    2.53999996
   16.54722214  178.36599731    4.90999985    2.53999996
   16.54805565  170.48899841    4.90999985    2.53999996
   16.55138779  180.37100220    4.90999985    2.53999996
   16.55472183  170.02200317    4.90999985    2.53999996
   16.55777740  166.70599365    4.90999985    2.53999996
   16.56110954  178.51600647    4.90999985    2.53999996
   16.56416512  164.55599976    4.90999985    2.53999996
   16.56750107  173.12800598    4.90999985    2.53999996
   16.57083511  155.80000305    4.90999985    2.53999996
   16.57389069  167.33099365    4.90999985    2.53999996
   16.58000183  167.33099365    4.90999985    2.53999996
   16.58416748  159.56500244    4.90999985    2.53999996
   16.58722305  151.85200500    4.90999985    2.53999996
   16.59055710  159.36399841    4.90999985    2.53999996
   16.59361267  155.61399841    4.90999985    2.53999996
   16.59694481  157.13900757    4.90999985    2.53999996
   16.60027885  153.81599426    4.90999985    2.53999996
   16.60333443  158.92700195    4.90999985    2.53999996
   16.60666656  166.25799561    4.90999985    2.53999996
   16.61000061  159.11799622    4.90999985    2.53999996
   16.61305618  165.84399414    4.90999985    2.53999996
   16.61499977  157.31199646    4.90999985    2.53999996
   16.61666679  161.16600037    4.90999985    2.53999996
   16.62277794  161.16600037    4.90999985    2.53999996
   16.62694550  154.40400696    4.90999985    2.53999996
   16.63000107  157.91200256    4.90999985    2.53999996
   16.63333321  154.37899780    4.90999985    2.53999996
   16.63666725  158.76100159    4.90999985    2.53999996
   16.63972282  156.18200684    4.90999985    2.53999996
   16.64305496  160.28100586    4.90999985    2.53999996
   16.64611053  155.46400452    4.90999985    2.53999996
   16.64833260  155.32699585    4.90999985    2.53999996
   16.65027809  150.74699402    4.90999985    2.53999996
   16.65333366  150.95300293    4.90999985    2.53999996
   16.65666580  154.67599487    4.90999985    2.53999996
   16.65999985  154.88099670    4.90999985    2.53999996
   16.66555595  154.88099670    4.90999985    2.53999996
   16.66972160  156.80700684    4.90999985    2.53999996
   16.67305565  154.90800476    4.90999985    2.53999996
   16.67611122  155.92999268    4.90999985    2.53999996
   16.67944336  154.47700500    4.90999985    2.53999996
   16.68194389  158.61399841    4.90999985    2.53999996
   16.68305397  156.02499390    4.90999985    2.53999996
   16.68638802  153.83099365    4.90999985    2.53999996
   16.68944359  157.74499512    4.90999985    2.53999996
   16.69277763  148.71699524    4.90999985    2.53999996
   16.69610977  149.83399963    4.90999985    2.53999996
   16.69916534  151.08099365    4.90999985    2.53999996
   16.70250130  151.16200256    4.90999985    2.53999996
   16.70833397  151.16200256    4.90999985    2.53999996
   16.71250153  147.57000732    4.90999985    2.53999996
   16.71500015  148.03999329    4.90999985    2.53999996
   16.71611214  151.44500732    4.90999985    2.53999996
   16.71944427  152.15899658    4.90999985    2.53999996
   16.72249985  148.20399475    4.90999985    2.53999996
   16.72583389  152.73199463    4.90999985    2.53999996
   16.72916794  149.98500061    4.90999985    2.53999996
   16.73222351  150.05999756    4.90999985    2.53999996
   16.73555565  152.06900024    4.90999985    2.53999996
   16.73861122  152.53399658    4.90999985    2.53999996
   16.74194527  150.70100403    4.90999985    2.53999996
   16.74527740  152.24000549    4.90999985    2.53999996
   16.75138855  152.24000549    4.90999985    2.53999996
   16.75555611  154.81300354    4.90999985    2.53999996
   16.75861168  150.68499756    4.90999985    2.53999996
   16.76194382  153.85200500    4.90999985    2.53999996
   16.76527786  157.46699524    4.90999985    2.53999996
   16.76833344  148.97700500    4.90999985    2.53999996
   16.77166557  149.74499512    4.90999985    2.53999996
   16.77472115  151.54200745    4.90999985    2.53999996
   16.77805519  152.38699341    4.90999985    2.53999996
   16.78138924  153.46000671    4.90999985    2.53999996
   16.78222275  149.31900024    4.90999985    2.53999996
   16.78499985  153.64500427    4.90999985    2.53999996
   16.78805542  154.47399902    4.90999985    2.53999996
   16.79416656  154.47399902    4.90999985    2.53999996
   16.79833221  153.04600525    4.90999985    2.53999996
   16.80138779  147.38699341    4.90999985    2.53999996
   16.80472183  153.63200378    4.90999985    2.53999996
   16.80805397  153.85800171    4.90999985    2.53999996
   16.81110954  149.93699646    4.90999985    2.53999996
   16.81444359  146.24800110    4.90999985    2.53999996
   16.81555557  151.31399536    4.90999985    2.53999996
   16.81805611  151.67199707    4.90999985    2.53999996
   16.82111168  152.81900024    4.90999985    2.53999996
   16.82444572  153.24600220    4.90999985    2.53999996
   16.82777786  148.56799316    4.90999985    2.53999996
   16.83083344  151.97599792    4.90999985    2.53999996
   16.83694458  151.97599792    4.90999985    2.53999996
   16.84111214  145.07099915    4.90999985    2.53999996
   16.84444427  153.85000610    4.90999985    2.53999996
   16.84749985  148.87699890    4.90999985    2.53999996
   16.84916687  152.17500305    4.90999985    2.53999996
   16.85111237  152.33099365    4.90999985    2.53999996
   16.85444450  153.48599243    4.90999985    2.53999996
   16.85777855  148.40899658    4.90999985    2.53999996
   16.86083412  150.75199890    4.90999985    2.53999996
   16.86416626  147.87899780    4.90999985    2.53999996
   16.86750031  149.82000732    4.90999985    2.53999996
   16.87055588  147.32099915    4.90999985    2.53999996
   16.87388992  150.01100159    4.90999985    2.53999996
   16.88000107  150.01100159    4.90999985    2.53999996
   16.88388824  151.17900085    4.90999985    2.53999996
   16.88722229  150.56100464    4.90999985    2.53999996
   16.89055634  149.44200134    4.90999985    2.53999996
   16.89361191  152.81799316    4.90999985    2.53999996
   16.89694405  150.55200195    4.90999985    2.53999996
   16.90027809  151.16299438    4.90999985    2.53999996
   16.90333366  144.81300354    4.90999985    2.53999996
   16.90666580  146.40800476    4.90999985    2.53999996
   16.90972137  148.04499817    4.90999985    2.53999996
   16.91305542  151.80499268    4.90999985    2.53999996
   16.91583252  149.76400757    4.90999985    2.53999996
   16.91666603  150.83200073    4.90999985    2.53999996
   16.92277718  150.83200073    4.90999985    2.53999996
   16.92694473  156.03799438    4.90999985    2.53999996
   16.93000031  153.73300171    4.90999985    2.53999996
   16.93333244  152.60699463    4.90999985    2.53999996
   16.93666649  147.23199463    4.90999985    2.53999996
   16.93972206  152.34700012    4.90999985    2.53999996
   16.94305420  153.73899841    4.90999985    2.53999996
   16.94610977  152.03799438    4.90999985    2.53999996
   16.94916534  150.34399414    4.90999985    2.53999996
   16.94972038  145.84800720    4.90999985    2.53999996
   16.95305634  149.25500488    4.90999985    2.53999996
   16.95639038  153.07000732    4.90999985    2.53999996
   16.95944595  158.55900574    4.90999985    2.53999996
   16.96555710  158.55900574    4.90999985    2.53999996
   16.96972275  149.06300354    4.90999985    2.53999996
   16.97277832  156.03399658    4.90999985    2.53999996
   16.97611237  152.44700623    4.90999985    2.53999996
   16.97944450  147.61399841    4.90999985    2.53999996
   16.98250008  148.22500610    4.90999985    2.53999996
   16.98277855  154.07699585    4.90999985    2.53999996
   16.98611069  150.74299622    4.90999985    2.53999996
   16.98944473  159.52900696    4.90999985    2.53999996
   16.99250031  149.45399475    4.90999985    2.53999996
   16.99583435  149.03300476    4.90999985    2.53999996
   16.99916649  151.93299866    4.90999985    2.53999996
   17.00222206  145.47500610    4.90999985    2.53999996
   17.00833321  145.47500610    4.90999985    2.53999996
   17.01250076  145.72099304    4.90999985    2.53999996
   17.01583290  142.22200012    4.90999985    2.53999996
   17.01611137  149.50900269    4.90999985    2.53999996
   17.01944351  159.43600464    4.90999985    2.53999996
   17.02277756  150.85899353    4.90999985    2.53999996
   17.02583313  146.44900513    4.90999985    2.53999996
   17.02916718  146.68499756    4.90999985    2.53999996
   17.03222275  150.18899536    4.90999985    2.53999996
   17.03555489  144.25700378    4.90999985    2.53999996
   17.03888893  150.78100586    4.90999985    2.53999996
   17.04194450  151.06700134    4.90999985    2.53999996
   17.04527664  155.25500488    4.90999985    2.53999996
   17.05111122  155.25500488    4.90999985    2.53999996
   17.05527687  147.69299316    4.90999985    2.53999996
   17.05861092  147.94099426    4.90999985    2.53999996
   17.06194305  162.80700684    4.90999985    2.53999996
   17.06499863  154.42700195    4.90999985    2.53999996
   17.06833458  148.87899780    4.90999985    2.53999996
   17.07166672  150.50199890    4.90999985    2.53999996
   17.07472229  147.97599792    4.90999985    2.53999996
   17.07805634  146.93800354    4.90999985    2.53999996
   17.08139038  152.09500122    4.90999985    2.53999996
   17.08250046  151.12199402    4.90999985    2.53999996
   17.08472252  145.97700500    4.90999985    2.53999996
   17.08805656  144.86300659    4.90999985    2.53999996
   17.09416771  144.86300659    4.90999985    2.53999996
   17.09833336  146.63000488    4.90999985    2.53999996
   17.10138893  155.13999939    4.90999985    2.53999996
   17.10472298  155.00599670    4.90999985    2.53999996
   17.10777855  149.64500427    4.90999985    2.53999996
   17.11111069  154.00000000    4.90999985    2.53999996
   17.11444473  144.86300659    4.90999985    2.53999996
   17.11583328  146.87699890    4.90999985    2.53999996
   17.11777878  145.63499451    4.90999985    2.53999996
   17.12111092  144.21800232    4.90999985    2.53999996
   17.12444496  144.40100098    4.90999985    2.53999996
   17.12750053  152.22500610    4.90999985    2.53999996
   17.13083267  147.10800171    4.90999985    2.53999996
   17.13694382  147.10800171    4.90999985    2.53999996
   17.14111137  121.37699890    4.90999985    2.53999996
   17.14416695  147.14700317    4.90999985    2.53999996
   17.14749908  146.71699524    4.90999985    2.53999996
   17.14944458  148.22099304    4.90999985    2.53999996
   17.15111160  151.52600098    4.90999985    2.53999996
   17.15444374  155.30400085    4.90999985    2.53999996
   17.15777779  150.47399902    4.90999985    2.53999996
   17.16083336  157.03900146    4.90999985    2.53999996
   17.16416550  150.54800415    4.90999985    2.53999996
   17.16722107  147.12899780    4.90999985    2.53999996
   17.17055511  152.09500122    4.90999985    2.53999996
   17.17388916  151.03199768    4.90999985    2.53999996
   17.17972183  151.03199768    4.90999985    2.53999996
   17.18388748  147.97300720    4.90999985    2.53999996
   17.18722153  149.11000061    4.90999985    2.53999996
   17.19027710  151.87100220    4.90999985    2.53999996
   17.19361115  150.75700378    4.90999985    2.53999996
   17.19694328  152.53300476    4.90999985    2.53999996
   17.20000076  146.69400024    4.90999985    2.53999996
   17.20333481  150.75999451    4.90999985    2.53999996
   17.20639038  146.49800110    4.90999985    2.53999996
   17.20972252  146.50000000    4.90999985    2.53999996
   17.21305656  148.21699524    4.90999985    2.53999996
   17.21611214  141.62399292    4.90999985    2.53999996
   17.21666718  149.52999878    4.90999985    2.53999996
   17.22249985  149.52999878    4.90999985    2.53999996
   17.22666740  150.94299316    4.90999985    2.53999996
   17.23000145  145.89700317    4.90999985    2.53999996
   17.23333359  146.80499268    4.90999985    2.53999996
   17.23638916  146.91200256    4.90999985    2.53999996
   17.23972321  143.34399414    4.90999985    2.53999996
   17.24305534  149.92799377    4.90999985    2.53999996
   17.24611092  150.60400391    4.90999985    2.53999996
   17.24944496  151.24099731    4.90999985    2.53999996
   17.24972153  149.55099487    4.90999985    2.53999996
   17.25305557  140.36700439    4.90999985    2.53999996
   17.25638962  142.69999695    4.90999985    2.53999996
   17.25944519  149.48599243    4.90999985    2.53999996
   17.26555634  149.48599243    4.90999985    2.53999996
   17.26972198  147.85200500    4.90999985    2.53999996
   17.27277756  146.56900024    4.90999985    2.53999996
   17.27611160  148.24800110    4.90999985    2.53999996
   17.27916718  150.51899719    4.90999985    2.53999996
   17.28249931  152.94000244    4.90999985    2.53999996
   17.28333282  152.78100586    4.90999985    2.53999996
   17.28638840  147.87300110    4.90999985    2.53999996
   17.28972244  149.68699646    4.90999985    2.53999996
   17.29277802  144.40800476    4.90999985    2.53999996
   17.29611015  147.73199463    4.90999985    2.53999996
   17.29944420  144.20500183    4.90999985    2.53999996
   17.30249977  153.01800537    4.90999985    2.53999996
   17.30833244  153.01800537    4.90999985    2.53999996
   17.31250000  151.04499817    4.90999985    2.53999996
   17.31555557  149.89300537    4.90999985    2.53999996
   17.31638718  149.67999268    4.90999985    2.53999996
   17.31944466  147.54899597    4.90999985    2.53999996
   17.32250023  150.93600464    4.90999985    2.53999996
   17.32583427  149.11199951    4.90999985    2.53999996
   17.32888985  149.91900635    4.90999985    2.53999996
   17.33222389  147.41600037    4.90999985    2.53999996
   17.33555603  150.68499756    4.90999985    2.53999996
   17.33861160  148.53500366    4.90999985    2.53999996
   17.34194565  152.99400330    4.90999985    2.53999996
   17.34527779  151.88999939    4.90999985    2.53999996
   17.35111237  151.88999939    4.90999985    2.53999996
   17.35527802  151.45500183    4.90999985    2.53999996
   17.35861206  151.99499512    4.90999985    2.53999996
   17.36166763  151.74099731    4.90999985    2.53999996
   17.36499977  153.69299316    4.90999985    2.53999996
   17.36833382  155.63800049    4.90999985    2.53999996
   17.37138939  159.45199585    4.90999985    2.53999996
   17.37472153  152.58999634    4.90999985    2.53999996
   17.37777710  147.86599731    4.90999985    2.53999996
   17.38111115  154.64700317    4.90999985    2.53999996
   17.39805603  145.30799866    4.90999985    2.53999996
   17.40222168  145.30799866    4.90999985    2.53999996
   17.40638924  144.08200073    4.90999985    2.53999996
   17.40944481  147.31900024    4.90999985    2.53999996
   17.41277695  152.62600708    4.90999985    2.53999996
   17.41611099  151.67399597    4.90999985    2.53999996
   17.41944313  151.95300293    4.90999985    2.53999996
   17.42249870  151.82699585    4.90999985    2.53999996
   17.42583275  150.08599854    4.90999985    2.53999996
   17.42916679  148.83000183    4.90999985    2.53999996
   17.43138885  154.45100403    4.90999985    2.53999996
   17.43277740  158.44500732    4.90999985    2.53999996
   17.43583298  152.46400452    4.90999985    2.53999996
   17.43916512  153.86300659    4.90999985    2.53999996
   17.44527626  153.86300659    4.90999985    2.53999996
   17.44944382  150.07200623    4.90999985    2.53999996
   17.45277786  149.75900269    4.90999985    2.53999996
   17.45611191  153.85099792    4.90999985    2.53999996
   17.45916748  149.20799255    4.90999985    2.53999996
   17.46250153  154.77299500    4.90999985    2.53999996
   17.46472359  151.83299255    4.90999985    2.53999996
   17.46611214  157.09599304    4.90999985    2.53999996
   17.46916771  152.57400513    4.90999985    2.53999996
   17.47249985  155.30799866    4.90999985    2.53999996
   17.47555542  150.58299255    4.90999985    2.53999996
   17.47888947  147.13699341    4.90999985    2.53999996
   17.48222351  150.16999817    4.90999985    2.53999996
   17.48777771  150.16999817    4.90999985    2.53999996
   17.49194527  150.63999939    4.90999985    2.53999996
   17.49527740  147.99099731    4.90999985    2.53999996
   17.49805641  148.44299316    4.90999985    2.53999996
   17.49888992  153.52299500    4.90999985    2.53999996
   17.50194359  152.44500732    4.90999985    2.53999996
   17.50527763  150.27200317    4.90999985    2.53999996
   17.50861168  147.64900208    4.90999985    2.53999996
   17.51166725  152.90699768    4.90999985    2.53999996
   17.51499939  154.11500549    4.90999985    2.53999996
   17.51833344  149.74299622    4.90999985    2.53999996
   17.52138901  152.97700500    4.90999985    2.53999996
   17.52472115  150.72200012    4.90999985    2.53999996
   17.53083229  150.72200012    4.90999985    2.53999996
   17.53499985  149.98899841    4.90999985    2.53999996
   17.53805542  154.33500671    4.90999985    2.53999996
   17.54138756  152.05499268    4.90999985    2.53999996
   17.54472160  171.98100281    4.90999985    2.53999996
   17.54777718  173.08799744    4.90999985    2.53999996
   17.55111122  203.89999390    4.90999985    2.53999996
   17.55416679  207.09199524    4.90999985    2.53999996
   17.55749893  229.93699646    4.90999985    2.53999996
   17.56083298  223.82299805    4.90999985    2.53999996
   17.56416512  188.97700500    4.90999985    2.53999996
   17.56583214  208.27200317    4.90999985    2.53999996
   17.56777954  219.16000366    4.90999985    2.53999996
   17.57361221  219.16000366    4.90999985    2.53999996
   17.57777786  195.49699402    4.90999985    2.53999996
   17.58083344  187.02900696    4.90999985    2.53999996
   17.58416748  195.75500488    4.90999985    2.53999996
   17.58750153  209.88400269    4.90999985    2.53999996
   17.59055710  211.20399475    4.90999985    2.53999996
   17.59388924  188.66799927    4.90999985    2.53999996
   17.59722328  215.29299927    4.90999985    2.53999996
   17.59916687  243.19000244    4.90999985    2.53999996
   17.60083389  196.84700012    4.90999985    2.53999996
   17.60388947  214.45300293    4.90999985    2.53999996
   17.60722351  206.70199585    4.90999985    2.53999996
   17.61027908  210.37199402    4.90999985    2.53999996
   17.61638832  210.37199402    4.90999985    2.53999996
   17.62055588  178.66400146    4.90999985    2.53999996
   17.62388992  197.66999817    4.90999985    2.53999996
   17.62694550  205.25399780    4.90999985    2.53999996
   17.63027763  202.68299866    4.90999985    2.53999996
   17.63277817  194.67900085    4.90999985    2.53999996
   17.63388824  211.55999756    4.90999985    2.53999996
   17.63722229  194.17199707    4.90999985    2.53999996
   17.64055634  204.87300110    4.90999985    2.53999996
   17.64361191  196.02799988    4.90999985    2.53999996
   17.64694405  172.75900269    4.90999985    2.53999996
   17.65027809  202.66099548    4.90999985    2.53999996
   17.65333366  209.17399597    4.90999985    2.53999996
   17.65916634  209.17399597    4.90999985    2.53999996
   17.66333389  186.42700195    4.90999985    2.53999996
   17.66611099  194.52799988    4.90999985    2.53999996
   17.66722107  178.72000122    4.90999985    2.53999996
   17.67027664  208.91400146    4.90999985    2.53999996
   17.67361069  175.65100098    4.90999985    2.53999996
   17.67666626  189.53399658    4.90999985    2.53999996
   17.68000031  191.95199585    4.90999985    2.53999996
   17.68333244  187.93200684    4.90999985    2.53999996
   17.68666649  186.27000427    4.90999985    2.53999996
   17.68999863  176.31700134    4.90999985    2.53999996
   17.69305420  173.61599731    4.90999985    2.53999996
   17.69638824  165.83000183    4.90999985    2.53999996
   17.70222282  165.83000183    4.90999985    2.53999996
   17.70639038  185.86500549    4.90999985    2.53999996
   17.70944595  193.62399292    4.90999985    2.53999996
   17.71277809  170.67599487    4.90999985    2.53999996
   17.71611214  154.43299866    4.90999985    2.53999996
   17.71916771  167.88600159    4.90999985    2.53999996
   17.72249985  166.83799744    4.90999985    2.53999996
   17.72583389  166.61099243    4.90999985    2.53999996
   17.72888947  169.52799988    4.90999985    2.53999996
   17.73222351  167.56799316    4.90999985    2.53999996
   17.73305511  162.54600525    4.90999985    2.53999996
   17.73583412  166.55599976    4.90999985    2.53999996
   17.73888969  159.96600342    4.90999985    2.53999996
   17.74500084  159.96600342    4.90999985    2.53999996
   17.74916649  158.49699402    4.90999985    2.53999996
   17.75222206  160.43499756    4.90999985    2.53999996
   17.75555611  163.34599304    4.90999985    2.53999996
   17.75888824  154.10600281    4.90999985    2.53999996
   17.76194382  157.59399414    4.90999985    2.53999996
   17.76527786  159.53500366    4.90999985    2.53999996
   17.76638794  152.88800049    4.90999985    2.53999996
   17.76888847  156.90299988    4.90999985    2.53999996
   17.77194405  148.98500061    4.90999985    2.53999996
   17.77527809  157.20700073    4.90999985    2.53999996
   17.77833366  156.32800293    4.90999985    2.53999996
   17.78166580  146.61999512    4.90999985    2.53999996
   17.78777695  146.61999512    4.90999985    2.53999996
   17.79194450  153.58900452    4.90999985    2.53999996
   17.79527664  158.20799255    4.90999985    2.53999996
   17.79833221  154.51400757    4.90999985    2.53999996
   17.79999924  154.35800171    4.90999985    2.53999996
   17.80194283  156.75700378    4.90999985    2.53999996
   17.80527687  159.62399292    4.90999985    2.53999996
   17.80861092  157.03399658    4.90999985    2.53999996
   17.81166649  158.26600647    4.90999985    2.53999996
   17.81499863  151.67399597    4.90999985    2.53999996
   17.81833458  157.38200378    4.90999985    2.53999996
   17.82139015  154.26699829    4.90999985    2.53999996
   17.82472229  154.79800415    4.90999985    2.53999996
   17.83055687  154.79800415    4.90999985    2.53999996
   17.83472252  155.68099976    4.90999985    2.53999996
   17.83805656  151.07600403    4.90999985    2.53999996
   17.84138870  153.94700623    4.90999985    2.53999996
   17.84444427  152.80599976    4.90999985    2.53999996
   17.84777832  154.29699707    4.90999985    2.53999996
   17.85083389  153.02499390    4.90999985    2.53999996
   17.85416794  150.24099731    4.90999985    2.53999996
   17.85750008  151.00599670    4.90999985    2.53999996
   17.86055565  153.98599243    4.90999985    2.53999996
   17.86388969  148.16200256    4.90999985    2.53999996
   17.86666679  149.82699585    4.90999985    2.53999996
   17.86750031  152.97099304    4.90999985    2.53999996
   17.87361145  152.97099304    4.90999985    2.53999996
   17.87777710  150.75199890    4.90999985    2.53999996
   17.88083267  148.10099792    4.90999985    2.53999996
   17.88416672  155.52200317    4.90999985    2.53999996
   17.88722229  148.17199707    4.90999985    2.53999996
   17.89055634  151.61999512    4.90999985    2.53999996
   17.89388847  151.69799805    4.90999985    2.53999996
   17.89694405  146.41299438    4.90999985    2.53999996
   17.89999962  151.20500183    4.90999985    2.53999996
   17.90055466  152.41400146    4.90999985    2.53999996
   17.90388870  148.45700073    4.90999985    2.53999996
   17.90722275  152.48599243    4.90999985    2.53999996
   17.91027832  147.35099792    4.90999985    2.53999996
   17.91638756  147.35099792    4.90999985    2.53999996
   17.92055511  151.47799683    4.90999985    2.53999996
   17.92361069  157.89700317    4.90999985    2.53999996
   17.92694473  151.11700439    4.90999985    2.53999996
   17.93027687  155.72799683    4.90999985    2.53999996
   17.93333244  150.50399780    4.90999985    2.53999996
   17.93361092  149.22999573    4.90999985    2.53999996
   17.93694305  149.13000488    4.90999985    2.53999996
   17.94027710  155.09199524    4.90999985    2.53999996
   17.94333267  152.38400269    4.90999985    2.53999996
   17.94666672  147.02200317    4.90999985    2.53999996
   17.95000076  155.52999878    4.90999985    2.53999996
   17.95333481  149.46499634    4.90999985    2.53999996
   17.95916748  149.46499634    4.90999985    2.53999996
   17.96333504  155.79100037    4.90999985    2.53999996
   17.96666718  154.14599609    4.90999985    2.53999996
   17.96694565  154.25900269    4.90999985    2.53999996
   17.97027779  153.38499451    4.90999985    2.53999996
   17.97361183  155.27099609    4.90999985    2.53999996
   17.97666740  151.35800171    4.90999985    2.53999996
   17.98000145  151.25500488    4.90999985    2.53999996
   17.98305511  149.50799561    4.90999985    2.53999996
   17.98638916  151.41700745    4.90999985    2.53999996
   17.98972321  153.34500122    4.90999985    2.53999996
   17.99277878  160.18800354    4.90999985    2.53999996
   17.99611092  156.72399902    4.90999985    2.53999996
   18.00194359  156.72399902    4.90999985    2.53999996
   18.00611115  150.78500366    4.90999985    2.53999996
   18.00944519  156.05099487    4.90999985    2.53999996
   18.01250076  159.28500366    4.90999985    2.53999996
   18.01583290  159.75500488    4.90999985    2.53999996
   18.01916695  153.42500305    4.90999985    2.53999996
   18.02222252  156.99000549    4.90999985    2.53999996
   18.02555466  153.78700256    4.90999985    2.53999996
   18.02888870  159.67300415    4.90999985    2.53999996
   18.03194427  153.06799316    4.90999985    2.53999996
   18.03333282  153.70599365    4.90999985    2.53999996
   18.03555489  151.27600098    4.90999985    2.53999996
   18.03888893  152.48800659    4.90999985    2.53999996
   18.04500008  152.48800659    4.90999985    2.53999996
   18.04916573  215.13400269    4.90999985    2.53999996
   18.05222130   -1.00000000    4.90999985    2.53999996
   18.05555534   -1.00000000    4.90999985    2.53999996
   18.05861092   -1.00000000    4.90999985    2.53999996
   18.06194305   -1.00000000    4.90999985    2.53999996
   18.06527710   -1.00000000    4.90999985    2.53999996
   18.06861115   -1.00000000    4.90999985    2.53999996
   18.07194519  158.02299500    4.90999985    2.53999996
   18.07500076  148.52400208    4.90999985    2.53999996
   18.07833481  153.04200745    4.90999985    2.53999996
   18.08166695  154.09399414    4.90999985    2.53999996
   18.08777809  154.09399414    4.90999985    2.53999996
   18.09194565  160.71600342    4.90999985    2.53999996
   18.09500122  156.04800415    4.90999985    2.53999996
   18.09833336  155.42700195    4.90999985    2.53999996
   18.10027885  155.63000488    4.90999985    2.53999996
   18.10194397  152.66700745    4.90999985    2.53999996
   18.10527802  153.00199890    4.90999985    2.53999996
   18.10833359  152.22200012    4.90999985    2.53999996
   18.11166763  149.44700623    4.90999985    2.53999996
   18.11499977  153.65499878    4.90999985    2.53999996
   18.11805534  161.08200073    4.90999985    2.53999996
   18.12138939  157.13999939    4.90999985    2.53999996
   18.12472153  152.58399963    4.90999985    2.53999996
   18.13055611  152.58399963    4.90999985    2.53999996
   18.13472176  149.85000610    4.90999985    2.53999996
   18.13805580  153.32000732    4.90999985    2.53999996
   18.14111137  154.75799561    4.90999985    2.53999996
   18.14444351  154.27799988    4.90999985    2.53999996
   18.14749908  153.41400146    4.90999985    2.53999996
   18.15083313  157.30900574    4.90999985    2.53999996
   18.15416718  160.53999329    4.90999985    2.53999996
   18.15722275  149.92900085    4.90999985    2.53999996
   18.16055489  148.51499939    4.90999985    2.53999996
   18.16388893  148.78199768    4.90999985    2.53999996
   18.16694450  156.32600403    4.90999985    2.53999996
   18.16722107  157.89199829    4.90999985    2.53999996
   18.17333221  157.89199829    4.90999985    2.53999996
   18.17749977  149.14700317    4.90999985    2.53999996
   18.18083191  152.77099609    4.90999985    2.53999996
   18.18388748  157.80499268    4.90999985    2.53999996
   18.18722153  158.18600464    4.90999985    2.53999996
   18.19055557  156.58399963    4.90999985    2.53999996
   18.19361115  158.43499756    4.90999985    2.53999996
   18.19694328  158.70100403    4.90999985    2.53999996
   18.20027924  153.49299622    4.90999985    2.53999996
   18.20055580  155.11799622    4.90999985    2.53999996
   18.20388985  155.43400574    4.90999985    2.53999996
   18.20694542  150.94000244    4.90999985    2.53999996
   18.21027946  153.54299927    4.90999985    2.53999996
   18.21638870  153.54299927    4.90999985    2.53999996
   18.22027779  152.57800293    4.90999985    2.53999996
   18.22361183  153.72399902    4.90999985    2.53999996
   18.22694588  157.19000244    4.90999985    2.53999996
   18.23000145  158.28700256    4.90999985    2.53999996
   18.23333359  160.62600708    4.90999985    2.53999996
   18.23388863  160.58599854    4.90999985    2.53999996
   18.23694420  147.82800293    4.90999985    2.53999996
   18.24027824  155.30000305    4.90999985    2.53999996
   18.24361229  152.25500488    4.90999985    2.53999996
   18.24666786  155.37500000    4.90999985    2.53999996
   18.25000000  153.43600464    4.90999985    2.53999996
   18.25305557  156.69200134    4.90999985    2.53999996
   18.25916672  156.69200134    4.90999985    2.53999996
   18.26333427  154.64100647    4.90999985    2.53999996
   18.26638794  151.90699768    4.90999985    2.53999996
   18.26722145  154.57699585    4.90999985    2.53999996
   18.27027702  154.65699768    4.90999985    2.53999996
   18.27333260  157.76699829    4.90999985    2.53999996
   18.27666664  157.25599670    4.90999985    2.53999996
   18.27972221  152.39500427    4.90999985    2.53999996
   18.28305435  155.78500366    4.90999985    2.53999996
   18.28638840  153.55499268    4.90999985    2.53999996
   18.28944397  158.13400269    4.90999985    2.53999996
   18.29277802  154.82099915    4.90999985    2.53999996
   18.29611015  156.19099426    4.90999985    2.53999996
   18.30194283  156.19099426    4.90999985    2.53999996
   18.30611038  155.50000000    4.90999985    2.53999996
   18.30944443  156.67900085    4.90999985    2.53999996
   18.31250000  155.78199768    4.90999985    2.53999996
   18.31583214  159.14399719    4.90999985    2.53999996
   18.31888962  152.31900024    4.90999985    2.53999996
   18.32222366  156.92900085    4.90999985    2.53999996
   18.32555580  160.07099915    4.90999985    2.53999996
   18.32861137  156.41600037    4.90999985    2.53999996
   18.33194542  155.23399353    4.90999985    2.53999996
   18.33388901  157.92100525    4.90999985    2.53999996
   18.33555603  153.21899414    4.90999985    2.53999996
   18.33889008  154.42100525    4.90999985    2.53999996
   18.34500122  154.42100525    4.90999985    2.53999996
   18.34916687  155.80700684    4.90999985    2.53999996
   18.35222244  157.95599365    4.90999985    2.53999996
   18.35555649  157.09899902    4.90999985    2.53999996
   18.35888863  158.13900757    4.90999985    2.53999996
   18.36194420  156.54699707    4.90999985    2.53999996
   18.36527824  160.27000427    4.90999985    2.53999996
   18.36722183  156.75300598    4.90999985    2.53999996
   18.36888885  152.79499817    4.90999985    2.53999996
   18.37222290  156.93699646    4.90999985    2.53999996
   18.37555504  155.40299988    4.90999985    2.53999996
   18.37888908  157.11300659    4.90999985    2.53999996
   18.38194466  156.19599915    4.90999985    2.53999996
   18.38777733  156.19599915    4.90999985    2.53999996
   18.39166641  156.56900024    4.90999985    2.53999996
   18.39500046  161.77400208    4.90999985    2.53999996
   18.39833260  157.08700562    4.90999985    2.53999996
   18.41527748  158.74499512    4.90999985    2.53999996
   18.41805458  157.15899658    4.90999985    2.53999996
   18.42138863  164.21499634    4.90999985    2.53999996
   18.42444420  159.09399414    4.90999985    2.53999996
   18.43055534  159.09399414    4.90999985    2.53999996
   18.43472099  157.36399841    4.90999985    2.53999996
   18.43777657  157.01100159    4.90999985    2.53999996
   18.44111061  154.14100647    4.90999985    2.53999996
   18.44444275  158.83900452    4.90999985    2.53999996
   18.44749832  155.08900452    4.90999985    2.53999996
   18.44861031  159.18600464    4.90999985    2.53999996
   18.45138931  152.39599609    4.90999985    2.53999996
   18.45444489  155.29100037    4.90999985    2.53999996
   18.45777893  158.78799438    4.90999985    2.53999996
   18.46083450  151.16799927    4.90999985    2.53999996
   18.46416664  156.34899902    4.90999985    2.53999996
   18.46750069  159.76199341    4.90999985    2.53999996
   18.47333336  159.76199341    4.90999985    2.53999996
   18.47750092  155.88400269    4.90999985    2.53999996
   18.48083305  155.25000000    4.90999985    2.53999996
   18.48194504  158.64500427    4.90999985    2.53999996
   18.48444557  154.80200195    4.90999985    2.53999996
   18.48750114  150.79100037    4.90999985    2.53999996
   18.49083328  156.03900146    4.90999985    2.53999996
   18.49388885  151.72799683    4.90999985    2.53999996
   18.49722290  155.46200562    4.90999985    2.53999996
   18.50055504  154.33700562    4.90999985    2.53999996
   18.50361061  155.46200562    4.90999985    2.53999996
   18.50694466  154.65100098    4.90999985    2.53999996
   18.51027870  151.88299561    4.90999985    2.53999996
   18.51611137  151.88299561    4.90999985    2.53999996
   18.52027702  157.87199402    4.90999985    2.53999996
   18.52361107  151.45899963    4.90999985    2.53999996
   18.52666664  180.52499390    4.90999985    2.53999996
   18.53000069   -1.00000000    4.90999985    2.53999996
   18.53333282   -1.00000000    4.90999985    2.53999996
   18.53638840  154.05099487    4.90999985    2.53999996
   18.53972244  185.65100098    4.90999985    2.53999996
   18.54305458  152.80999756    4.90999985    2.53999996
   18.54611015  156.65899658    4.90999985    2.53999996
   18.54861069  153.18200684    4.90999985    2.53999996
   18.54999924  152.17999268    4.90999985    2.53999996
   18.55305481  152.16299438    4.90999985    2.53999996
   18.55916595  152.16299438    4.90999985    2.53999996
   18.56333351  158.62500000    4.90999985    2.53999996
   18.56638718  155.79499817    4.90999985    2.53999996
   18.56972313  155.88200378    4.90999985    2.53999996
   18.57277870  156.22300720    4.90999985    2.53999996
   18.57611275  155.22599792    4.90999985    2.53999996
   18.57944489  149.11700439    4.90999985    2.53999996
   18.58194542  155.81300354    4.90999985    2.53999996
   18.58305550  158.07400513    4.90999985    2.53999996
   18.58611107  157.65299988    4.90999985    2.53999996
   18.58944511  147.75399780    4.90999985    2.53999996
   18.59277916  150.72700500    4.90999985    2.53999996
   18.59583473  157.40400696    4.90999985    2.53999996
   18.60194397  157.40400696    4.90999985    2.53999996
   18.60611153  158.25300598    4.90999985    2.53999996
   18.60916710  160.04100037    4.90999985    2.53999996
   18.61250114  157.49299622    4.90999985    2.53999996
   18.61527824  160.42599487    4.90999985    2.53999996
   18.61611176  159.08999634    4.90999985    2.53999996
   18.61916733  159.36599731    4.90999985    2.53999996
   18.62249947  155.75599670    4.90999985    2.53999996
   18.62555504  157.05499268    4.90999985    2.53999996
   18.62888908  157.09800720    4.90999985    2.53999996
   18.63222313  157.64700317    4.90999985    2.53999996
   18.63527679  158.54899597    4.90999985    2.53999996
   18.63861084  154.65600586    4.90999985    2.53999996
   18.64472198  154.65600586    4.90999985    2.53999996
   18.64888954  160.44500732    4.90999985    2.53999996
   18.65222168  156.31399536    4.90999985    2.53999996
   18.65527725  156.85000610    4.90999985    2.53999996
   18.65861130  157.46400452    4.90999985    2.53999996
   18.66194344  157.08599854    4.90999985    2.53999996
   18.66499901  160.41200256    4.90999985    2.53999996
   18.66833305  158.58099365    4.90999985    2.53999996
   18.67138863  155.36399841    4.90999985    2.53999996
   18.67472076  156.48800659    4.90999985    2.53999996
   18.67805481  157.22099304    4.90999985    2.53999996
   18.68111038  159.23399353    4.90999985    2.53999996
   18.68194389  161.52400208    4.90999985    2.53999996
   18.68750000  161.52400208    4.90999985    2.53999996
   18.69166565  158.00399780    4.90999985    2.53999996
   18.69499969  155.17700195    4.90999985    2.53999996
   18.69805527  155.30799866    4.90999985    2.53999996
   18.70138931  151.88699341    4.90999985    2.53999996
   18.70472336  151.94200134    4.90999985    2.53999996
   18.70777893  156.91600037    4.90999985    2.53999996
   18.71111107  156.29400635    4.90999985    2.53999996
   18.71444511  158.42399597    4.90999985    2.53999996
   18.71527863  160.46899414    4.90999985    2.53999996
   18.71805573  159.74200439    4.90999985    2.53999996
   18.72111130  161.38099670    4.90999985    2.53999996
   18.72444534  155.97500610    4.90999985    2.53999996
   18.73055649  155.97500610    4.90999985    2.53999996
   18.73444557  157.37199402    4.90999985    2.53999996
   18.73777771  156.81700134    4.90999985    2.53999996
   18.74111176  157.10200500    4.90999985    2.53999996
   18.74416733  157.14399719    4.90999985    2.53999996
   18.74749947  154.39700317    4.90999985    2.53999996
   18.74861145  159.30599976    4.90999985    2.53999996
   18.75138855  156.15899658    4.90999985    2.53999996
   18.75444412  156.01600647    4.90999985    2.53999996
   18.75777817  155.35899353    4.90999985    2.53999996
   18.76111031  154.46600342    4.90999985    2.53999996
   18.76416588  158.01699829    4.90999985    2.53999996
   18.76749992  158.76899719    4.90999985    2.53999996
   18.77333260  158.76899719    4.90999985    2.53999996
   18.77750015  150.24299622    4.90999985    2.53999996
   18.78055573  154.56799316    4.90999985    2.53999996
   18.78194427  152.74099731    4.90999985    2.53999996
   18.78444481  165.64300537    4.90999985    2.53999996
   18.78750038  153.63600159    4.90999985    2.53999996
   18.79083252  155.30900574    4.90999985    2.53999996
   18.79416656  152.35200500    4.90999985    2.53999996
   18.79722214  152.32200623    4.90999985    2.53999996
   18.80055428  161.31100464    4.90999985    2.53999996
   18.80360985  157.33700562    4.90999985    2.53999996
   18.80694389  152.38099670    4.90999985    2.53999996
   18.81027794  162.00199890    4.90999985    2.53999996
   18.81611061  162.00199890    4.90999985    2.53999996
   18.82027817  156.24800110    4.90999985    2.53999996
   18.82361221  158.74499512    4.90999985    2.53999996
   18.82666779  160.28799438    4.90999985    2.53999996
   18.83000183  159.19900513    4.90999985    2.53999996
   18.83305550  155.30000305    4.90999985    2.53999996
   18.83638954  157.50300598    4.90999985    2.53999996
   18.83972359  160.03100586    4.90999985    2.53999996
   18.84277916  157.84500122    4.90999985    2.53999996
   18.84611130  154.51300049    4.90999985    2.53999996
   18.84861183  162.31399536    4.90999985    2.53999996
   18.84972191  157.97599792    4.90999985    2.53999996
   18.85277748  159.49800110    4.90999985    2.53999996
   18.85888863  159.49800110    4.90999985    2.53999996
   18.86305618  163.53799438    4.90999985    2.53999996
   18.86638832  160.07899475    4.90999985    2.53999996
   18.86972237  156.43600464    4.90999985    2.53999996
   18.87277794  160.10600281    4.90999985    2.53999996
   18.87611198  163.16400146    4.90999985    2.53999996
   18.87916756  157.10499573    4.90999985    2.53999996
   18.88194466  162.21400452    4.90999985    2.53999996
   18.88305473  159.67100525    4.90999985    2.53999996
   18.88638878  160.75100708    4.90999985    2.53999996
   18.88972282  161.45700073    4.90999985    2.53999996
   18.89277840  157.69700623    4.90999985    2.53999996
   18.89611053  160.14399719    4.90999985    2.53999996
   18.90194321  160.14399719    4.90999985    2.53999996
   18.90611076  157.27200317    4.90999985    2.53999996
   18.90916634  159.63600159    4.90999985    2.53999996
   18.91250038  161.06500244    4.90999985    2.53999996
   18.91527748  161.14399719    4.90999985    2.53999996
   18.91611099  162.10299683    4.90999985    2.53999996
   18.91916656  156.64700317    4.90999985    2.53999996
   18.92249870  159.79400635    4.90999985    2.53999996
   18.92583275  162.13499451    4.90999985    2.53999996
   18.92888832  161.06399536    4.90999985    2.53999996
   18.93222237  165.61399841    4.90999985    2.53999996
   18.93555450  159.93099976    4.90999985    2.53999996
   18.93861008  163.56799316    4.90999985    2.53999996
   18.94472122  163.56799316    4.90999985    2.53999996
   18.94888878  163.16299438    4.90999985    2.53999996
   18.95194435  163.06599426    4.90999985    2.53999996
   18.95527840  161.75900269    4.90999985    2.53999996
   18.95861244  158.57899475    4.90999985    2.53999996
   18.96166801  155.01499939    4.90999985    2.53999996
   18.96527863  155.85299683    4.90999985    2.53999996
   18.96861076  159.26699829    4.90999985    2.53999996
   18.97166634  155.82099915    4.90999985    2.53999996
   18.97500038  157.08599854    4.90999985    2.53999996
   18.97833443  159.33099365    4.90999985    2.53999996
   18.98139000  155.13099670    4.90999985    2.53999996
   18.98194504  156.73500061    4.90999985    2.53999996
   18.98750114  156.73500061    4.90999985    2.53999996
   18.99166679  164.98199463    4.90999985    2.53999996
   18.99500084  164.19299316    4.90999985    2.53999996
   18.99805641  157.84300232    4.90999985    2.53999996
   19.00138855  167.55700684    4.90999985    2.53999996
   19.00472260  164.15499878    4.90999985    2.53999996
   19.00777817  162.20300293    4.90999985    2.53999996
   19.01111031  161.68600464    4.90999985    2.53999996
   19.01444435  163.37100220    4.90999985    2.53999996
   19.01527786  159.19700623    4.90999985    2.53999996
   19.01805496  160.16700745    4.90999985    2.53999996
   19.02111053  159.19500732    4.90999985    2.53999996
   19.02444458  164.01100159    4.90999985    2.53999996
   19.03027725  164.01100159    4.90999985    2.53999996
   19.03444481  165.77200317    4.90999985    2.53999996
   19.03777695  163.81399536    4.90999985    2.53999996
   19.04111099  163.82400513    4.90999985    2.53999996
   19.04416656  155.66900635    4.90999985    2.53999996
   19.04749870  158.57899475    4.90999985    2.53999996
   19.04861069  166.38299561    4.90999985    2.53999996
   19.05111122  166.66499329    4.90999985    2.53999996
   19.05444336  162.42999268    4.90999985    2.53999996
   19.05749893  162.73500061    4.90999985    2.53999996
   19.06083298  160.65600586    4.90999985    2.53999996
   19.06388855  160.74899292    4.90999985    2.53999996
   19.06722260  163.39700317    4.90999985    2.53999996
   19.07333374  163.39700317    4.90999985    2.53999996
   19.07722282  162.02600098    4.90999985    2.53999996
   19.08055687  161.81599426    4.90999985    2.53999996
   19.08194542  160.86900330    4.90999985    2.53999996
   19.08416748  159.72999573    4.90999985    2.53999996
   19.08750153  162.14999390    4.90999985    2.53999996
   19.09055710  163.47300720    4.90999985    2.53999996
   19.09388924  159.91700745    4.90999985    2.53999996
   19.09694481  164.90600586    4.90999985    2.53999996
   19.10027885  164.38200378    4.90999985    2.53999996
   19.10361099  165.37600708    4.90999985    2.53999996
   19.10666656  164.21899414    4.90999985    2.53999996
   19.11027908  167.28799438    4.90999985    2.53999996
   19.11611176  167.28799438    4.90999985    2.53999996
   19.12027740  164.86799622    4.90999985    2.53999996
   19.12361145  165.69000244    4.90999985    2.53999996
   19.12666702  164.28799438    4.90999985    2.53999996
   19.13000107  167.30900574    4.90999985    2.53999996
   19.13305473  163.00100708    4.90999985    2.53999996
   19.13638878  164.88600159    4.90999985    2.53999996
   19.13972282  161.25199890    4.90999985    2.53999996
   19.14277840  165.89300537    4.90999985    2.53999996
   19.14611053  164.10099792    4.90999985    2.53999996
   19.14861107  170.37100220    4.90999985    2.53999996
   19.14972115  165.22599792    4.90999985    2.53999996
   19.15277672  164.54899597    4.90999985    2.53999996
   19.15888786  164.54899597    4.90999985    2.53999996
   19.16305542  165.22099304    4.90999985    2.53999996
   19.16638756  167.16000366    4.90999985    2.53999996
   19.16944313  165.30599976    4.90999985    2.53999996
   19.17277718  168.42900085    4.90999985    2.53999996
   19.17611122  159.79600525    4.90999985    2.53999996
   19.17916679  162.93899536    4.90999985    2.53999996
   19.18194389  162.08399963    4.90999985    2.53999996
   19.18277740  160.56700134    4.90999985    2.53999996
   19.18610954  166.70700073    4.90999985    2.53999996
   19.18916512  162.09100342    4.90999985    2.53999996
   19.19249916  163.58700562    4.90999985    2.53999996
   19.19555473  163.39500427    4.90999985    2.53999996
   19.20166779  163.39500427    4.90999985    2.53999996
   19.20583344  161.01600647    4.90999985    2.53999996
   19.20916748  163.22999573    4.90999985    2.53999996
   19.21250153  162.94900513    4.90999985    2.53999996
   19.21527863  163.24400330    4.90999985    2.53999996
   19.21611214  169.50799561    4.90999985    2.53999996
   19.21944427  160.42199707    4.90999985    2.53999996
   19.22249985  164.10499573    4.90999985    2.53999996
   19.22583389  166.21099854    4.90999985    2.53999996
   19.22888947  167.13999939    4.90999985    2.53999996
   19.23222351  168.62100220    4.90999985    2.53999996
   19.23555565  163.47399902    4.90999985    2.53999996
   19.23861122  163.93099976    4.90999985    2.53999996
   19.24472237  163.93099976    4.90999985    2.53999996
   19.24888992  166.08900452    4.90999985    2.53999996
   19.25194359  159.45799255    4.90999985    2.53999996
   19.25527763  157.14900208    4.90999985    2.53999996
   19.25833321  165.90899658    4.90999985    2.53999996
   19.26166725  157.48800659    4.90999985    2.53999996
   19.26499939  158.66299438    4.90999985    2.53999996
   19.26805496  169.49800110    4.90999985    2.53999996
   19.27138901  164.55599976    4.90999985    2.53999996
   19.27472115  163.33900452    4.90999985    2.53999996
   19.27805519  164.17700195    4.90999985    2.53999996
   19.28111076  163.52200317    4.90999985    2.53999996
   19.28194427  164.70100403    4.90999985    2.53999996
   19.28750038  164.70100403    4.90999985    2.53999996
   19.29166603  166.09800720    4.90999985    2.53999996
   19.29472160  165.23699951    4.90999985    2.53999996
   19.29805565  166.15299988    4.90999985    2.53999996
   19.30138779  161.36300659    4.90999985    2.53999996
   19.30444336  167.71299744    4.90999985    2.53999996
   19.30777740  158.64199829    4.90999985    2.53999996
   19.31110954  159.79400635    4.90999985    2.53999996
   19.31416512  160.76199341    4.90999985    2.53999996
   19.31527710  162.25999451    4.90999985    2.53999996
   19.31777954  165.90499878    4.90999985    2.53999996
   19.32111168  168.19599915    4.90999985    2.53999996
   19.32416725  171.28799438    4.90999985    2.53999996
   19.33027840  171.28799438    4.90999985    2.53999996
   19.33444595  165.02999878    4.90999985    2.53999996
   19.33777809  169.01199341    4.90999985    2.53999996
   19.34111214  164.60299683    4.90999985    2.53999996
   19.34416771  162.29299927    4.90999985    2.53999996
   19.34749985  161.99200439    4.90999985    2.53999996
   19.34861183  164.81599426    4.90999985    2.53999996
   19.35111237  171.15199280    4.90999985    2.53999996
   19.35444450  163.57499695    4.90999985    2.53999996
   19.35750008  161.97700500    4.90999985    2.53999996
   19.36083412  168.63000488    4.90999985    2.53999996
   19.36416626  165.79600525    4.90999985    2.53999996
   19.36722183  163.11900330    4.90999985    2.53999996
   19.37305641  163.11900330    4.90999985    2.53999996
   19.37722206  164.67100525    4.90999985    2.53999996
   19.38055611  169.25999451    4.90999985    2.53999996
   19.38194466  161.68800354    4.90999985    2.53999996
   19.38416672  171.10899353    4.90999985    2.53999996
   19.38750076  159.86000061    4.90999985    2.53999996
   19.39055634  167.61000061    4.90999985    2.53999996
   19.39388847  170.20799255    4.90999985    2.53999996
   19.39722252  179.21000671    4.90999985    2.53999996
   19.40027809  176.57000732    4.90999985    2.53999996
   19.40361023  184.62399292    4.90999985    2.53999996
   19.40666580  203.21699524    4.90999985    2.53999996
   19.40999985  248.96899414    4.90999985    2.53999996
   19.43249893  167.29899597    4.90999985    2.53999996
   19.43305397  163.44500732    4.90999985    2.53999996
   19.43638802  161.84599304    4.90999985    2.53999996
   19.43944359  164.47999573    4.90999985    2.53999996
   19.44277763  169.53599548    4.90999985    2.53999996
   19.44583321  164.19400024    4.90999985    2.53999996
   19.44861031  163.14700317    4.90999985    2.53999996
   19.44944382  166.43200684    4.90999985    2.53999996
   19.45277786  165.62699890    4.90999985    2.53999996
   19.45888901  165.62699890    4.90999985    2.53999996
   19.46305656  167.51600647    4.90999985    2.53999996
   19.46638870  163.51800537    4.90999985    2.53999996
   19.46944427  167.01300049    4.90999985    2.53999996
   19.47277832  165.32000732    4.90999985    2.53999996
   19.47583389  164.30599976    4.90999985    2.53999996
   19.47916794  170.38099670    4.90999985    2.53999996
   19.48194504  165.55700684    4.90999985    2.53999996
   19.48277855  166.94599915    4.90999985    2.53999996
   19.48611069  164.07099915    4.90999985    2.53999996
   19.48916626  173.86399841    4.90999985    2.53999996
   19.49250031  170.50300598    4.90999985    2.53999996
   19.49583435  164.16099548    4.90999985    2.53999996
   19.50166702  164.16099548    4.90999985    2.53999996
   19.50583267  162.93699646    4.90999985    2.53999996
   19.50916672  171.30799866    4.90999985    2.53999996
   19.51222229  159.58999634    4.90999985    2.53999996
   19.51527786  167.27200317    4.90999985    2.53999996
   19.51583290  169.38999939    4.90999985    2.53999996
   19.51916695  169.21600342    4.90999985    2.53999996
   19.52249908  156.78999329    4.90999985    2.53999996
   19.52555466  161.16299438    4.90999985    2.53999996
   19.52888870  164.93400574    4.90999985    2.53999996
   19.53222275  161.94999695    4.90999985    2.53999996
   19.53527641  169.56500244    4.90999985    2.53999996
   19.53861046  172.31399536    4.90999985    2.53999996
   19.54472160  172.31399536    4.90999985    2.53999996
   19.54861069  174.53999329    4.90999985    2.53999996
   19.54916573  167.96200562    4.90999985    2.53999996
   19.55249977  167.10299683    4.90999985    2.53999996
   19.55555534  163.11099243    4.90999985    2.53999996
   19.55888748  166.22099304    4.90999985    2.53999996
   19.56222153  173.68899536    4.90999985    2.53999996
   19.56527710  167.39599609    4.90999985    2.53999996
   19.56861115  170.13699341    4.90999985    2.53999996
   19.57166672  159.60800171    4.90999985    2.53999996
   19.57500076  167.91299438    4.90999985    2.53999996
   19.57833481  164.89100647    4.90999985    2.53999996
   19.58139038  165.75500488    4.90999985    2.53999996
   19.58194542  169.15400696    4.90999985    2.53999996
   19.58750153  169.15400696    4.90999985    2.53999996
   19.59166718  170.86599731    4.90999985    2.53999996
   19.59472275  177.58299255    4.90999985    2.53999996
   19.59833336  166.33500671    4.90999985    2.53999996
   19.60166740  166.95799255    4.90999985    2.53999996
   19.60472298  173.38400269    4.90999985    2.53999996
   19.60805511  169.85499573    4.90999985    2.53999996
   19.61138916  177.27600098    4.90999985    2.53999996
   19.61444473  169.98300171    4.90999985    2.53999996
   19.61555672  167.67100525    4.90999985    2.53999996
   19.61805534  175.46099854    4.90999985    2.53999996
   19.62138939  177.27999878    4.90999985    2.53999996
   19.62444496  181.11399841    4.90999985    2.53999996
   19.63027763  181.11399841    4.90999985    2.53999996
   19.63444519  189.26899719    4.90999985    2.53999996
   19.63777733  184.72399902    4.90999985    2.53999996
   19.64083290  188.99000549    4.90999985    2.53999996
   19.64416695  176.32000732    4.90999985    2.53999996
   19.64722252  168.80700684    4.90999985    2.53999996
   19.64861107  163.72999573    4.90999985    2.53999996
   19.65083313  185.23500061    4.90999985    2.53999996
   19.65416718  173.73599243    4.90999985    2.53999996
   19.65722275  164.10499573    4.90999985    2.53999996
   19.66055489  176.17199707    4.90999985    2.53999996
   19.66388893  175.49299622    4.90999985    2.53999996
   19.66694450  187.17900085    4.90999985    2.53999996
   19.67305565  187.17900085    4.90999985    2.53999996
   19.67722130  177.85600281    4.90999985    2.53999996
   19.68055534  176.89900208    4.90999985    2.53999996
   19.68194389  174.16400146    4.90999985    2.53999996
   19.68416595  168.18800354    4.90999985    2.53999996
   19.68750000  183.68499756    4.90999985    2.53999996
   19.69055557  172.50500488    4.90999985    2.53999996
   19.69388771  190.19799805    4.90999985    2.53999996
   19.69722176  178.01100159    4.90999985    2.53999996
   19.70027924  170.74800110    4.90999985    2.53999996
   19.70361137  173.74200439    4.90999985    2.53999996
   19.70694542  181.28500366    4.90999985    2.53999996
   19.71000099  185.16099548    4.90999985    2.53999996
   19.71611214  185.16099548    4.90999985    2.53999996
   19.72000122  200.44400024    4.90999985    2.53999996
   19.72333336  204.38099670    4.90999985    2.53999996
   19.72666740  220.58799744    4.90999985    2.53999996
   19.72972298  234.60099792    4.90999985    2.53999996
   19.73305511  250.22700500    4.90999985    2.53999996
   19.73638916  247.99000549    4.90999985    2.53999996
   19.73944473  307.93200684    4.90999985    2.53999996
   19.74138832  197.06700134    4.90999985    2.53999996
   19.74166679  220.58799744    4.90999985    2.53999996
   19.74166679  234.60099792    4.90999985    2.53999996
   19.74166679  250.22700500    4.90999985    2.53999996
   19.74166679  247.99000549    4.90999985    2.53999996
   19.74166679  307.93200684    4.90999985    2.53999996
   19.74166679  181.28500366    4.90999985    2.53999996
   19.74194527  185.16099548    4.90999985    2.53999996
   19.74194527  200.44400024    4.90999985    2.53999996
   19.74194527  204.38099670    4.90999985    2.53999996
   19.74388885   61.88850021    4.90999985    2.53999996
