    HOUR (UT)   FLARE FACTOR    SKY TESTER    SUN TESTER
   11.36138916   -1.00000000   -1.00000000   -1.00000000
   11.41944504  160.77699280    0.20999999    0.09000000
   11.42250061  149.07000732    0.20999999    0.07000000
   11.42583370  156.99200439    0.19000000    0.07000000
   11.42916679  162.07400513    0.19000000    0.09000000
   11.43222237  163.02600098    0.19000000    0.07000000
   11.43555546  158.44900513    0.19000000    0.07000000
   11.43972206  158.44900513    0.19000000    0.07000000
   11.44388866  165.25700378    0.19000000    0.07000000
   11.44694424  149.06199646    0.19000000    0.07000000
   11.45027733  157.62199402    0.19000000    0.07000000
   11.45249939  155.96699524    0.20999999    0.07000000
   11.45388889  160.22900391    0.20999999    0.05000000
   11.45722198  151.97799683    0.20999999    0.05000000
   11.46027756  165.33700562    0.20999999    0.05000000
   11.46361065  155.45199585    0.19000000    0.05000000
   11.46694374  146.66499329    0.20999999    0.05000000
   11.46999931  145.48800659    0.20999999    0.05000000
   11.47333336  138.86199951    0.19000000    0.05000000
   11.47666645  145.42399597    0.19000000    0.05000000
   11.48249912  145.42399597    0.19000000    0.03000000
   11.48666668  154.47399902    0.19000000    0.03000000
   11.48972225  156.03500366    0.19000000    0.03000000
   11.49305534  145.21000671    0.19000000    0.05000000
   11.49638939  160.96200562    0.19000000    0.05000000
   11.49944496  151.25300598    0.19000000    0.05000000
   11.50277805  145.47799683    0.20999999    0.03000000
   11.50611115  151.83799744    0.20999999    0.03000000
   11.50916672  148.38900757    0.19000000    0.03000000
   11.51249981  152.33099365    0.19000000    0.03000000
   11.51555538  150.90499878    0.19000000    0.03000000
   11.51888847  149.86099243    0.20999999    0.03000000
   11.51944447  150.80999756    0.19000000    0.03000000
   11.52527714  150.80999756    0.19000000    0.03000000
   11.52944374  145.08000183    0.19000000    0.03000000
   11.53277779  151.29299927    0.19000000    0.03000000
   11.53583336  147.05400085    0.19000000    0.01000000
   11.53916740  144.81300354    0.19000000    0.03000000
   11.54250050  142.97399902    0.19000000    0.01000000
   11.54555607  146.04800415    0.20999999    0.01000000
   11.54888916  149.47099304    0.19000000    0.01000000
   11.55194473  148.64100647    0.19000000    0.01000000
   11.55277824  151.67599487    0.20999999    0.01000000
   11.55555534  155.69299316    0.20999999    0.01000000
   11.55888939  150.67900085    0.20999999    0.01000000
   11.56222248  156.96899414    0.20999999    0.01000000
   11.56805515  156.96899414    0.20999999    0.01000000
   11.57222176  147.18899536    0.20999999    0.01000000
   11.57555580  151.05200195    0.19000000    0.01000000
   11.57944393  143.01199341    0.00000000    0.00000000
   11.58333302  141.97500610    0.00000000    0.00000000
   11.58666611  143.80799866    0.00000000    0.00000000
   11.58749962  152.64999390    0.00000000    0.00000000
   11.59111118  146.80799866    0.00000000    0.00000000
   11.59499931  143.04699707    0.00000000    0.00000000
   11.59888840  145.00300598    0.00000000    0.00000000
   11.60277843  145.79400635    0.00000000    0.00000000
   11.60666752  133.08999634    0.00000000    0.00000000
   11.61166668  133.08999634    0.00000000    0.00000000
   11.61583328  143.13099670    0.19000000    0.01000000
   11.61888885  144.99800110    0.19000000    0.01000000
   11.61944485  148.46600342    0.19000000    0.01000000
   11.62694454  146.83799744    0.19000000    0.01000000
   11.63222218  139.32400513    0.19000000    0.01000000
   11.63527775  138.32699585    0.19000000    0.01000000
   11.64083290  144.77600098    0.19000000    0.01000000
   11.64416695  152.48399353    0.19000000    0.01000000
   11.64722252  150.93699646    0.19000000    0.01000000
   11.65055561  143.05499268    0.19000000    0.01000000
   11.65472221  143.05499268    0.19000000    0.01000000
   11.65861034  144.80900574    0.19000000    0.01000000
   11.66194439  140.71499634    0.19000000    0.01000000
   11.66527748  147.42300415    0.19000000    0.01000000
   11.66833401  146.40199280    0.19000000    0.01000000
   11.67166710  147.67999268    0.19000000    0.01000000
   11.67472267  138.51899719    0.19000000    0.01000000
   11.67805576  138.52699280    0.19000000    0.01000000
   11.68138885  130.33099365    0.19000000    0.01000000
   11.68444443  143.33399963    0.19000000    0.01000000
   11.68611145  139.42999268    0.19000000    0.01000000
   11.68833351  133.02699280    0.19000000    0.01000000
   11.69138908  137.09700012    0.19000000    0.01000000
   11.69750023  137.09700012    0.19000000    0.01000000
   11.70166683  140.37699890    0.19000000    0.01000000
   11.70472240  141.60899353    0.19000000    0.01000000
   11.70805550  145.95700073    0.19000000    0.01000000
   11.71111107  142.76699829    0.19000000    0.01000000
   11.71444416  145.59599304    0.19000000    0.01000000
   11.71777725  145.36099243    0.19000000    0.01000000
   11.71944427  151.93299866    0.19000000    0.01000000
   11.72138882  160.45899963    0.19000000    0.01000000
   11.72444439  153.90800476    0.19000000    0.01000000
   11.72777748  158.28199768    0.19000000    0.01000000
   11.73111057  146.50500488    0.19000000    0.01000000
   11.73416710  148.42199707    0.19000000    0.01000000
   11.74027824  148.42199707    0.19000000    0.01000000
   11.74444485  151.53900146    0.19000000    0.01000000
   11.74750042  139.42100525    0.19000000    0.01000000
   11.75083351  139.44200134    0.19000000    0.01000000
   11.75305557  152.03399658    0.19000000    0.01000000
   11.75444412  153.00300598    0.19000000    0.01000000
   11.75777817  143.13299561    0.19000000    0.01000000
   11.76111126  141.01800537    0.19000000    0.01000000
   11.76416683  149.12699890    0.19000000    0.01000000
   11.76749992  144.13299561    0.19000000    0.01000000
   11.77055550  154.23300171    0.19000000    0.01000000
   11.77388859  143.38000488    0.19000000    0.01000000
   11.77722168  150.19400024    0.19000000    0.01000000
   11.78305531  150.19400024    0.19000000    0.01000000
   11.78722286  146.30099487    0.19000000    0.01000000
   11.79055595  151.44299316    0.19000000    0.01000000
   11.79361153  150.73899841    0.19000000    0.01000000
   11.79694462  144.64300537    0.19000000    0.01000000
   11.80027771  143.61999512    0.19000000    0.01000000
   11.80333328  147.36799622    0.19000000    0.01000000
   11.80666733  148.81399536    0.19000000    0.01000000
   11.80972195  153.76199341    0.19000000    0.01000000
   11.81305599  144.33700562    0.19000000    0.01000000
   11.81638908  135.48899841    0.19000000    0.01000000
   11.81944466  143.28599548    0.19000000    0.01000000
   11.81999969  139.21800232    0.19000000    0.01000000
   11.82583332  139.21800232    0.19000000    0.01000000
   11.82999992  141.14199829    0.19000000    0.01000000
   11.83333302  138.88999939    0.19000000    0.01000000
   11.83666611  144.20500183    0.19000000    0.01000000
   11.83972168  145.70199585    0.19000000    0.01000000
   11.84305477  141.23800659    0.19000000    0.01000000
   11.84611034  144.14799500    0.19000000    0.01000000
   11.84944439  149.22999573    0.19000000    0.01000000
   11.85277843  141.16900635    0.19000000    0.01000000
   11.85333347  151.84100342    0.19000000    0.01000000
   11.85638905  145.71499634    0.19000000    0.01000000
   11.85944462  147.15400696    0.19000000    0.01000000
   11.86277771  140.27299500    0.19000000    0.01000000
   11.86888885  140.27299500    0.19000000    0.01000000
   11.87277794  152.13699341    0.19000000    0.01000000
   11.87611103  153.01100159    0.19000000    0.01000000
   11.87944412  149.13200378    0.19000000    0.01000000
   11.88249969  144.25599670    0.19000000    0.01000000
   11.88583279  156.51800537    0.19000000    0.01000000
   11.88666630  143.04499817    0.19000000    0.01000000
   11.88944435  143.15199280    0.19000000    0.01000000
   11.89249992  146.89900208    0.19000000    0.01000000
   11.89583302  148.06700134    0.19000000    0.01000000
   11.89916611  144.96299744    0.19000000    0.01000000
   11.90222168  143.25000000    0.19000000    0.01000000
   11.90555477  143.46499634    0.19000000    0.01000000
   11.91166592  143.46499634    0.19000000    0.01000000
   11.91583252  142.21800232    0.19000000    0.01000000
   11.91888905  141.00300598    0.19000000    0.01000000
   11.92000008  144.86700439    0.19000000    0.01000000
   11.92250061  141.34300232    0.19000000    0.01000000
   11.92583370  148.29400635    0.19000000    0.01000000
   11.92888927  139.79800415    0.19000000    0.01000000
   11.93222237  148.65800476    0.19000000    0.01000000
   11.93527794  138.93200684    0.19000000    0.01000000
   11.93861103  142.18299866    0.19000000    0.01000000
   11.94194412  139.64399719    0.19000000    0.01000000
   11.94499969  150.88499451    0.19000000    0.01000000
   11.94833374  151.46899414    0.19000000    0.01000000
   11.95444393  151.46899414    0.19000000    0.01000000
   11.95861053  141.64500427    0.19000000    0.01000000
   11.96194458  140.99800110    0.19000000    0.01000000
   11.96500015  141.25399780    0.19000000    0.01000000
   11.96833324  145.44799805    0.19000000    0.01000000
   11.97166634  149.88900757    0.19000000    0.01000000
   11.97472191  161.55200195    0.19000000    0.01000000
   11.97805500  149.00700378    0.19000000    0.01000000
   11.98138809  144.02299500    0.19000000    0.01000000
   11.98444462  148.63200378    0.19000000    0.01000000
   11.98666668  139.38800049    0.19000000    0.01000000
   11.98805618  148.63299561    0.19000000    0.01000000
   11.99138927  144.98399353    0.19000000    0.01000000
   11.99722290  144.98399353    0.19000000    0.01000000
   12.00138855  151.36799622    0.19000000    0.01000000
   12.00472260  147.22300720    0.19000000    0.01000000
   12.00805569  135.36199951    0.19000000    0.01000000
   12.01111126  144.15199280    0.19000000    0.01000000
   12.01444435  135.83700562    0.19000000    0.01000000
   12.01749992  138.45700073    0.19000000    0.01000000
   12.01999950  139.67100525    0.19000000    0.01000000
   12.02111053  148.80599976    0.19000000    0.01000000
   12.02444458  145.91700745    0.19000000    0.01000000
   12.02750015  136.93200684    0.19000000    0.01000000
   12.03083324  142.47200012    0.19000000    0.01000000
   12.03388977  150.33799744    0.19000000    0.01000000
   12.04027843  150.33799744    0.19000000    0.01000000
   12.04444504  148.29200745    0.19000000    0.01000000
   12.04750061  146.98199463    0.19000000    0.01000000
   12.05083370  136.76499939    0.19000000    0.01000000
   12.05333328  136.61199951    0.19000000    0.01000000
   12.05444431  153.34300232    0.19000000    0.01000000
   12.05777836  156.05799866    0.19000000    0.01000000
   12.06083393  141.09199524    0.19000000    0.01000000
   12.06416702  140.31599426    0.19000000    0.01000000
   12.06750011  143.05299377    0.19000000    0.01000000
   12.07055569  150.48800659    0.19000000    0.01000000
   12.07388878  150.51800537    0.19000000    0.01000000
   12.07722187  151.53300476    0.19000000    0.01000000
   12.08305550  151.53300476    0.19000000    0.01000000
   12.08722210  147.16499329    0.19000000    0.01000000
   12.09027767  141.85000610    0.19000000    0.01000000
   12.09361076  145.50399780    0.19000000    0.01000000
   12.09694386  151.47000122    0.19000000    0.01000000
   12.10000038  141.57000732    0.19000000    0.01000000
   12.10333347  147.15100098    0.19000000    0.01000000
   12.10666752  147.48300171    0.19000000    0.01000000
   12.10972214  158.60699463    0.19000000    0.01000000
   12.11305618  132.53199768    0.19000000    0.01000000
   12.11611176  144.49200439    0.19000000    0.01000000
   12.11944485  145.80099487    0.19000000    0.01000000
   12.11999989  148.29200745    0.19000000    0.01000000
   12.12583351  148.29200745    0.19000000    0.01000000
   12.13000011  145.11700439    0.19000000    0.01000000
   12.13333321  148.78700256    0.19000000    0.01000000
   12.13638878  146.89599609    0.19000000    0.01000000
   12.13972187  137.51499939    0.19000000    0.01000000
   12.14305496  142.74800110    0.19000000    0.01000000
   12.14611053  149.56300354    0.19000000    0.01000000
   12.14944458  139.60600281    0.19000000    0.01000000
   12.15277767  140.74499512    0.19000000    0.01000000
   12.15333271  149.57499695    0.19000000    0.01000000
   12.15611076  153.29400635    0.19000000    0.01000000
   12.15944386  145.66700745    0.19000000    0.01000000
   12.16249943  147.11300659    0.19000000    0.01000000
   12.16861153  147.11300659    0.19000000    0.01000000
   12.17277813  140.67799377    0.19000000    0.01000000
   12.17611122  144.22200012    0.19000000    0.01000000
   12.17944431  141.25900269    0.19000000    0.01000000
   12.18249989  138.43600464    0.19000000    0.01000000
   12.18583298  141.47599792    0.19000000    0.01000000
   12.18666649  138.15100098    0.19000000    0.01000000
   12.18944454  136.98599243    0.19000000    0.01000000
   12.19277763  145.46699524    0.19000000    0.01000000
   12.19583321  143.10200500    0.19000000    0.01000000
   12.19916630  136.00999451    0.19000000    0.01000000
   12.20277786  151.19500732    0.19000000    0.01000000
   12.20583344  141.44900513    0.19000000    0.01000000
   12.21166611  141.44900513    0.19000000    0.01000000
   12.21583271  140.71699524    0.19000000    0.01000000
   12.21888828  140.75100708    0.19000000    0.01000000
   12.21999931  143.78199768    0.19000000    0.01000000
   12.22249985  147.50599670    0.19000000    0.01000000
   12.22583294  143.92700195    0.19000000    0.01000000
   12.22888851  140.63800049    0.19000000    0.01000000
   12.23222160  133.38000488    0.19000000    0.01000000
   12.23555565  146.54899597    0.19000000    0.01000000
   12.23861122  139.07600403    0.19000000    0.01000000
   12.24194431  141.30700684    0.19000000    0.01000000
   12.24499989  151.97700500    0.19000000    0.01000000
   12.24833393  142.35699463    0.19000000    0.01000000
   12.25444412  142.35699463    0.19000000    0.01000000
   12.25861073  135.29600525    0.19000000    0.01000000
   12.26166630  144.56700134    0.19000000    0.01000000
   12.26500034  139.95100403    0.19000000    0.01000000
   12.26833344  146.81700134    0.19000000    0.01000000
   12.27138901  137.78700256    0.19000000    0.01000000
   12.27472210  145.54899597    0.19000000    0.01000000
   12.27805519  138.71699524    0.19000000    0.01000000
   12.28111076  143.82299805    0.19000000    0.01000000
   12.28444481  143.02499390    0.19000000    0.01000000
   12.28666687  131.34300232    0.19000000    0.01000000
   12.28805637  133.90800476    0.19000000    0.01000000
   12.29138947  143.80099487    0.19000000    0.01000000
   12.29722309  143.80099487    0.19000000    0.01000000
   12.30138874  146.40800476    0.19000000    0.01000000
   12.30472279  140.44999695    0.19000000    0.01000000
   12.30777836  139.90299988    0.19000000    0.01000000
   12.31111145  140.68899536    0.19000000    0.01000000
   12.31444454  145.12300110    0.19000000    0.01000000
   12.31750011  141.75599670    0.19000000    0.01000000
   12.31999969  142.61000061    0.19000000    0.01000000
   12.32111073  145.68899536    0.19000000    0.01000000
   12.32444477  145.31399536    0.19000000    0.01000000
   12.32750034  136.14599609    0.19000000    0.01000000
   12.33083344  145.99600220    0.19000000    0.01000000
   12.33416653  141.19500732    0.19000000    0.01000000
   12.34000015  141.19500732    0.19000000    0.01000000
   12.34416676  137.81700134    0.19000000    0.01000000
   12.34749985  142.66299438    0.19000000    0.01000000
   12.35055637  140.41299438    0.19000000    0.01000000
   12.35333347  141.88400269    0.19000000    0.01000000
   12.35416698  145.10099792    0.19000000    0.01000000
   12.35750008  148.29899597    0.19000000    0.01000000
   12.36055565  137.47700500    0.19000000    0.01000000
   12.36388969  151.54100037    0.19000000    0.01000000
   12.36722279  144.23899841    0.19000000    0.01000000
   12.37027836  146.92999268    0.19000000    0.01000000
   12.37361145  144.57099915    0.19000000    0.01000000
   12.37666702  136.16700745    0.19000000    0.01000000
   12.38305569  136.16700745    0.19000000    0.01000000
   12.38694477  135.35299683    0.19000000    0.01000000
   12.39027786  140.64999390    0.19000000    0.01000000
   12.39361095  136.72300720    0.19000000    0.01000000
   12.39666653  138.66099548    0.19000000    0.01000000
   12.39999962  134.64599609    0.19000000    0.01000000
   12.40333271  142.26199341    0.19000000    0.01000000
   12.40638828  145.84100342    0.19000000    0.01000000
   12.40999985  144.75199890    0.19000000    0.01000000
   12.41333294  128.54800415    0.19000000    0.01000000
   12.41638851  136.13900757    0.19000000    0.01000000
   12.41972256  141.80599976    0.19000000    0.01000000
   12.42027855  141.88000488    0.19000000    0.01000000
   12.44083309  141.88000488    0.19000000    0.01000000
   12.44499969  148.44599915    0.19000000    0.01000000
   12.44805527  133.67399597    0.19000000    0.01000000
   12.45138836  134.28900146    0.19000000    0.01000000
   12.45361137  139.97999573    0.19000000    0.01000000
   12.45527744  138.75700378    0.19000000    0.01000000
   12.45833302  129.17900085    0.19000000    0.01000000
   12.46166611  134.75300598    0.19000000    0.01000000
   12.46472168  145.40299988    0.19000000    0.01000000
   12.46805477  137.11399841    0.19000000    0.01000000
   12.47138882  136.04400635    0.19000000    0.01000000
   12.47444439  136.18099976    0.19000000    0.01000000
   12.47777748  140.65699768    0.19000000    0.01000000
   12.48361111  140.65699768    0.19000000    0.01000000
   12.48777771  133.82499695    0.19000000    0.01000000
   12.49083328  133.96200562    0.19000000    0.01000000
   12.49416733  139.80299377    0.25999999    0.01000000
   12.49750042  134.52799988    0.25000000    0.15000001
   12.50055599  137.84599304    0.25000000    0.25000000
   12.50388908  134.31599426    0.25000000    0.25000000
   12.50694466  137.22500610    0.25000000    0.25000000
   12.51027775  143.02699280    0.23000000    0.28000000
   12.51361084  132.46000671    2.39000010    2.57999992
   12.51666641  139.90800476    2.84999990    2.44000006
   12.51999950  147.73100281    4.90999985    2.48000002
   12.52055550  132.27799988    4.90999985    2.48000002
   12.52638817  132.27799988    1.46000004    2.48000002
   12.53055573  137.69299316    0.98000002    2.44000006
   12.53388977  139.09599304    0.95999998    2.48000002
   12.53694534  142.28599548    0.98000002    2.46000004
   12.54027843  150.04699707    0.98000002    2.46000004
   12.54333401  139.29499817    1.00000000    2.44000006
   12.54666710  141.21499634    0.98000002    2.46000004
   12.55000019  145.99299622    0.95999998    2.46000004
   12.55305576  148.45799255    0.98000002    2.46000004
   12.55388927  141.69900513    0.95999998    2.46000004
   12.55694485  137.90899658    0.95999998    2.48000002
   12.56000042  133.27400208    0.94000000    2.48000002
   12.56333351  142.38400269    0.94000000    2.48000002
   12.56916618  142.38400269    0.92000002    2.48000002
   12.57333374  138.74400330    0.92000002    2.46000004
   12.57666683  136.35000610    0.89999998    2.48000002
   12.57972240  129.66200256    0.89999998    2.50000000
   12.58305550  132.05299377    0.89999998    2.48000002
   12.58638859  134.28599548    0.89999998    2.48000002
   12.58722210  134.52099609    0.89999998    2.48000002
   12.58972168  135.14100647    0.89999998    2.48000002
   12.59305477  139.13200378    0.89999998    2.48000002
   12.59638882  137.66000366    0.92000002    2.50000000
   12.59944439  133.56700134    0.92000002    2.50000000
   12.60277843  132.62500000    0.92000002    2.48000002
   12.60611153  130.86999512    0.92000002    2.48000002
   12.61222267  130.86999512    0.92000002    2.48000002
   12.61611176  129.98500061    0.94000000    2.50000000
   12.61944485  133.51699829    0.92000002    2.48000002
   12.62055588  128.06900024    0.92000002    2.50000000
   12.62305546  136.43299866    0.94000000    2.48000002
   12.62638855  132.39599609    0.94000000    2.50000000
   12.62972260  130.34199524    0.94000000    2.50000000
   12.63277817  134.38499451    0.94000000    2.48000002
   12.63611126  138.66600037    0.94000000    2.50000000
   12.63944435  127.84600067    0.94000000    2.48000002
   12.64249992  135.72300720    0.94000000    2.50000000
   12.64583302  139.54699707    0.92000002    2.50000000
   12.64888859  129.11700439    0.92000002    2.50000000
   12.65499973  129.11700439    0.92000002    2.50000000
   12.65916634  140.51100159    0.89999998    2.50000000
   12.66222191  134.27799988    0.89999998    2.50000000
   12.66555500  138.17100525    0.89999998    2.50000000
   12.66888905  135.84399414    0.89999998    2.51999998
   12.67194462  135.44299316    0.89999998    2.48000002
   12.67527771  137.96800232    0.92000002    2.50000000
   12.67833328  135.05999756    0.92000002    2.51999998
   12.68166733  134.39500427    0.92000002    2.50000000
   12.68500042  137.07600403    0.89999998    2.50000000
   12.68722248  128.35400391    0.92000002    2.50000000
   12.68833351  136.90600586    0.89999998    2.51999998
   12.69166660  132.65299988    0.92000002    2.50000000
   12.69777775  132.65299988    0.89999998    2.50000000
   12.70194435  136.37300110    0.89999998    2.50000000
   12.70527744  131.98699951    0.88000000    2.50000000
   12.70833302  137.03199768    0.88000000    2.50000000
   12.71166611  127.57099915    0.88000000    2.51999998
   12.71472168  126.82299805    0.88000000    2.51999998
   12.71805477  129.74200439    0.88000000    2.51999998
   12.72055531  136.55900574    0.88000000    2.51999998
   12.72166634  129.61099243    0.88000000    2.51999998
   12.72499943  133.86900330    0.88000000    2.51999998
   12.72833252  131.62399292    0.88000000    2.51999998
   12.73138809  134.85899353    0.88000000    2.50000000
   12.73472214  125.18699646    0.86000001    2.51999998
   12.74055576  125.18699646    0.86000001    2.51999998
   12.74472237  143.40600586    0.86000001    2.51999998
   12.74805546  126.50900269    0.88000000    2.51999998
   12.75111103  127.99700165    0.88000000    2.50000000
   12.75388908  124.33999634    0.88000000    2.51999998
   12.75500011  131.22000122    0.88000000    2.50000000
   12.75805569  136.79600525    0.88000000    2.51999998
   12.76138878  140.40100098    0.89999998    2.51999998
   12.76472187  135.27900696    0.89999998    2.50000000
   12.76777744  135.87800598    0.89999998    2.51999998
   12.77111053  135.17599487    0.89999998    2.51999998
   12.77416611  120.83399963    0.92000002    2.50000000
   12.77750015  125.88200378    0.92000002    2.53999996
   12.78361130  125.88200378    0.92000002    2.51999998
   12.78750038  131.75999451    0.92000002    2.51999998
   12.79083347  118.34400177    0.92000002    2.51999998
   12.79416752  130.93299866    0.92000002    2.53999996
   12.79722309  126.21199799    0.94000000    2.51999998
   12.80055618  114.04100037    0.94000000    2.50000000
   12.80388927  132.80499268    0.94000000    2.51999998
   12.80694485  122.08200073    0.94000000    2.51999998
   12.81027794  127.69499969    0.94000000    2.51999998
   12.81333351  136.60299683    0.94000000    2.51999998
   12.81666660  134.21299744    0.94000000    2.51999998
   12.81999969  130.47599792    0.95999998    2.51999998
   12.82055569  119.25499725    0.95999998    2.50000000
   12.82638836  119.25499725    0.95999998    2.50000000
   12.83055592  129.83500671    0.95999998    2.51999998
   12.83361053  124.98100281    0.95999998    2.50000000
   12.83694458  124.90499878    0.98000002    2.51999998
   12.84027767  143.90299988    0.98000002    2.51999998
   12.84333324  128.42599487    0.98000002    2.53999996
   12.84666634  131.56799316    0.95999998    2.53999996
   12.84972191  132.08500671    0.95999998    2.51999998
   12.85305595  125.30799866    0.94000000    2.51999998
   12.85388947  125.60399628    0.94000000    2.53999996
   12.85638905  128.55700684    0.94000000    2.51999998
   12.85972214  122.28700256    0.94000000    2.53999996
   12.86305618  125.09100342    0.94000000    2.53999996
   12.86916637  125.09100342    0.94000000    2.55999994
   12.87333393  132.58799744    0.94000000    2.55999994
   12.87666702  118.90000153    0.92000002    2.55999994
   12.87972260  120.54299927    0.92000002    2.55999994
   12.88305569  129.22500610    0.92000002    2.55999994
   12.88611126  130.56700134    0.94000000    2.55999994
   12.88722229  131.67700195    0.92000002    2.53999996
   12.89000034  116.94000244    0.92000002    2.55999994
   12.89305496  121.56199646    0.92000002    2.53999996
   12.89638901  115.30699921    0.92000002    2.55999994
   12.89944458  128.54200745    0.92000002    2.55999994
   12.90277767  114.90100098    0.92000002    2.53999996
   12.90611076  124.63999939    0.94000000    2.55999994
   12.91194439  124.63999939    0.95999998    2.55999994
   12.91611099  132.07699585    0.95999998    2.55999994
   12.91944504  129.23100281    0.98000002    2.51999998
   12.92055607  128.25000000    0.98000002    2.55999994
   12.92305565  124.18399811    0.98000002    2.53999996
   12.92611122  124.00000000    0.98000002    2.53999996
   12.92944431  123.72100067    0.98000002    2.53999996
   12.93249989  126.83599854    0.98000002    2.51999998
   12.93583298  120.83799744    0.95999998    2.55999994
   12.93916702  131.19299316    0.98000002    2.55999994
   12.94222260  132.13699341    0.98000002    2.55999994
   12.94555569  126.80300140    0.98000002    2.55999994
   12.94888878  129.88600159    0.98000002    2.53999996
   12.95499992  129.88600159    1.00000000    2.55999994
   12.95888901  120.88300323    1.00000000    2.55999994
   12.96222210  123.99099731    1.00000000    2.53999996
   12.96555519  126.02200317    1.01999998    2.53999996
   12.96861076  127.72599792    1.03999996    2.53999996
   12.97194386  121.16500092    1.03999996    2.53999996
   12.97527695  133.35699463    1.03999996    2.55999994
   12.97833252  132.48100281    1.01999998    2.53999996
   12.98166656  124.66600037    1.01999998    2.53999996
   12.98472214  130.60499573    1.01999998    2.55999994
   12.98722267  127.50000000    1.00000000    2.53999996
   12.98861122  130.80000305    0.98000002    2.55999994
   12.99166679  132.46000671    0.98000002    2.53999996
   12.99777794  132.46000671    1.00000000    2.55999994
   13.00194454  131.66700745    1.00000000    2.55999994
   13.00500011  125.85600281    1.01999998    2.53999996
   13.00833321  127.81500244    1.01999998    2.55999994
   13.01166630  124.79100037    1.00000000    2.53999996
   13.01472187  123.26300049    0.98000002    2.55999994
   13.01805496  129.22000122    0.98000002    2.53999996
   13.02055550  125.22799683    0.98000002    2.53999996
   13.02166653  120.80200195    0.98000002    2.53999996
   13.02472210  120.93099976    1.00000000    2.57999992
   13.02805519  131.03500366    1.00000000    2.57999992
   13.03111076  114.55799866    0.98000002    2.55999994
   13.03444481  119.68199921    0.98000002    2.55999994
   13.04055595  119.68199921    0.98000002    2.55999994
   13.04472256  125.48799896    0.98000002    2.57999992
   13.04805565  126.08599854    0.98000002    2.57999992
   13.05111122  121.61699677    0.98000002    2.55999994
   13.05388927  122.27899933    0.98000002    2.53999996
   13.05500031  116.99199677    0.98000002    2.55999994
   13.05805588  123.65299988    1.00000000    2.57999992
   13.06138897  127.94999695    1.00000000    2.57999992
   13.06444454  140.10800171    0.98000002    2.55999994
   13.06777763  120.29499817    0.98000002    2.53999996
   13.07111073  133.89199829    0.98000002    2.57999992
   13.07416630  128.33999634    0.95999998    2.55999994
   13.07750034  132.84800720    0.95999998    2.55999994
   13.08333302  132.84800720    0.94000000    2.57999992
   13.08749962  120.33300018    0.94000000    2.57999992
   13.09083271  128.76400757    0.89999998    2.55999994
   13.09416676  115.38999939    0.89999998    2.57999992
   13.09722233  122.53600311    0.89999998    2.57999992
   13.10055637  116.88500214    0.89999998    2.59999990
   13.10388947  118.35900116    0.89999998    2.55999994
   13.10694504  121.91400146    0.89999998    2.55999994
   13.11027813  121.71800232    0.88000000    2.55999994
   13.11361122  130.35200500    0.88000000    2.59999990
   13.11666679  123.91100311    0.88000000    2.59999990
   13.11999989  119.91600037    0.88000000    2.57999992
   13.12055588  127.41100311    0.88000000    2.59999990
   13.12638855  127.41100311    0.88000000    2.57999992
   13.13027763  128.15199280    0.88000000    2.57999992
   13.13361073  130.51400757    0.89999998    2.57999992
   13.13694477  120.32599640    0.88000000    2.55999994
   13.14000034  128.63600159    0.89999998    2.57999992
   13.14333344  120.86499786    0.88000000    2.59999990
   13.14666653  121.57800293    0.88000000    2.59999990
   13.14972210  124.59700012    0.86000001    2.59999990
   13.15305519  132.35499573    0.86000001    2.57999992
   13.15388870  127.24600220    0.83999997    2.59999990
   13.15666676  124.63899994    0.83999997    2.57999992
   13.15972137  130.92100525    0.83999997    2.57999992
   13.16305542  129.84399414    0.86000001    2.57999992
   13.16916656  129.84399414    0.86000001    2.57999992
   13.17333412  121.00599670    0.86000001    2.57999992
   13.17638874  116.01399994    0.86000001    2.59999990
   13.17972279  125.62400055    0.86000001    2.59999990
   13.18305588  132.69599915    0.86000001    2.59999990
   13.18611145  121.29000092    0.86000001    2.57999992
   13.18722248  124.32599640    0.86000001    2.57999992
   13.18972206  131.88000488    0.86000001    2.57999992
   13.19277763  122.20200348    0.86000001    2.59999990
   13.19611073  121.18900299    0.86000001    2.59999990
   13.19944477  116.65000153    0.88000000    2.57999992
   13.20249939  127.13500214    0.86000001    2.59999990
   13.20583344  126.51000214    0.86000001    2.59999990
   13.21194458  126.51000214    0.86000001    2.59999990
   13.21611118  124.81600189    0.86000001    2.59999990
   13.21944427  113.44200134    0.86000001    2.57999992
   13.22055531  127.36299896    0.86000001    2.59999990
   13.22305489  124.27200317    0.86000001    2.59999990
   13.22611046  122.92199707    0.86000001    2.59999990
   13.22944355  116.37400055    0.86000001    2.59999990
   13.23277760  114.85099792    0.83999997    2.59999990
   13.23583317  119.36499786    0.86000001    2.57999992
   13.23916721  128.16999817    0.83999997    2.61999989
   13.24222279  122.44300079    0.83999997    2.57999992
   13.24555588  117.38500214    0.81999999    2.59999990
   13.24888897  128.94400024    0.81999999    2.57999992
   13.25472260  128.94400024    0.83999997    2.59999990
   13.25888920  124.20700073    0.83999997    2.59999990
   13.26222229  123.80300140    0.83999997    2.57999992
   13.26527786  118.39900208    0.81999999    2.59999990
   13.26861095  130.56700134    0.81999999    2.61999989
   13.27194405  122.02400208    0.86000001    2.59999990
   13.27499962  120.83000183    0.83999997    2.61999989
   13.27833271  118.36799622    0.83999997    2.59999990
   13.28166676  123.93099976    0.83999997    2.59999990
   13.28472233  125.98999786    0.83999997    2.61999989
   13.28722286  123.95099640    0.83999997    2.59999990
   13.28833389  120.84300232    0.86000001    2.59999990
   13.29138947  122.09200287    0.83999997    2.59999990
   13.29777813  122.09200287    0.83999997    2.61999989
   13.30166721  126.72100067    0.83999997    2.61999989
   13.30500031  119.83100128    0.83999997    2.61999989
   13.30833340  131.62699890    0.86000001    2.61999989
   13.31138897  119.96600342    0.86000001    2.59999990
   13.31472206  124.61799622    0.83999997    2.59999990
   13.31805515  124.22200012    0.83999997    2.59999990
   13.32055569  127.23400116    0.83999997    2.59999990
   13.32166672  122.81800079    0.83999997    2.57999992
   13.32472229  114.57099915    0.81999999    2.59999990
   13.32805538  122.48000336    0.83999997    2.61999989
   13.33138847  128.21699524    0.81999999    2.59999990
   13.33444405  122.17500305    0.81999999    2.61999989
   13.34055519  122.17500305    0.80000001    2.59999990
   13.34472179  115.61000061    0.79000002    2.61999989
   13.34777737  122.32800293    0.79000002    2.61999989
   13.35111141  116.55400085    0.79000002    2.61999989
   13.35388947  120.36699677    0.79000002    2.61999989
   13.35472298  116.34799957    0.79000002    2.61999989
   13.35777855  126.46399689    0.79000002    2.61999989
   13.36111164  111.80400085    0.79000002    2.61999989
   13.36444473  118.81099701    0.76999998    2.61999989
   13.36750031  122.75099945    0.76999998    2.61999989
   13.37083340  113.90299988    0.76999998    2.61999989
   13.37388897  116.38999939    0.76999998    2.64000010
   13.37722206  128.13900757    0.76999998    2.61999989
   13.38333321  128.13900757    0.76999998    2.61999989
   13.38749981  120.14299774    0.79000002    2.61999989
   13.39083290  122.54399872    0.79000002    2.61999989
   13.39388847  124.24700165    0.76999998    2.59999990
   13.39722252  121.05100250    0.79000002    2.61999989
   13.40027714  113.82599640    0.76999998    2.61999989
   13.40361118  117.34600067    0.76999998    2.61999989
   13.40694427  129.85699463    0.76999998    2.59999990
   13.40999985  113.17600250    0.76999998    2.64000010
   13.41333294  127.35900116    0.76999998    2.61999989
   13.41666698  123.79000092    0.76999998    2.61999989
   13.41972256  121.91999817    0.76999998    2.61999989
   13.42055607  121.61000061    0.76999998    2.64000010
   13.42611122  121.61000061    0.76999998    2.61999989
   13.43027782  121.41600037    0.79000002    2.59999990
   13.43361092  122.61499786    0.79000002    2.64000010
   13.43666649  126.05300140    0.79000002    2.61999989
   13.45444393  126.19499969    0.79000002    2.61999989
   13.45666695  119.00399780    0.79000002    2.61999989
   13.46000004  112.64900208    0.76999998    2.61999989
   13.46333313  119.46700287    0.79000002    2.66000009
   13.46916580  119.46700287    0.79000002    2.61999989
   13.47333336  121.02700043    0.79000002    2.64000010
   13.47666645  121.21199799    0.79000002    2.64000010
   13.47972202  122.91899872    0.79000002    2.64000010
   13.48305511  124.05000305    0.79000002    2.64000010
   13.48666668  118.76899719    0.79000002    2.64000010
   13.48750019  130.93800354    0.79000002    2.61999989
   13.49000072  119.62200165    0.76999998    2.64000010
   13.49333382  123.11499786    0.76999998    2.64000010
   13.49638939  116.95999908    0.76999998    2.64000010
   13.49972248  119.77200317    0.76999998    2.64000010
   13.50305557  123.00700378    0.76999998    2.64000010
   13.50611115  120.10399628    0.76999998    2.61999989
   13.51194477  120.10399628    0.76999998    2.66000009
   13.51611137  122.13200378    0.76999998    2.64000010
   13.51944447  127.53399658    0.75000000    2.61999989
   13.52083302  121.09100342    0.75000000    2.61999989
   13.52305508  124.14199829    0.76999998    2.66000009
   13.52638817  122.19799805    0.75000000    2.61999989
   13.52944374  118.90699768    0.75000000    2.64000010
   13.53277779  121.33599854    0.75000000    2.64000010
   13.53611183  122.47299957    0.76999998    2.64000010
   13.53916740  122.81700134    0.76999998    2.64000010
   13.54250050  124.47000122    0.76999998    2.64000010
   13.54555607  127.87999725    0.76999998    2.64000010
   13.54888916  127.10900116    0.76999998    2.59999990
   13.55500031  127.10900116    0.75000000    2.64000010
   13.55888939  126.05400085    0.75000000    2.64000010
   13.56222248  114.36799622    0.75000000    2.61999989
   13.56555557  114.58399963    0.75000000    2.66000009
   13.56861115  106.33699799    0.76999998    2.64000010
   13.57194424  121.31500244    0.75000000    2.64000010
   13.57527733  123.43699646    0.75000000    2.61999989
   13.57833290  121.23300171    0.75000000    2.61999989
   13.58166695  119.24299622    0.76999998    2.66000009
   13.58472157  123.89299774    0.75000000    2.64000010
   13.58749962  121.43199921    0.75000000    2.64000010
   13.58833313  127.93800354    0.75000000    2.64000010
   13.59166622  125.41799927    0.75000000    2.64000010
   13.59777737  125.41799927    0.76999998    2.66000009
   13.60194492  123.38500214    0.75000000    2.66000009
   13.60500050  119.47899628    0.75000000    2.61999989
   13.60833359  121.59200287    0.75000000    2.66000009
   13.61166668  118.05500031    0.75000000    2.59999990
   13.61472225  130.08000183    0.75000000    2.64000010
   13.61805534  124.45899963    0.80000001    2.64000010
   13.62083340  124.76100159    0.75000000    2.61999989
   13.62166691  119.33799744    0.75000000    2.61999989
   13.62500000  132.02400208    0.75000000    2.66000009
   13.62805557  128.09199524    0.76999998    2.66000009
   13.63138866  125.34999847    0.75000000    2.64000010
   13.63472176  131.31799316    0.75000000    2.64000010
   13.64055538  131.31799316    0.75000000    2.64000010
   13.64472198  114.52700043    0.75000000    2.64000010
   13.64777756  123.67700195    0.75000000    2.64000010
   13.65111065  119.30500031    0.75000000    2.64000010
   13.65416622  123.05899811    0.75000000    2.64000010
   13.65472221  120.80200195    0.75000000    2.64000010
   13.65805531  126.75900269    0.75000000    2.64000010
   13.66111088  123.36000061    0.75000000    2.64000010
   13.66444397  117.80000305    0.75000000    2.64000010
   13.66777802  117.41300201    0.75000000    2.64000010
   13.67083359  130.37699890    0.75000000    2.64000010
   13.67416668  125.69100189    0.75000000    2.64000010
   13.67722225  119.34999847    0.75000000    2.64000010
   13.68333340  119.34999847    0.75000000    2.64000010
   13.68750000  130.66900635    0.75000000    2.64000010
   13.68805599  131.57899475    0.75000000    2.64000010
   13.69111156  119.59799957    0.75000000    2.64000010
   13.69444466  120.67500305    0.75000000    2.64000010
   13.69777775  122.14099884    0.75000000    2.64000010
   13.70083332  121.61100006    0.75000000    2.64000010
   13.70416641  127.37000275    0.75000000    2.64000010
   13.70749950  122.81400299    0.75000000    2.64000010
   13.71055508  125.86199951    0.75000000    2.64000010
   13.71388912  137.40600586    0.75000000    2.64000010
   13.71694374  122.48300171    0.75000000    2.64000010
   13.72027779  123.73500061    0.75000000    2.64000010
   13.72138882  125.87500000    0.75000000    2.64000010
   13.72611046  125.87500000    0.75000000    2.64000010
   13.73027706  128.17999268    0.75000000    2.64000010
   13.73361111  122.97000122    0.75000000    2.64000010
   13.73694515  124.84400177    0.75000000    2.64000010
   13.74000072  127.70700073    0.75000000    2.64000010
   13.74333382  124.05699921    0.75000000    2.64000010
   13.74638939  118.52500153    0.75000000    2.64000010
   13.74972248  117.82900238    0.75000000    2.64000010
   13.75305557  124.00800323    0.75000000    2.64000010
   13.75472260  132.88299561    0.75000000    2.64000010
   13.75638866  126.59100342    0.75000000    2.64000010
   13.75972176  116.73899841    0.75000000    2.64000010
   13.76305580  124.80200195    0.75000000    2.64000010
   13.76916599  124.80200195    0.75000000    2.64000010
   13.77333355  119.73300171    0.75000000    2.64000010
   13.77638817  129.37199402    0.75000000    2.64000010
   13.77972221  126.83499908    0.75000000    2.64000010
   13.78277779  127.96299744    0.75000000    2.64000010
   13.78611183  134.50100708    0.75000000    2.64000010
   13.78805637  128.56900024    0.75000000    2.64000010
   13.78972244  123.01499939    0.75000000    2.64000010
   13.79305553  114.37000275    0.75000000    2.64000010
   13.79638958  120.33100128    0.75000000    2.64000010
   13.79944515  120.76799774    0.75000000    2.64000010
   13.80277824  112.69400024    0.75000000    2.64000010
   13.80611134  125.89199829    0.75000000    2.64000010
   13.81194496  125.89199829    0.75000000    2.64000010
   13.81611156  128.61399841    0.75000000    2.64000010
   13.81916618  120.62899780    0.75000000    2.64000010
   13.82138920  122.35800171    0.75000000    2.64000010
   13.82277775  118.94499969    0.75000000    2.64000010
   13.82611084  117.36399841    0.75000000    2.64000010
   13.82944393  124.63400269    0.75000000    2.64000010
   13.83249950  117.10099792    0.75000000    2.64000010
   13.83583260  128.04299927    0.75000000    2.64000010
   13.83916664  115.18499756    0.75000000    2.64000010
   13.84222221  124.98699951    0.75000000    2.64000010
   13.84555531  119.97599792    0.75000000    2.64000010
   13.84861088  128.82099915    0.75000000    2.64000010
   13.85472298  128.82099915    0.75000000    2.64000010
   13.85888958  130.29499817    0.75000000    2.64000010
   13.86222267  133.11700439    0.75000000    2.64000010
   13.86527824  136.27400208    0.75000000    2.64000010
   13.86861134  135.00100708    0.75000000    2.64000010
   13.87194443  124.79799652    0.75000000    2.64000010
   13.87500000  142.25799561    0.75000000    2.64000010
   13.87833309  114.79199982    0.75000000    2.64000010
   13.88166714  121.42600250    0.75000000    2.64000010
   13.88472176  123.79000092    0.75000000    2.64000010
   13.88805580  121.98500061    0.75000000    2.64000010
   13.88861084  130.63299561    0.75000000    2.64000010
   13.89166641  130.40699768    0.75000000    2.64000010
   13.89750004  130.40699768    0.75000000    2.64000010
   13.90166664  124.74700165    0.75000000    2.64000010
   13.90499973  124.54000092    0.75000000    2.64000010
   13.90833282  132.50500488    0.75000000    2.64000010
   13.91138840  116.86499786    0.75000000    2.64000010
   13.91472149  131.62699890    0.75000000    2.64000010
   13.91777802  125.56500244    0.75000000    2.64000010
   13.92111111  125.90599823    0.75000000    2.64000010
   13.92166710  128.91000366    0.75000000    2.64000010
   13.92472267  132.86999512    0.75000000    2.64000010
   13.92805576  117.60800171    0.75000000    2.64000010
   13.93138885  125.44499969    0.75000000    2.64000010
   13.93444443  122.33999634    0.75000000    2.64000010
   13.94055557  122.33999634    0.75000000    2.64000010
   13.94472218  122.72200012    0.75000000    2.64000010
   13.95499992  123.82800293    0.00000000    0.00000000
   13.95611095  119.39900208    0.00000000    0.00000000
   13.95944405  117.56800079    0.00000000    0.00000000
   13.96333313  125.64700317    0.00000000    0.00000000
   13.96666622  127.51100159    0.75000000    2.64000010
   13.96999931  130.77499390    0.75000000    2.64000010
   13.97527695  120.96399689    0.75000000    2.64000010
   13.98055553  129.30499268    0.75000000    2.64000010
   13.98944473  129.30499268    0.75000000    2.64000010
   13.99361134  125.45099640    0.75000000    2.64000010
   13.99666691  118.51999664    0.75000000    2.64000010
   14.00000000  128.98899841    0.75000000    2.64000010
   14.00305557  117.46800232    0.75000000    2.64000010
   14.00638866  118.45600128    0.75000000    2.64000010
   14.00972176  120.55899811    0.75000000    2.64000010
   14.01277733  122.13800049    0.75000000    2.64000010
   14.01611137  126.51300049    0.75000000    2.64000010
   14.01944447  132.55799866    0.75000000    2.64000010
   14.02250004  121.78600311    0.75000000    2.64000010
   14.02750015  121.78600311    0.75000000    2.66000009
   14.03166676  115.94100189    0.73000002    2.69000006
   14.03500080  121.42700195    0.75000000    2.69000006
   14.03833389  118.09300232    0.86000001    2.66000009
   14.04138947  119.14600372    0.76999998    2.67000008
   14.04472256  130.29100037    0.76999998    2.67000008
   14.04777813  126.38999939    0.75000000    2.67000008
   14.05111122  116.25299835    0.75000000    2.67000008
   14.05444431  127.79100037    0.75000000    2.67000008
   14.05749989  120.60900116    0.75000000    2.67000008
   14.05861092  132.02499390    0.75000000    2.66000009
   14.06111145  125.13099670    0.76999998    2.66000009
   14.06444454  128.16200256    0.76999998    2.66000009
   14.07055569  128.16200256    0.76999998    2.66000009
   14.07444477  129.19000244    0.76999998    2.66000009
   14.07777786  121.85800171    0.76999998    2.66000009
   14.08111095  117.26699829    0.76999998    2.66000009
   14.08416653  130.61399841    0.76999998    2.66000009
   14.08749962  127.78199768    0.76999998    2.66000009
   14.09083271  118.77600098    0.76999998    2.66000009
   14.09194374  130.36399841    0.76999998    2.66000009
   14.09416676  124.11699677    0.76999998    2.66000009
   14.09749985  123.19599915    0.76999998    2.66000009
   14.10083389  121.86799622    0.76999998    2.66000009
   14.10388947  120.98699951    0.76999998    2.66000009
   14.10722256  117.29499817    0.76999998    2.66000009
   14.11333370  117.29499817    0.76999998    2.66000009
   14.11750031  117.23600006    0.76999998    2.66000009
   14.12055588  127.20400238    0.76999998    2.66000009
   14.12388897  118.98899841    0.76999998    2.66000009
   14.12527752  126.24299622    0.76999998    2.66000009
   14.12750053  119.63099670    0.76999998    2.66000009
   14.13083363  126.35700226    0.76999998    2.66000009
   14.13388920  124.98300171    0.76999998    2.66000009
   14.13722229  128.39799500    0.76999998    2.66000009
   14.14055538  127.52100372    0.76999998    2.66000009
   14.14361095  122.95800018    0.76999998    2.66000009
   14.14694405  118.64299774    0.76999998    2.66000009
   14.14999962  123.39099884    0.76999998    2.66000009
   14.15611076  123.39099884    0.76999998    2.66000009
   14.16027737  126.85700226    0.76999998    2.66000009
   14.16361046  118.12300110    0.76999998    2.66000009
   14.16666698  127.34700012    0.76999998    2.66000009
   14.17000008  120.47399902    0.76999998    2.66000009
   14.17305565  127.77100372    0.76999998    2.66000009
   14.17638874  124.53299713    0.76999998    2.66000009
   14.17972279  115.16300201    0.76999998    2.66000009
   14.18277836  129.91900635    0.76999998    2.66000009
   14.18611145  109.95899963    0.76999998    2.66000009
   14.18944454  119.36100006    0.76999998    2.66000009
   14.19194412  119.22899628    0.76999998    2.66000009
   14.19277763  119.93399811    0.76999998    2.66000009
   14.20666695  119.93399811    0.00000000    0.00000000
   14.21138859  110.72799683    0.00000000    0.00000000
   14.21527767  122.75399780    0.00000000    0.00000000
   14.21916580  116.59500122    0.00000000    0.00000000
   14.22305489  102.54900360    0.00000000    0.00000000
   14.22527695  117.31199646    0.00000000    0.00000000
   14.22722149  120.90899658    0.00000000    0.00000000
   14.23055553  114.98999786    0.76999998    2.66000009
   14.23361111  118.26999664    0.76999998    2.66000009
   14.23916721  114.61199951    0.76999998    2.66000009
   14.24444485  114.61199951    0.76999998    2.66000009
   14.25305557  108.98500061    0.76999998    2.66000009
   14.25611115  117.20300293    0.76999998    2.66000009
   14.25861073  113.16300201    0.76999998    2.66000009
   14.25972176  114.53199768    0.76999998    2.66000009
   14.26305580  117.53600311    0.76999998    2.66000009
   14.26611137  117.90000153    0.76999998    2.66000009
   14.26944447  121.26999664    0.76999998    2.66000009
   14.27277756  109.93599701    0.76999998    2.66000009
   14.27583313  117.47000122    0.76999998    2.66000009
   14.27916622  114.36499786    0.76999998    2.66000009
   14.28222179  117.19000244    0.76999998    2.66000009
   14.28638935  117.19000244    0.76999998    2.66000009
   14.29055595  112.79699707    0.76999998    2.66000009
   14.29194450  125.48899841    0.76999998    2.66000009
   14.29416752  112.60199738    0.76999998    2.66000009
   14.29750061  121.92400360    0.76999998    2.66000009
   14.30055618  124.44699860    0.76999998    2.66000009
   14.30388927  124.78399658    0.76999998    2.66000009
   14.30722237  119.62599945    0.76999998    2.66000009
   14.31027794  117.36499786    0.76999998    2.66000009
   14.31361103  119.08399963    0.76999998    2.66000009
   14.31666660  112.34799957    0.76999998    2.66000009
   14.31999969  114.25199890    0.76999998    2.66000009
   14.32333374  121.29699707    0.76999998    2.66000009
   14.32527733  113.31500244    0.76999998    2.66000009
   14.32944393  113.31500244    0.76999998    2.66000009
   14.33361053  116.52799988    0.76999998    2.66000009
   14.33694458  117.13400269    0.76999998    2.66000009
   14.34000015  124.03500366    0.76999998    2.66000009
   14.34333324  121.83699799    0.76999998    2.66000009
   14.34666634  121.86199951    0.76999998    2.66000009
   14.34972191  120.79599762    0.76999998    2.66000009
   14.35305595  105.06800079    0.76999998    2.66000009
   14.35611153  115.16200256    0.76999998    2.66000009
   14.35861111  110.02100372    0.75000000    2.67000008
   14.35972214  113.91799927    0.75000000    2.67000008
   14.36305618  113.30999756    0.67000002    2.69000006
   14.36611176  122.92199707    0.64999998    2.71000004
   14.37222195  122.92199707    0.69000000    2.71000004
   14.37638855  121.57800293    0.67000002    2.71000004
   14.37972260  121.99299622    0.64999998    2.71000004
   14.38305569  116.01100159    0.64999998    2.69000006
   14.38611126  112.56500244    0.64999998    2.71000004
   14.38944435  122.88899994    0.64999998    2.67000008
   14.39194393  121.30300140    0.64999998    2.69000006
   14.39305496  120.58000183    0.64999998    2.69000006
   14.39638901  120.55999756    0.64999998    2.71000004
   14.39944458  121.81099701    0.67000002    2.71000004
   14.40972137  121.07399750    0.00000000    0.00000000
   14.41361046  117.74199677    0.00000000    0.00000000
   14.41972256  117.74199677    0.00000000    0.00000000
   14.42444515  121.02400208    0.00000000    0.00000000
   14.42527771  113.37699890    0.00000000    0.00000000
   14.42861176  118.46299744    0.00000000    0.00000000
   14.43194485  111.77100372    0.67000002    2.71000004
   14.43527794  115.57800293    0.67000002    2.71000004
   14.44138908  125.08899689    0.67000002    2.71000004
   14.44666672  111.89399719    0.67000002    2.71000004
   14.44999981  121.28199768    0.67000002    2.71000004
   14.45527744  112.79599762    0.67000002    2.71000004
   14.46194458  112.79599762    0.67000002    2.71000004
   14.48083305  113.53600311    0.67000002    2.71000004
   14.48416710  110.24400330    0.67000002    2.71000004
   14.48722267  116.27100372    0.64999998    2.71000004
   14.49055576  114.63800049    0.67000002    2.71000004
   14.49305534  110.61699677    0.67000002    2.71000004
   14.49416733  112.48899841    0.67000002    2.71000004
   14.49722290  112.44200134    0.64999998    2.71000004
   14.50055599  114.41799927    0.67000002    2.69000006
   14.50500011  114.41799927    0.64999998    2.71000004
   14.50916672  114.58499908    0.64999998    2.73000002
   14.51222229  120.02500153    0.64999998    2.71000004
   14.51555538  115.97100067    0.67000002    2.71000004
   14.51888847  116.61199951    0.67000002    2.69000006
   14.52194405  115.84999847    0.67000002    2.71000004
   14.52527714  118.43800354    0.67000002    2.71000004
   14.52638817  114.45899963    0.64999998    2.71000004
   14.52888870  110.06999969    0.67000002    2.71000004
   14.53194427  119.99500275    0.64999998    2.71000004
   14.53527832  111.65899658    0.64999998    2.73000002
   14.53833389  123.04399872    0.64999998    2.71000004
   14.54166698  112.84899902    0.64999998    2.71000004
   14.54805565  112.84899902    0.63000000    2.73000002
   14.55222225  112.40499878    0.63000000    2.69000006
   14.55527782  112.12699890    0.63000000    2.71000004
   14.55861092  110.19599915    0.63000000    2.71000004
   14.56000042  114.04000092    0.63000000    2.71000004
   14.56194496  110.98100281    0.63000000    2.71000004
   14.56527805  112.55899811    0.64999998    2.71000004
   14.56861115  117.85500336    0.64999998    2.71000004
   14.57166672  110.79900360    0.64999998    2.71000004
   14.57499981  109.65399933    0.64999998    2.71000004
   14.57833290  106.38600159    0.64999998    2.69000006
   14.58138847  108.58499908    0.64999998    2.73000002
   14.58472157  111.70999908    0.67000002    2.71000004
   14.59055519  111.70999908    0.67000002    2.73000002
   14.59472179  113.63800049    0.67000002    2.69000006
   14.59805489  107.53800201    0.67000002    2.71000004
   14.60138893  111.43099976    0.67000002    2.71000004
   14.60444450  111.30699921    0.67000002    2.71000004
   14.60777855  103.54900360    0.67000002    2.71000004
   14.61083412  109.88099670    0.69000000    2.71000004
   14.61416721  114.09799957    0.67000002    2.69000006
   14.61750031  106.55200195    0.67000002    2.71000004
   14.62055588  106.53900146    0.69000000    2.71000004
   14.62388897  110.96299744    0.67000002    2.69000006
   14.62666702  119.24700165    0.69000000    2.71000004
   14.62750053  116.94300079    0.69000000    2.71000004
   14.63361073  116.94300079    0.67000002    2.71000004
   14.63777733  110.30000305    0.67000002    2.71000004
   14.64083290  108.70600128    0.64999998    2.71000004
   14.64416695   95.12359619    0.64999998    2.71000004
   14.64722252  106.22100067    0.64999998    2.75000000
   14.65055561  108.63600159    0.64999998    2.71000004
   14.65388870  107.53199768    0.64999998    2.71000004
   14.65722179  105.04199982    0.63000000    2.71000004
   14.65999985  103.27200317    0.64999998    2.73000002
   14.66055489  107.05899811    0.64999998    2.73000002
   14.66388893  109.85399628    0.64999998    2.73000002
   14.66722298  104.60900116    0.64999998    2.69000006
   14.67027855  113.33000183    0.64999998    2.69000006
   14.67638874  113.33000183    0.64999998    2.71000004
   14.68055630  108.03399658    0.64999998    2.71000004
   14.68361092  105.29900360    0.64999998    2.71000004
   14.68694496  115.97299957    0.64999998    2.69000006
   14.69027805  109.41100311    0.64999998    2.71000004
   14.69333363  115.11000061    0.63000000    2.71000004
   14.69361115  113.83399963    0.63000000    2.71000004
   14.69694424  113.46299744    0.63000000    2.71000004
   14.70027733  114.01699829    0.63000000    2.71000004
   14.70333290  110.66699982    0.63000000    2.71000004
   14.70666695  108.30100250    0.63000000    2.71000004
   14.71000004  110.58799744    0.63000000    2.71000004
   14.71305561  111.44100189    0.61000001    2.71000004
   14.71916580  111.44100189    0.61000001    2.71000004
   14.72333336  112.22899628    0.63000000    2.71000004
   14.72666645  104.78700256    0.63000000    2.69000006
   14.72694397  108.93599701    0.63000000    2.69000006
   14.73027706  113.73300171    0.63000000    2.73000002
   14.73361111  111.03900146    0.63000000    2.71000004
   14.73666668  113.27200317    0.63000000    2.71000004
   14.74000072  109.08100128    0.63000000    2.71000004
   14.74333382  120.02700043    0.63000000    2.73000002
   14.74638939  108.02500153    0.61000001    2.71000004
   14.74972248  108.61100006    0.63000000    2.69000006
   14.75277805  111.64199829    0.61000001    2.71000004
   14.75611115  113.62799835    0.63000000    2.71000004
   14.76194477  113.62799835    0.63000000    2.71000004
   14.76611137  108.20300293    0.63000000    2.71000004
   14.76944447  108.83699799    0.63000000    2.73000002
   14.77277756  107.05400085    0.63000000    2.73000002
   14.77583313  113.76899719    0.63000000    2.71000004
   14.77916622  110.91799927    0.63000000    2.71000004
   14.78222179  113.82499695    0.63000000    2.73000002
   14.78555584  111.45500183    0.63000000    2.71000004
   14.78888893  110.67500305    0.64999998    2.71000004
   14.79194450  106.40599823    0.64999998    2.71000004
   14.79333401  116.63300323    0.64999998    2.71000004
   14.79555607  111.90699768    0.67000002    2.73000002
   14.79888916  110.04499817    0.70999998    2.73000002
   14.80500031  110.04499817    0.63000000    2.71000004
   14.80916691  111.10600281    0.61000001    2.69000006
   14.81222248  108.09799957    0.63000000    2.73000002
   14.81555557  100.93900299    0.61000001    2.71000004
   14.81888866  104.67099762    0.61000001    2.71000004
   14.82194424  112.21199799    0.61000001    2.71000004
   14.82527733  116.92800140    0.58999997    2.71000004
   14.82666683  105.08899689    0.61000001    2.71000004
   14.82861137  114.69300079    0.61000001    2.71000004
   14.83194447  107.54299927    0.61000001    2.73000002
   14.83527756  107.85600281    0.61000001    2.71000004
   14.83833313  105.68000031    0.61000001    2.71000004
   14.84166622  108.00800323    0.61000001    2.71000004
   14.84777737  108.00800323    0.61000001    2.71000004
   14.85194492   99.64669800    0.61000001    2.71000004
   14.85500050  101.77400208    0.61000001    2.71000004
   14.85833359  106.89299774    0.61000001    2.71000004
   14.86027813  112.26799774    0.61000001    2.71000004
   14.86916637  102.19599915    0.00000000    0.00000000
   14.87305546  107.94999695    0.00000000    0.00000000
   14.87666702  108.33699799    0.00000000    0.00000000
   14.88055611  106.15799713    0.00000000    0.00000000
   14.88444424  106.28199768    0.00000000    0.00000000
   14.88833332   99.89070129    0.00000000    0.00000000
   14.89222240  105.72699738    0.00000000    0.00000000
   14.89722252  105.72699738    0.00000000    0.00000000
   14.90194416  106.95500183    0.00000000    0.00000000
   14.90583324  106.92800140    0.00000000    0.00000000
   14.90972137  113.34200287    0.00000000    0.00000000
   14.91361046  111.23400116    0.00000000    0.00000000
   14.91694450  108.05000305    0.61000001    2.71000004
   14.92027855  118.58300018    0.61000001    2.71000004
   14.92333412  116.22399902    0.61000001    2.71000004
   14.92666721  110.72200012    0.61000001    2.71000004
   14.92750072  112.95300293    0.61000001    2.71000004
   14.93361092  104.76999664    0.61000001    2.71000004
   14.93944454  104.76999664    0.61000001    2.71000004
   14.94777775  104.34100342    0.61000001    2.71000004
   14.95083332   94.93830109    0.61000001    2.71000004
   14.95416641  108.23600006    0.61000001    2.71000004
   14.95722198  114.21199799    0.61000001    2.71000004
   14.96055508  109.17800140    0.61000001    2.71000004
   14.96333313  106.78199768    0.58999997    2.73000002
   14.96416664  115.63800049    0.56999999    2.71000004
   14.96749973  113.91699982    0.58999997    2.73000002
   14.97083282  103.95600128    0.58999997    2.73000002
   14.97388840  107.56500244    0.56999999    2.71000004
   14.97722149  106.85600281    1.44000006    2.73000002
   14.98249912  106.85600281    0.92000002    2.73000002
   14.98638916   99.51159668    0.58999997    2.75000000
   14.98972225  116.25199890    0.56999999    2.71000004
   14.99305534  110.18399811    0.56999999    2.71000004
   14.99611092  110.90000153    0.58999997    2.71000004
   14.99666691  115.48500061    0.58999997    2.71000004
   14.99972248  118.69799805    0.58999997    2.71000004
   15.00277805  110.76899719    0.58999997    2.73000002
   15.00611115  113.78700256    0.58999997    2.75000000
   15.00944424  110.32700348    0.58999997    2.73000002
   15.01249981  113.22299957    0.58999997    2.73000002
   15.01583290  115.53299713    0.58999997    2.73000002
   15.01888847  117.69499969    0.58999997    2.73000002
   15.03861141  117.69499969    0.00000000    0.00000000
   15.04333401  109.97000122    0.00000000    0.00000000
   15.04722309  104.28099823    0.00000000    0.00000000
   15.05111122  110.01300049    0.00000000    0.00000000
   15.05500031  110.23999786    0.00000000    0.00000000
   15.05888939  106.76100159    0.00000000    0.00000000
   15.15861034   -1.00000000   -1.00000000   -1.00000000
   15.68138885   -1.00000000   -1.00000000   -1.00000000
   16.03527641   -1.00000000   -1.00000000   -1.00000000
   16.06861115   93.43540192    0.05000000    0.05000000
   16.07166672  110.69899750    0.05000000    0.05000000
   16.07500076  103.63500214    0.05000000    0.05000000
   16.07833481  108.60299683    0.05000000    0.05000000
   16.08166695  104.05799866    0.05000000    0.05000000
   16.08500099   97.34729767    0.05000000    0.05000000
   16.08889008   97.34729767    0.05000000    0.05000000
   16.09305573  101.06300354    0.05000000    0.05000000
   16.09638977  102.53600311    0.05000000    0.05000000
   16.09944534  100.53600311    0.05000000    0.05000000
   16.10194397   98.76509857    0.05000000    0.05000000
   16.10305595  106.97000122    0.05000000    0.05000000
   16.10639000   99.51409912    0.05000000    0.05000000
   16.10972214  106.00299835    0.05000000    0.05000000
   16.11277771  102.86100006    0.05000000    0.05000000
   16.11611176  103.23000336    0.05000000    0.05000000
   16.11944389  103.99600220    0.05000000    0.05000000
   16.12249947  106.16400146    0.05000000    0.05000000
   16.12583351  101.00900269    0.05000000    0.03000000
   16.13194466  101.00900269    0.05000000    0.05000000
   16.13583374  104.85900116    0.05000000    0.05000000
   16.13916588  105.16100311    0.05000000    0.05000000
   16.14249992  108.61699677    0.05000000    0.05000000
   16.14555550  103.33100128    0.05000000    0.05000000
   16.14888954  107.18000031    0.05000000    0.05000000
   16.15222168  105.55100250    0.05000000    0.03000000
   16.15527725  104.35299683    0.05000000    0.05000000
   16.15861130  102.89299774    0.05000000    0.03000000
   16.16194344  101.70400238    0.05000000    0.05000000
   16.16527748  105.29000092    0.05000000    0.05000000
   16.16833305  105.95099640    0.05000000    0.05000000
   16.16888809  105.30000305    0.05000000    0.05000000
   16.17472076  105.30000305    0.05000000    0.05000000
   16.17888832  112.38999939    0.05000000    0.03000000
   16.18194389  104.79900360    0.05000000    0.05000000
   16.18527603   96.52770233    0.05000000    0.05000000
   16.18861008  101.51899719    0.05000000    0.03000000
   16.19166565  111.03900146    0.05000000    0.03000000
   16.19499969  105.37500000    0.05000000    0.05000000
   16.19833183  103.37200165    0.05000000    0.05000000
   16.20138931  105.76799774    0.05000000    0.05000000
   16.20222282  100.37500000    0.05000000    0.05000000
   16.20499992  106.91000366    0.05000000    0.05000000
   16.20805550   92.45989990    0.05000000    0.05000000
   16.21138954   92.85980225    0.05000000    0.05000000
   16.21750069   92.85980225    0.05000000    0.05000000
   16.22166634   95.27649689    0.05000000    0.05000000
   16.22500038   99.87220001    0.05000000    0.03000000
   16.22805595  106.16100311    0.05000000    0.05000000
   16.23139000  106.07900238    0.05000000    0.05000000
   16.23444557   95.71510315    0.05000000    0.05000000
   16.23555565   98.89710236    0.05000000    0.05000000
   16.23805618  100.78399658    0.05000000    0.05000000
   16.24138832  100.28399658    0.05000000    0.05000000
   16.24472237   99.90570068    0.05000000    0.05000000
   16.24805641   99.04519653    0.05000000    0.05000000
   16.25111198  151.12100220    0.05000000    0.03000000
   16.25444412  100.46399689    0.05000000    0.05000000
   16.26027870  100.46399689    0.05000000    0.05000000
   16.26444435  101.94100189    0.05000000    0.05000000
   16.26777840   96.64160156    0.05000000    0.05000000
   16.26888847  102.20999908    0.05000000    0.05000000
   16.27138901  102.64099884    0.05000000    0.05000000
   16.27444458   98.65010071    0.05000000    0.05000000
   16.27777672  103.84899902    0.05000000    0.05000000
   16.28083229  100.16400146    0.05000000    0.05000000
   16.28416634   98.63849640    0.05000000    0.05000000
   16.28750038   95.77079773    0.05000000    0.05000000
   16.29055595   94.53399658    0.05000000    0.03000000
   16.29388809   89.90100098    0.05000000    0.03000000
   16.29722214  102.35099792    0.05000000    0.05000000
   16.30333328  102.35099792    0.05000000    0.05000000
   16.30722237  105.05999756    0.05000000    0.05000000
   16.31055450   99.93609619    0.05000000    0.03000000
   16.31388855  100.70999908    0.05000000    0.03000000
   16.31694603  102.19899750    0.05000000    0.05000000
   16.32027817   99.02619934    0.05000000    0.05000000
   16.32361221   96.83979797    0.05000000    0.03000000
   16.32666779   95.56929779    0.05000000    0.05000000
   16.33000183   95.48950195    0.05000000    0.05000000
   16.33333397   92.32150269    0.05000000    0.03000000
   16.33555603   96.23809814    0.05000000    0.05000000
   16.33694458   93.32540131    0.05000000    0.05000000
   16.34000015   98.08460236    0.05000000    0.05000000
   16.34611130   98.08460236    0.05000000    0.03000000
   16.35027885   96.41449738    0.05000000    0.05000000
   16.35333443   97.86579895    0.05000000    0.05000000
   16.35666656   99.08070374    0.05000000    0.05000000
   16.36000061   98.83100128    0.05000000    0.03000000
   16.36305618   88.73069763    0.05000000    0.03000000
   16.36638832   97.90930176    0.05000000    0.05000000
   16.36888885   97.34940338    0.05000000    0.05000000
   16.37000084   97.24829865    0.05000000    0.05000000
   16.37305641   97.57080078    0.05000000    0.05000000
   16.37638855   98.57230377    0.05000000    0.05000000
   16.37944412  101.51999664    0.05000000    0.05000000
   16.38277817   97.50540161    0.05000000    0.05000000
   16.38888931   97.50540161    0.05000000    0.05000000
   16.39305496   94.82440186    0.05000000    0.05000000
   16.39638901   94.74130249    0.05000000    0.05000000
   16.39944458   94.72010040    0.05000000    0.03000000
   16.40222168   93.69509888    0.05000000    0.05000000
   16.40333366   94.93579865    0.05000000    0.05000000
   16.40638924   92.34580231    0.05000000    0.05000000
   16.40972137  101.16899872    0.05000000    0.03000000
   16.41305542   93.47139740    0.05000000    0.03000000
   16.41611099   98.96800232    0.05000000    0.03000000
   16.41944313   94.48190308    0.05000000    0.05000000
   16.42249870   97.80490112    0.05000000    0.03000000
   16.42583275   91.13050079    0.05000000    0.05000000
   16.43166542   91.13050079    0.05000000    0.05000000
   16.43583298   98.04429626    0.05000000    0.05000000
   16.43916512   91.40570068    0.05000000    0.05000000
   16.44222069   90.52400208    0.05000000    0.03000000
   16.44555473   97.39830017    0.05000000    0.03000000
   16.44888878  100.75000000    0.05000000    0.03000000
   16.45194435   95.13089752    0.05000000    0.05000000
   16.45527840  102.09600067    0.05000000    0.05000000
   16.45861244  100.37899780    0.05000000    0.05000000
   16.46166801   95.83650208    0.05000000    0.05000000
   16.46500015   96.83280182    0.05000000    0.05000000
   16.46805573   98.14749908    0.05000000    0.05000000
   16.46888924   96.51529694    0.05000000    0.05000000
   16.47472191   96.51529694    0.05000000    0.05000000
   16.47861099   95.23110199    0.05000000    0.03000000
   16.48194504   96.86509705    0.05000000    0.05000000
   16.48527718   95.70559692    0.05000000    0.05000000
   16.48833275   95.60099792    0.05000000    0.05000000
   16.49166679   92.75949860    0.05000000    0.05000000
   16.49500084   93.91770172    0.05000000    0.05000000
   16.49833298   98.27799988    0.05000000    0.05000000
   16.50138855   93.32769775    0.05000000    0.05000000
   16.50222206   90.08390045    0.05000000    0.05000000
   16.50499916   94.32219696    0.05000000    0.03000000
   16.50805473   91.08260345    0.05000000    0.03000000
   16.51138878   91.69100189    0.05000000    0.03000000
   16.51749992   91.69100189    0.05000000    0.05000000
   16.52166557   96.73950195    0.05000000    0.05000000
   16.52472115   97.33309937    0.05000000    0.05000000
   16.52805519   93.69660187    0.05000000    0.05000000
   16.53138924   96.89659882    0.05000000    0.05000000
   16.53444481   93.89620209    0.05000000    0.03000000
   16.53555489   94.60089874    0.05000000    0.03000000
   16.53805542   93.46219635    0.05000000    0.05000000
   16.54111099   95.64710236    0.05000000    0.05000000
   16.54444313   95.04029846    0.05000000    0.03000000
   16.54777718   97.85630035    0.05000000    0.03000000
   16.55083275   92.58059692    0.05000000    0.05000000
   16.55416679   94.48130035    0.05000000    0.05000000
   16.56027794   94.48130035    0.05000000    0.05000000
   16.56444359   85.47329712    0.05000000    0.05000000
   16.56777954   93.76110077    0.05000000    0.05000000
   16.56888962   94.93000031    0.05000000    0.03000000
   16.57139015   91.51380157    0.05000000    0.03000000
   16.57444572   93.04109955    0.05000000    0.03000000
   16.57777786   96.81680298    0.05000000    0.03000000
   16.58111191   91.88220215    0.05000000    0.05000000
   16.58416748   90.87020111    0.05000000    0.05000000
   16.58750153   92.90409851    0.05000000    0.05000000
   16.59055710   98.79570007    0.05000000    0.05000000
   16.59388924   96.92500305    0.05000000    0.05000000
   16.59722328   95.25710297    0.05000000    0.05000000
   16.60305595   95.25710297    0.05000000    0.05000000
   16.60722351   88.21640015    0.05000000    0.03000000
   16.61055565   89.04560089    0.05000000    0.03000000
   16.61361122   91.14189911    0.05000000    0.05000000
   16.61694527   91.93609619    0.05000000    0.05000000
   16.62027740   97.73220062    0.05000000    0.05000000
   16.62333298   92.35720062    0.05000000    0.05000000
   16.62666702   96.15830231    0.05000000    0.05000000
   16.63000107   97.48840332    0.05000000    0.05000000
   16.63305473   97.37629700    0.05000000    0.05000000
   16.63555527   87.55249786    0.05000000    0.05000000
   16.63666725   94.91020203    0.05000000    0.05000000
   16.63972282  103.13600159    0.05000000    0.03000000
   16.64611053  103.13600159    0.05000000    0.03000000
   16.64999962   91.39340210    0.05000000    0.05000000
   16.65333366   91.64589691    0.05000000    0.05000000
   16.65666580   91.35230255    0.05000000    0.05000000
   16.65972137   91.33129883    0.05000000    0.03000000
   16.66305542   93.60109711    0.05000000    0.05000000
   16.66638756   95.87229919    0.05000000    0.05000000
   16.66888809   92.92810059    0.05000000    0.03000000
   16.67000008   91.91110229    0.05000000    0.03000000
   16.67305565   89.80709839    0.05000000    0.03000000
   16.67638779   95.57379913    0.05000000    0.03000000
   16.67972183   92.25969696    0.05000000    0.05000000
   16.68277740   94.84159851    0.05000000    0.05000000
   16.68888855   94.84159851    0.05000000    0.05000000
   16.69305420   83.49230194    0.05000000    0.05000000
   16.69610977   89.99800110    0.05000000    0.03000000
   16.69944382   90.73190308    0.05000000    0.05000000
   16.70222282   86.28279877    0.05000000    0.03000000
   16.70305634   87.68209839    0.05000000    0.05000000
   16.70611191   93.40190125    0.05000000    0.03000000
   16.70944595   91.23020172    0.05000000    0.05000000
   16.71277809   93.64129639    0.05000000    0.05000000
   16.71583366   91.88379669    0.05000000    0.03000000
   16.71916771   91.63539886    0.05000000    0.05000000
   16.72222328   94.77950287    0.05000000    0.03000000
   16.72555542   92.38359833    0.05000000    0.05000000
   16.73166656   92.38359833    0.05000000    0.03000000
   16.73583412   92.63400269    0.05000000    0.03000000
   16.73916626   95.38639832    0.05000000    0.05000000
   16.74222183   90.80020142    0.05000000    0.05000000
   16.74555588   94.86499786    0.05000000    0.05000000
   16.74888992   94.74530029    0.05000000    0.05000000
   16.75194359   97.61229706    0.05000000    0.05000000
   16.75527763   86.63529968    0.05000000    0.05000000
   16.75861168   95.03829956    0.05000000    0.05000000
   16.76166725   97.13849640    0.05000000    0.05000000
   16.76499939   94.10009766    0.05000000    0.03000000
   16.76805496   92.27610016    0.05000000    0.03000000
   16.76888847   90.70110321    0.05000000    0.03000000
   16.77444458   90.70110321    0.05000000    0.03000000
   16.77861023   96.09439850    0.05000000    0.05000000
   16.78194427   92.61370087    0.05000000    0.05000000
   16.78499985   92.77300262    0.05000000    0.05000000
   16.78833199   93.13880157    0.05000000    0.05000000
   16.79166603   96.55780029    0.05000000    0.05000000
   16.79472160   96.58249664    0.05000000    0.05000000
   16.79805565   93.34860229    0.05000000    0.05000000
   16.80138779   94.98809814    0.05000000    0.03000000
   16.80222130   96.92710114    0.05000000    0.03000000
   16.80499840   98.54859924    0.05000000    0.05000000
   16.80805397   95.33390045    0.05000000    0.05000000
   16.81138802   91.50370026    0.05000000    0.05000000
   16.81750107   91.50370026    0.05000000    0.03000000
   16.82139015   96.89479828    0.05000000    0.05000000
   16.82472229   91.98470306    0.05000000    0.05000000
   16.82805634   85.77719879    0.05000000    0.05000000
   16.83111191   94.63079834    0.05000000    0.03000000
   16.83444595   94.44319916    0.05000000    0.03000000
   16.83555603   85.48989868    0.05000000    0.03000000
   16.83805656   94.37580109    0.05000000    0.03000000
   16.84111214   89.84449768    0.05000000    0.05000000
   16.84444427   93.24900055    0.05000000    0.05000000
   16.84777832   97.26020050    0.05000000    0.05000000
   16.85083389   91.89160156    0.05000000    0.05000000
   16.85416794   99.00080109    0.05000000    0.05000000
   16.86027908   99.00080109    0.05000000    0.05000000
   16.86444473   95.04250336    0.05000000    0.05000000
   16.86750031   95.04750061    0.05000000    0.03000000
   16.86888885   95.79479980    0.05000000    0.03000000
   16.87111092   97.39959717    0.05000000    0.03000000
   16.87416649   93.44390106    0.05000000    0.03000000
   16.87750053   89.38390350    0.05000000    0.05000000
   16.88083267   95.86380005    0.05000000    0.05000000
   16.88388824   85.51380157    0.05000000    0.05000000
   16.88722229   90.88310242    0.05000000    0.05000000
   16.89055634   89.43979645    0.05000000    0.05000000
   16.89361191   95.18830109    0.05000000    0.05000000
   16.89694405   92.92739868    0.05000000    0.05000000
   16.90305519   92.92739868    0.05000000    0.05000000
   16.90722275   91.33609772    0.05000000    0.05000000
   16.91055489   94.46630096    0.05000000    0.05000000
   16.91361046   91.50340271    0.05000000    0.05000000
   16.91694450   89.77290344    0.05000000    0.05000000
   16.92027664   90.19779968    0.05000000    0.05000000
   16.92333221   94.41580200    0.05000000    0.05000000
   16.92666626   96.05619812    0.05000000    0.05000000
   16.93000031   92.28389740    0.05000000    0.03000000
   16.93305397   95.44300079    0.05000000    0.03000000
   16.93555450   95.89499664    0.05000000    0.05000000
   16.93666649   90.70269775    0.05000000    0.03000000
   16.93972206   94.14700317    0.05000000    0.05000000
   16.94583321   94.14700317    0.05000000    0.05000000
   16.95000076   94.56919861    0.03000000    0.05000000
   16.95333481   94.44229889    0.05000000    0.05000000
   16.95666695   91.67489624    0.03000000    0.03000000
   16.95972252   93.09790039    0.05000000    0.05000000
   16.96305656   96.04640198    0.05000000    0.05000000
   16.96611214   98.10800171    0.05000000    0.03000000
   16.96888924   96.67330170    0.05000000    0.03000000
   16.97000122   95.30269623    0.05000000    0.03000000
   16.97305679   99.26100159    0.05000000    0.05000000
   16.97638893  100.49099731    0.05000000    0.05000000
   16.97972298   96.32779694    0.05000000    0.05000000
   16.98277855   96.01809692    0.05000000    0.03000000
   16.98888969   96.01809692    0.05000000    0.05000000
   16.99305534   93.15200043    0.05000000    0.05000000
   16.99611092   94.41359711    0.05000000    0.03000000
   16.99944496   98.49939728    0.05000000    0.03000000
   17.00222206   95.61080170    0.05000000    0.03000000
   17.00305557   91.27429962    0.05000000    0.05000000
   17.00611115   95.88629913    0.05000000    0.05000000
   17.00944519   96.88240051    0.05000000    0.05000000
   17.01277733   95.35050201    0.05000000    0.05000000
   17.01583290  100.45700073    0.05000000    0.05000000
   17.01916695   97.92389679    0.05000000    0.05000000
   17.02249908   96.15689850    0.05000000    0.05000000
   17.02555466   96.40899658    0.05000000    0.05000000
   17.03166580   96.40899658    0.05000000    0.05000000
   17.03583336   95.61769867    0.05000000    0.03000000
   17.03888893   96.57749939    0.05000000    0.05000000
   17.04222107   93.06469727    0.05000000    0.03000000
   17.04555511   93.69249725    0.05000000    0.05000000
   17.04861069   93.51249695    0.05000000    0.05000000
   17.05194283   93.72429657    0.05000000    0.05000000
   17.05527687   92.92559814    0.05000000    0.05000000
   17.05833244   90.54660034    0.05000000    0.05000000
   17.06166649   95.87139893    0.05000000    0.03000000
   17.06472206   97.63079834    0.05000000    0.05000000
   17.06805611   92.74579620    0.05000000    0.05000000
   17.06888962   94.84989929    0.03000000    0.05000000
   17.08972359   94.84989929    0.05000000    0.05000000
   17.09388924  102.27799988    0.05000000    0.03000000
   17.09694481   97.72799683    0.03000000    0.03000000
   17.10027885   97.41549683    0.05000000    0.05000000
   17.10222244   94.62159729    0.05000000    0.03000000
   17.10388947  106.29299927    0.05000000    0.05000000
   17.10722351  100.39199829    0.05000000    0.05000000
   17.11027908  105.84400177    0.05000000    0.05000000
   17.11361122  100.85700226    0.05000000    0.05000000
   17.11666679  100.85399628    0.05000000    0.05000000
   17.12000084   96.01139832    0.05000000    0.03000000
   17.12333298   93.53659821    0.05000000    0.05000000
   17.12638855  101.00199890    0.05000000    0.03000000
   17.13249969  101.00199890    0.05000000    0.05000000
   17.13638878  100.03399658    0.05000000    0.05000000
   17.13972282   98.84970093    0.05000000    0.05000000
   17.14305496  103.92099762    0.05000000    0.05000000
   17.14611053   97.00360107    0.05000000    0.05000000
   17.14944458   95.91249847    0.05000000    0.05000000
   17.15277672  100.85199738    0.05000000    0.05000000
   17.15583229  102.59500122    0.05000000    0.05000000
   17.15916634  104.18299866    0.05000000    0.03000000
   17.16222191  100.56900024    0.05000000    0.03000000
   17.16555595   97.31469727    0.05000000    0.03000000
   17.16888809   98.13390350    0.05000000    0.05000000
   17.16916656   95.74240112    0.05000000    0.05000000
   17.17527771   95.74240112    0.05000000    0.05000000
   17.17944336   96.03980255    0.05000000    0.05000000
   17.18249893   91.92859650    0.05000000    0.05000000
   17.18583298   92.79290009    0.05000000    0.03000000
   17.18916512   91.82369995    0.05000000    0.03000000
   17.19222069  101.94799805    0.05000000    0.03000000
   17.19555473  101.83300018    0.05000000    0.05000000
   17.19861031  102.44899750    0.05000000    0.05000000
   17.20194435   99.97280121    0.05000000    0.05000000
   17.20250130   99.28089905    0.05000000    0.05000000
   17.20555687  107.38400269    0.05000000    0.05000000
   17.20888901   99.27749634    0.05000000    0.05000000
   17.21194458  101.48999786    0.05000000    0.05000000
   17.21805573  101.48999786    0.05000000    0.05000000
   17.22222328   94.08360291    0.05000000    0.05000000
   17.22555542   90.93659973    0.05000000    0.03000000
   17.22861099   89.60549927    0.05000000    0.03000000
   17.23194504   94.45850372    0.05000000    0.03000000
   17.23500061   98.52050018    0.05000000    0.05000000
   17.23583412   96.21170044    0.05000000    0.05000000
   17.23861122   91.72290039    0.05000000    0.05000000
   17.24194527  100.36699677    0.05000000    0.05000000
   17.24500084   92.37259674    0.03000000    0.05000000
   17.24833298   95.30690002    0.05000000    0.05000000
   17.25166702  104.24900055    0.05000000    0.03000000
   17.25472260   97.27189636    0.05000000    0.03000000
   17.26083374   97.27189636    0.05000000    0.03000000
   17.26499939   95.34120178    0.05000000    0.05000000
   17.26833344   97.63690186    0.05000000    0.03000000
   17.26916695   95.93460083    0.05000000    0.05000000
   17.27194405   92.42040253    0.05000000    0.05000000
   17.27527809   94.37699890    0.05000000    0.05000000
   17.27833366   90.82080078    0.05000000    0.05000000
   17.28166580  100.58999634    0.05000000    0.05000000
   17.28499985   96.90290070    0.05000000    0.05000000
   17.28805542   97.20639801    0.05000000    0.03000000
   17.29138756  101.10700226    0.05000000    0.05000000
   17.29472160  103.63099670    0.05000000    0.03000000
   17.29777718   98.17739868    0.05000000    0.05000000
   17.30388832   98.17739868    0.05000000    0.05000000
   17.30777740   97.12560272    0.05000000    0.05000000
   17.31110954   98.14949799    0.05000000    0.05000000
   17.31444359   98.80400085    0.05000000    0.05000000
   17.31750107   92.67530060    0.05000000    0.05000000
   17.32083511   99.40049744    0.05000000    0.05000000
   17.32416725   96.22869873    0.05000000    0.03000000
   17.32722282   98.97720337    0.05000000    0.05000000
   17.33055687   98.74720001    0.05000000    0.05000000
   17.33361244   97.80190277    0.05000000    0.05000000
   17.33611107   98.30740356    0.05000000    0.05000000
   17.33722305   98.66030121    0.05000000    0.05000000
   17.34055710   95.73210144    0.05000000    0.05000000
   17.34666824   95.73210144    0.05000000    0.03000000
   17.35083389   98.96720123    0.05000000    0.03000000
   17.35388947   96.58450317    0.05000000    0.05000000
   17.35722351  100.05699921    0.05000000    0.03000000
   17.36055565  103.26300049    0.05000000    0.05000000
   17.36361122  101.60399628    0.05000000    0.05000000
   17.36694527   99.70040131    0.05000000    0.05000000
   17.36944389  104.25399780    0.05000000    0.03000000
   17.37055588   98.83769989    0.05000000    0.05000000
   17.37388992   98.82279968    0.05000000    0.05000000
   17.37694550   94.96620178    0.05000000    0.05000000
   17.38027763  101.53199768    0.05000000    0.05000000
   17.38361168  101.16600037    0.05000000    0.05000000
   17.38944435  101.16600037    0.05000000    0.03000000
   17.39361191   95.47910309    0.05000000    0.05000000
   17.39694405   99.82990265    0.05000000    0.05000000
   17.39999962  101.81199646    0.05000000    0.05000000
   17.40250015  106.25599670    0.05000000    0.05000000
   17.40361023  102.38500214    0.05000000    0.05000000
   17.40694427   96.90989685    0.05000000    0.05000000
   17.40999985  105.71399689    0.05000000    0.05000000
   17.41333389  104.14800262    0.05000000    0.03000000
   17.41666603   92.42610168    0.05000000    0.03000000
   17.41972160  105.01100159    0.05000000    0.03000000
   17.42305565  101.08699799    0.05000000    0.05000000
   17.42611122  101.88999939    0.05000000    0.05000000
   17.43222237  101.88999939    0.05000000    0.03000000
   17.43638802  101.52400208    0.05000000    0.05000000
   17.43972206   98.13770294    0.05000000    0.03000000
   17.44277763   99.91490173    0.05000000    0.05000000
   17.44610977   94.54900360    0.05000000    0.05000000
   17.44944382   97.98449707    0.05000000    0.03000000
   17.45250130   93.87950134    0.05000000    0.03000000
   17.45583344   96.75219727    0.05000000    0.05000000
   17.45888901   95.53109741    0.05000000    0.05000000
   17.46222305   96.24169922    0.05000000    0.05000000
   17.46555710   90.93959808    0.05000000    0.05000000
   17.46861076  101.98799896    0.05000000    0.05000000
   17.46916771  100.21399689    0.05000000    0.05000000
   17.47500038  100.21399689    0.05000000    0.05000000
   17.47916794  100.99500275    0.05000000    0.05000000
   17.48250008   99.44390106    0.05000000    0.05000000
   17.48583412   90.84690094    0.05000000    0.05000000
   17.48888969  101.91799927    0.05000000    0.05000000
   17.49222183   99.96499634    0.05000000    0.05000000
   17.49527740   93.88919830    0.05000000    0.05000000
   17.49861145   93.69619751    0.05000000    0.05000000
   17.50194359   97.33899689    0.05000000    0.05000000
   17.50277710   95.46450043    0.05000000    0.05000000
   17.50527763   96.21779633    0.05000000    0.05000000
   17.50861168   99.54160309    0.05000000    0.05000000
   17.51166725   93.90529633    0.05000000    0.03000000
   17.51805496   93.90529633    0.05000000    0.05000000
   17.52222252   97.07309723    0.05000000    0.03000000
   17.52527809   97.80090332    0.05000000    0.05000000
   17.52861023   95.61250305    0.05000000    0.05000000
   17.53166580   89.80039978    0.05000000    0.03000000
   17.53499985   98.31069946    0.05000000    0.05000000
   17.53610992   94.67140198    0.05000000    0.03000000
   17.53861046   94.71880341    0.05000000    0.05000000
   17.54194450   96.07250214    0.05000000    0.05000000
   17.54500008   90.23339844    0.05000000    0.05000000
   17.54833221   92.20749664    0.05000000    0.05000000
   17.55166626   94.89739990    0.05000000    0.05000000
   17.55472183   96.02690125    0.05000000    0.05000000
   17.56083298   96.02690125    0.05000000    0.05000000
   17.56499863   94.71379852    0.05000000    0.05000000
   17.56805611   95.26789856    0.05000000    0.05000000
   17.56944466   96.68289948    0.05000000    0.05000000
   17.57166672   91.88649750    0.05000000    0.05000000
   17.57500076   97.85340118    0.05000000    0.03000000
   17.57805634   99.93710327    0.05000000    0.03000000
   17.58139038   95.46920013    0.05000000    0.03000000
   17.58472252   97.46250153    0.05000000    0.03000000
   17.58777809   99.47709656    0.05000000    0.05000000
   17.59111214   92.95580292    0.05000000    0.05000000
   17.59444427   97.01300049    0.03000000    0.05000000
   17.59749985   93.48239899    0.05000000    0.05000000
   17.60361099   93.48239899    0.05000000    0.05000000
   17.60777855   97.73670197    0.05000000    0.05000000
   17.61111069  102.66699982    0.05000000    0.05000000
   17.61416626  101.99500275    0.05000000    0.03000000
   17.61750031   96.19120026    0.05000000    0.03000000
   17.62083435   97.58609772    0.05000000    0.03000000
   17.62388992   98.79869843    0.05000000    0.05000000
   17.62722206   97.28910065    0.05000000    0.05000000
   17.63027763   92.11190033    0.05000000    0.05000000
   17.63361168   99.78910065    0.05000000    0.05000000
   17.63611031   96.05010223    0.05000000    0.05000000
   17.63722229   97.39040375    0.05000000    0.05000000
   17.64055634   96.36910248    0.05000000    0.05000000
   17.64666748   96.36910248    0.05000000    0.03000000
   17.65055466   94.20549774    0.05000000    0.05000000
   17.65388870   93.79930115    0.05000000    0.05000000
   17.65722275   95.72339630    0.05000000    0.05000000
   17.66027832   97.29949951    0.05000000    0.05000000
   17.66361046   94.67680359    0.05000000    0.05000000
   17.66666603   93.71240234    0.05000000    0.05000000
   17.66944313   94.98239899    0.05000000    0.05000000
   17.67027664   99.57669830    0.05000000    0.05000000
   17.67361069   99.56490326    0.05000000    0.03000000
   17.67666626   98.42350006    0.05000000    0.03000000
   17.68000031  101.22799683    0.05000000    0.05000000
   17.68333244   98.82949829    0.05000000    0.03000000
   17.68944359   98.82949829    0.05000000    0.05000000
   17.69361115   95.74839783    0.05000000    0.05000000
   17.69666672   99.02829742    0.05000000    0.05000000
   17.70000076  103.21299744    0.05000000    0.05000000
   17.70277786   99.34829712    0.05000000    0.05000000
   17.70361137   92.10610199    0.05000000    0.05000000
   17.70694542  105.88899994    0.05000000    0.03000000
   17.71000099   99.50440216    0.17000000    0.61000001
   17.71333504  106.55999756    0.07000000    0.25999999
   17.71666718   96.48290253    0.05000000    0.17000000
   17.71972275  100.44400024    0.31999999    2.69000006
   17.72305679   91.55120087    0.31999999    2.76999998
   17.72638893   93.40879822    0.81999999    2.71000004
   17.73222351   93.40879822    0.79000002    2.71000004
   17.73638916   93.57980347    0.79000002    2.73000002
   17.73944473  101.60900116    0.79000002    2.71000004
   17.74277878   92.36370087    0.79000002    2.73000002
   17.74611092   93.70179749    0.79000002    2.73000002
   17.74916649  102.44100189    0.79000002    2.76999998
   17.75250053   93.38410187    0.79000002    2.73000002
   17.75583267   91.94490051    0.79000002    2.73000002
   17.75916672   90.84950256    0.79000002    2.73000002
   17.76222229   95.42590332    0.79000002    2.73000002
   17.76555634   90.30079651    0.79000002    2.73000002
   17.76861000   89.62380219    0.79000002    2.73000002
   17.76944351   86.73670197    0.79000002    2.73000002
   17.77499962   86.73670197    0.79000002    2.73000002
   17.77916718   92.45549774    0.79000002    2.73000002
   17.78305435   96.99160004    0.80000001    2.73000002
   17.78638840   92.55259705    0.80000001    2.73000002
   17.78944397   99.06929779    0.80000001    2.73000002
   17.79277802   98.76360321    0.80000001    2.73000002
   17.79611015  100.71600342    0.80000001    2.73000002
   17.79916573   95.01599884    0.80000001    2.73000002
   17.80249977   86.09980011    0.80000001    2.73000002
   17.80305481   95.27050018    0.80000001    2.73000002
   17.80611038   95.78279877    0.80000001    2.73000002
   17.80944443  100.13899994    0.80000001    2.73000002
   17.81277657   95.78530121    0.80000001    2.73000002
   17.81777954   95.78530121    0.89999998    2.73000002
   17.82194519  100.16200256    0.95999998    2.73000002
   17.82527924   92.22630310    0.95999998    2.73000002
   17.82861137   91.08380127    0.94000000    2.73000002
   17.83166695   95.61450195    0.89999998    2.73000002
   17.83500099   91.78970337    0.88000000    2.73000002
   17.83638954   94.79989624    0.86000001    2.73000002
   17.83833313   97.37020111    0.86000001    2.73000002
   17.84166718   92.84510040    0.83999997    2.73000002
   17.84500122   90.51820374    0.83999997    2.73000002
   17.84805679   98.60600281    0.83999997    2.73000002
   17.85138893   92.44840240    0.83999997    2.73000002
   17.85499954   95.96179962    0.83999997    2.73000002
   17.86111069   95.96179962    0.83999997    2.73000002
   17.86527824   93.92900085    0.83999997    2.73000002
   17.86833382   94.61380005    0.83999997    2.73000002
   17.86972237   95.78530121    0.83999997    2.73000002
   17.87222290   93.17060089    0.83999997    2.73000002
   17.87555504   96.27330017    0.83999997    2.73000002
   17.87888908   95.50830078    0.83999997    2.73000002
   17.88555527   94.46939850    0.83999997    2.73000002
   17.88888931   99.94490051    0.83999997    2.73000002
   17.89194489   93.97270203    0.83999997    2.73000002
   17.89527702   93.92639923    0.83999997    2.73000002
   17.89833260   94.56759644    0.83999997    2.71000004
   17.90361023   94.56759644    0.81999999    2.73000002
   17.90777779   97.49579620    0.81999999    2.73000002
   17.91110992   92.86869812    0.81999999    2.73000002
   17.91416550   89.93419647    0.81999999    2.73000002
   17.92249870   91.07279968    0.81999999    2.73000002
   17.92583275   90.84600067    0.81999999    2.73000002
   17.92916679   94.77919769    0.81999999    2.73000002
   17.93249893   93.06510162    0.81999999    2.73000002
   17.93555450   94.96170044    0.81999999    2.73000002
   17.93805504   93.24189758    0.81999999    2.71000004
   17.93944359  100.37699890    0.81999999    2.73000002
   17.94249916   96.28440094    0.81999999    2.71000004
   17.94583321   93.17890167    0.81999999    2.73000002
   17.95000076   93.17890167    0.81999999    2.73000002
   17.95416832   93.14700317    0.81999999    2.73000002
   17.95722389   93.60030365    0.81999999    2.73000002
   17.96055603   93.77660370    0.81999999    2.73000002
   17.96389008   94.93049622    0.81999999    2.73000002
   17.96694565   91.89140320    0.81999999    2.73000002
   17.97027779   90.61409760    0.81999999    2.73000002
   17.97138977   90.71459961    0.81999999    2.73000002
   17.97389030   91.76650238    0.81999999    2.73000002
   17.97694588   92.15239716    0.81999999    2.73000002
   17.98027802   93.09400177    0.81999999    2.73000002
   17.98333359   89.67320251    0.81999999    2.73000002
   17.98666763   96.01290131    0.81999999    2.73000002
   17.99277878   96.01290131    0.81999999    2.73000002
   17.99694443   89.78330231    0.81999999    2.73000002
   18.00027847   93.27780151    0.81999999    2.73000002
   18.00333405   93.98919678    0.81999999    2.73000002
   18.00499916   93.97019958    0.81999999    2.73000002
   18.00722313   91.04329681    0.81999999    2.73000002
   18.01027870   91.96929932    0.81999999    2.73000002
   18.01361084   94.22419739    0.81999999    2.73000002
   18.01666641   91.84750366    0.81999999    2.73000002
   18.02000046   90.61779785    0.81999999    2.73000002
   18.02333260   90.21739960    0.81999999    2.73000002
   18.02638817   92.38629913    0.81999999    2.73000002
   18.02972221   91.73259735    0.81999999    2.73000002
   18.03555489   91.73259735    0.81999999    2.73000002
   18.03972244   89.52940369    0.81999999    2.73000002
   18.04305458   87.85700226    0.81999999    2.73000002
   18.04611015   92.32610321    0.81999999    2.73000002
   18.04944420   86.80740356    0.81999999    2.73000002
   18.05277634   89.83480072    0.81999999    2.73000002
   18.05583191   89.74710083    0.81999999    2.73000002
   18.05916595   92.02069855    0.81999999    2.73000002
   18.06250000   88.41000366    0.81999999    2.73000002
   18.06555557   87.75599670    0.81999999    2.73000002
   18.06888962   94.24449921    0.81999999    2.73000002
   18.07166672   92.17289734    0.81999999    2.73000002
   18.07222366   88.30529785    0.81999999    2.73000002
   18.07861137   88.30529785    0.81999999    2.73000002
   18.08277893   93.32070160    0.81999999    2.73000002
   18.08583450   86.23419952    0.81999999    2.73000002
   18.10499954   94.71240234    0.81999999    2.73000002
   18.10611153   94.46890259    0.81999999    2.73000002
   18.10916710   89.01740265    0.81999999    2.73000002
   18.11250114   90.49700165    0.81999999    2.73000002
   18.11583328   94.97480011    0.81999999    2.73000002
   18.12166595   94.97480011    0.81999999    2.73000002
   18.12583351   91.63760376    0.81999999    2.73000002
   18.12888908   98.83709717    0.81999999    2.73000002
   18.13222313   89.08309937    0.81999999    2.73000002
   18.13555527   92.75879669    0.81999999    2.73000002
   18.13833237   93.21130371    0.81999999    2.73000002
   18.13916588   88.05139923    0.81999999    2.73000002
   18.14222145   89.27940369    0.81999999    2.73000002
   18.14555550   89.27980042    0.81999999    2.73000002
   18.14888954   91.70580292    0.81999999    2.73000002
   18.15194321   93.12409973    0.81999999    2.73000002
   18.15527725   93.11019897    0.81999999    2.73000002
   18.15861130   88.34459686    0.81999999    2.73000002
   18.16444397   88.34459686    0.81999999    2.73000002
   18.16860962   90.97280121    0.81999999    2.73000002
   18.17166519   89.57710266    0.81999999    2.73000002
   18.17222214   95.58699799    0.81999999    2.73000002
   18.17527771   88.07900238    0.81999999    2.73000002
   18.17860985   94.64409637    0.81999999    2.73000002
   18.18194389   89.66970062    0.81999999    2.73000002
   18.18499947   95.96340179    0.81999999    2.73000002
   18.18833160   95.61959839    0.81999999    2.73000002
   18.19166565   94.98850250    0.81999999    2.73000002
   18.19472122   86.18350220    0.81999999    2.73000002
   18.19805527   95.32810211    0.81999999    2.73000002
   18.20111275   94.40160370    0.81999999    2.73000002
   18.20722389   94.40160370    0.81999999    2.73000002
   18.21138954   87.82029724    0.81999999    2.73000002
   18.21472359   89.07969666    0.81999999    2.73000002
   18.21777916   94.84200287    0.81999999    2.73000002
   18.22111130   88.31780243    0.81999999    2.73000002
   18.22444534   92.83000183    0.81999999    2.73000002
   18.22750092   87.92449951    0.81999999    2.73000002
   18.23083305   87.71250153    0.81999999    2.73000002
   18.23416710   91.30770111    0.81999999    2.73000002
   18.23722267   89.79029846    0.81999999    2.73000002
   18.23833275   91.45320129    0.81999999    2.73000002
   18.24083328   90.36930084    0.81999999    2.73000002
   18.24416733   92.39579773    0.81999999    2.73000002
   18.25027847   92.39579773    0.81999999    2.73000002
   18.25444412   91.73259735    0.81999999    2.73000002
   18.25749969   91.27950287    0.81999999    2.73000002
   18.26083374   97.97149658    0.81999999    2.73000002
   18.26388931   93.38999939    0.81999999    2.73000002
   18.26722145   92.24590302    0.81999999    2.73000002
   18.27055550   92.16179657    0.81999999    2.73000002
   18.27166557   95.17910004    0.81999999    2.73000002
   18.27416611   91.85520172    0.81999999    2.73000002
   18.27750015   88.96810150    0.81999999    2.73000002
   18.28055573   96.10839844    0.81999999    2.73000002
   18.28388786   93.43800354    0.81999999    2.73000002
   18.28722191   94.72209930    0.81999999    2.73000002
   18.29305458   94.72209930    0.81999999    2.73000002
   18.29722214   93.59700012    0.81999999    2.73000002
   18.30027771   91.42780304    0.81999999    2.73000002
   18.30360985   94.30699921    0.81999999    2.73000002
   18.30499840   89.76129913    0.81999999    2.73000002
   18.30722237   95.41529846    0.81999999    2.73000002
   18.31055450   91.28880310    0.81999999    2.73000002
   18.31361008   97.95050049    0.81999999    2.73000002
   18.31694603   94.97039795    0.81999999    2.73000002
   18.32000160   91.46440125    0.81999999    2.73000002
   18.32333374   93.31400299    0.81999999    2.73000002
   18.32666779   90.49430084    0.81999999    2.73000002
   18.32972336   96.59590149    0.81999999    2.73000002
   18.33583450   96.59590149    0.81999999    2.73000002
   18.34000015   91.20390320    0.81999999    2.73000002
   18.34333420   93.18340302    0.81999999    2.73000002
   18.34638977   90.52880096    0.81999999    2.73000002
   18.34972191   87.78019714    0.81999999    2.73000002
   18.35277748   92.70480347    0.81999999    2.73000002
   18.35611153   89.77490234    0.81999999    2.73000002
   18.35944557   89.62590027    0.81999999    2.73000002
   18.36277771   92.44830322    0.81999999    2.73000002
   18.36583328   94.91040039    0.81999999    2.73000002
   18.36916733   93.03160095    0.81999999    2.73000002
   18.37166595   95.80039978    0.81999999    2.73000002
   18.37277794   94.18080139    0.81999999    2.73000002
   18.37861061   94.18080139    0.81999999    2.73000002
   18.38277817   93.64459991    0.81999999    2.73000002
   18.38611031   93.26159668    0.81999999    2.73000002
   18.38916588   91.71070099    0.81999999    2.73000002
   18.39249992   97.78220367    0.81999999    2.73000002
   18.39583397   97.04830170    0.81999999    2.73000002
   18.39888954   96.01229858    0.81999999    2.73000002
   18.40222168   98.07420349    0.81999999    2.73000002
   18.40499878   95.89589691    0.81999999    2.73000002
   18.40583229   93.90429688    0.81999999    2.73000002
   18.40916634   99.25759888    0.81999999    2.73000002
   18.41222191   95.57710266    0.81999999    2.73000002
   18.41555595   92.34619904    0.81999999    2.73000002
   18.42166519   92.34619904    0.81999999    2.73000002
   18.42555428   95.66799927    0.81999999    2.73000002
   18.42888832   92.08619690    0.81999999    2.73000002
   18.43222237  101.25599670    0.81999999    2.73000002
   18.43527603   94.12400055    0.81999999    2.73000002
   18.43833160   98.90149689    0.81999999    2.73000002
   18.43888855   98.28949738    0.81999999    2.73000002
   18.44222069   98.03459930    0.81999999    2.73000002
   18.44527626   95.30780029    0.81999999    2.73000002
   18.44861031   95.21910095    0.81999999    2.73000002
   18.45166779   97.79540253    0.81999999    2.73000002
   18.45499992   98.71379852    0.81999999    2.73000002
   18.45833397   96.96379852    0.81999999    2.73000002
   18.46444511   96.96379852    0.81999999    2.73000002
   18.46861076   96.34110260    0.81999999    2.73000002
   18.47166634   96.75540161    0.81999999    2.73000002
   18.47222328   98.01670074    0.81999999    2.73000002
   18.47555542   95.92880249    0.81999999    2.73000002
   18.47861099   97.59929657    0.81999999    2.73000002
   18.48194504   97.67639923    0.81999999    2.73000002
   18.48527718   95.06569672    0.81999999    2.73000002
   18.48833275   98.56289673    0.81999999    2.73000002
   18.49166679   97.33080292    0.81999999    2.73000002
   18.49472237   97.12660217    0.81999999    2.73000002
   18.49805641   98.27960205    0.81999999    2.73000002
   18.50138855   98.95050049    0.81999999    2.73000002
   18.50722313   98.95050049    0.81999999    2.73000002
   18.51138878   99.75920105    0.81999999    2.73000002
   18.51472282  101.20099640    0.81999999    2.73000002
   18.51777840   97.94460297    0.81999999    2.73000002
   18.52111053   99.18229675    0.81999999    2.73000002
   18.52444458  101.96700287    0.81999999    2.73000002
   18.52750015   98.77860260    0.81999999    2.73000002
   18.53083229   97.67130280    0.81999999    2.73000002
   18.53416634   97.97969818    0.81999999    2.73000002
   18.53722191   98.76959991    0.81999999    2.73000002
   18.53833199   97.29920197    0.81999999    2.73000002
   18.54083252  100.57700348    0.81999999    2.73000002
   18.54416656   95.59049988    0.81999999    2.73000002
   18.54999924   95.59049988    0.81999999    2.73000002
   18.55416679   98.08999634    0.81999999    2.73000002
   18.55749893  101.08499908    0.81999999    2.73000002
   18.56055450  100.57299805    0.81999999    2.73000002
   18.56388855  101.35900116    0.81999999    2.73000002
   18.56722260   96.17340088    0.81999999    2.73000002
   18.57027817   99.54669952    0.81999999    2.73000002
   18.57194519   99.95390320    0.81999999    2.73000002
   18.57389069   98.01200104    0.81999999    2.73000002
   18.57722282   97.74960327    0.81999999    2.73000002
   18.58027840  101.94499969    0.81999999    2.73000002
   18.58361244  103.41999817    0.81999999    2.73000002
   18.58694458   99.80339813    0.81999999    2.73000002
   18.59305573   99.80339813    0.81999999    2.73000002
   18.59722328  101.83799744    0.81999999    2.73000002
   18.60027885  101.06500244    0.81999999    2.73000002
   18.60361099  103.54900360    0.81999999    2.73000002
   18.60527802   98.17079926    0.81999999    2.73000002
   18.60722351   98.00360107    0.81999999    2.73000002
   18.61055565   99.94670105    0.81999999    2.73000002
   18.61361122   96.40029907    0.81999999    2.73000002
   18.61694527   98.46350098    0.81999999    2.73000002
   18.62027740   97.65299988    0.81999999    2.73000002
   18.62333298   99.17030334    0.81999999    2.73000002
   18.62666702   93.11660004    0.81999999    2.73000002
   18.62972260  100.76899719    0.81999999    2.73000002
   18.63583374  100.76899719    0.81999999    2.73000002
   18.63999939  100.32499695    0.81999999    2.73000002
   18.64305496  101.87000275    0.81999999    2.73000002
   18.64638901  102.01899719    0.81999999    2.73000002
   18.64972115   98.67240143    0.81999999    2.73000002
   18.65277672  103.45200348    0.81999999    2.73000002
   18.65611076   98.97810364    0.81999999    2.73000002
   18.65916634  101.08499908    0.81999999    2.73000002
   18.66250038   99.54440308    0.81999999    2.73000002
   18.66583252  100.08200073    0.81999999    2.73000002
   18.66888809  103.44300079    0.81999999    2.73000002
   18.67194366  100.83399963    0.81999999    2.73000002
   18.67249870   96.58809662    0.81999999    2.73000002
   18.67860985   96.58809662    0.81999999    2.73000002
   18.68277740  102.63500214    0.81999999    2.73000002
   18.68610954  100.52600098    0.81999999    2.73000002
   18.68916512  101.39099884    0.81999999    2.73000002
   18.69249916  101.50499725    0.81999999    2.73000002
   18.69583321   96.79699707    0.81999999    2.73000002
   18.69888878   97.52799988    0.81999999    2.73000002
   18.70222282   98.96530151    0.81999999    2.73000002
   18.70527840  100.98600006    0.81999999    2.73000002
   18.70583344   98.27220154    0.81999999    2.73000002
   18.70916748   99.37539673    0.81999999    2.73000002
   18.71222305   95.67700195    0.81999999    2.73000002
   18.71555710   96.05570221    0.81999999    2.73000002
   18.72138977   96.05570221    0.81999999    2.73000002
   18.72555542   96.92530060    0.81999999    2.73000002
   18.72888947  107.19499969    0.81999999    2.73000002
   18.73194504  100.79399872    0.81999999    2.73000002
   18.73527718   99.03630066    0.81999999    2.73000002
   18.73861122   99.92710114    0.81999999    2.73000002
   18.73888969   97.16419983    0.81999999    2.73000002
   18.74222183   96.75710297    0.81999999    2.73000002
   18.74555588   97.63040161    0.81999999    2.73000002
   18.74861145  100.23000336    0.81999999    2.73000002
   18.75194359   99.48840332    0.81999999    2.73000002
   18.75527763   99.93949890    0.81999999    2.73000002
   18.75833321   93.03500366    0.81999999    2.73000002
   18.76444435   93.03500366    0.81999999    2.73000002
   18.76833344  100.74700165    0.81999999    2.73000002
   18.77166557   98.98079681    0.81999999    2.73000002
   18.77222252   99.73609924    0.81999999    2.73000002
   18.77527809   96.88059998    0.81999999    2.73000002
   18.77861023  100.10700226    0.81999999    2.73000002
   18.78166580   97.76300049    0.81999999    2.73000002
   18.78499985   98.54869843    0.81999999    2.73000002
   18.78833199   97.24720001    0.81999999    2.73000002
   18.79138756   97.66629791    0.81999999    2.73000002
   18.79472160   99.86049652    0.81999999    2.73000002
   18.79777718   98.69339752    0.81999999    2.73000002
   18.80111122  105.48100281    0.81999999    2.73000002
   18.80722237  105.48100281    0.81999999    2.73000002
   18.81138802  101.20099640    0.81999999    2.73000002
   18.81444359  101.38999939    0.81999999    2.73000002
   18.81777954  103.84400177    0.81999999    2.73000002
   18.82111168  102.05200195    0.81999999    2.73000002
   18.82416725  101.84899902    0.81999999    2.73000002
   18.82750130  100.84200287    0.81999999    2.73000002
   18.83055687   97.29579926    0.81999999    2.73000002
   18.83388901   99.92749786    0.81999999    2.73000002
   18.83722305  101.52200317    0.81999999    2.73000002
   18.83889008   96.62110138    0.81999999    2.73000002
   18.84083366  100.70700073    0.81999999    2.73000002
   18.84416771   96.97260284    0.81999999    2.73000002
   18.85000038   96.97260284    0.81999999    2.73000002
   18.85416794   99.35199738    0.81999999    2.73000002
   18.85750008  100.76100159    0.81999999    2.73000002
   18.86055565   98.59940338    0.81999999    2.73000002
   18.86388969   96.18329620    0.81999999    2.73000002
   18.86722183  101.87400055    0.81999999    2.73000002
   18.87027740  100.80599976    0.81999999    2.73000002
   18.87222290  100.96299744    0.81999999    2.73000002
   18.87388992   99.21610260    0.81999999    2.73000002
   18.87722206   99.37740326    0.81999999    2.73000002
   18.88027763  105.76899719    0.81999999    2.73000002
   18.88361168  103.40499878    0.81999999    2.73000002
   18.88694382   96.14450073    0.81999999    2.73000002
   18.89277840   96.14450073    0.81999999    2.73000002
   18.89694405  102.15000153    0.81999999    2.73000002
   18.90027809   98.69760132    0.81999999    2.73000002
   18.90333366   99.30860138    0.81999999    2.73000002
   18.90555573   99.49770355    0.81999999    2.73000002
   18.90694427   99.82299805    0.81999999    2.73000002
   18.91027832  100.59700012    0.81999999    2.73000002
   18.91333389   94.92530060    0.81999999    2.73000002
   18.91666603  100.81199646    0.81999999    2.73000002
   18.92000008   97.08670044    0.81999999    2.73000002
   18.92305565  109.37500000    0.81999999    2.73000002
   18.92638779  103.00900269    0.81999999    2.73000002
   18.92944336  101.23100281    0.81999999    2.73000002
   18.93555450  101.23100281    0.81999999    2.73000002
   18.93972206   98.78079987    0.81999999    2.73000002
   18.94305420  102.00800323    0.81999999    2.73000002
   18.94638824   97.19329834    0.81999999    2.73000002
   18.94944382   95.99700165    0.81999999    2.73000002
   18.95277786  100.59899902    0.81999999    2.73000002
   18.95611191   96.48529816    0.81999999    2.73000002
   18.95916748   98.18599701    0.81999999    2.73000002
   18.96250153   98.61299896    0.81999999    2.73000002
   18.96555710  104.20800018    0.81999999    2.73000002
   18.96888924   97.24150085    0.81999999    2.73000002
   18.97222328   98.91459656    0.81999999    2.73000002
   18.97249985   96.75250244    0.81999999    2.73000002
   18.97861099   96.75250244    0.81999999    2.73000002
   18.98277855  103.21199799    0.81999999    2.73000002
   18.98583412  100.18099976    0.81999999    2.73000002
   18.98916626  103.11000061    0.81999999    2.73000002
   18.99250031   98.58979797    0.81999999    2.73000002
   18.99555588   97.70590210    0.81999999    2.73000002
   18.99888992  101.94799805    0.81999999    2.73000002
   19.00194359   96.83670044    0.81999999    2.73000002
   19.00527763  100.09300232    0.81999999    2.73000002
   19.00583267  100.67800140    0.81999999    2.73000002
   19.00888824   96.61270142    0.81999999    2.73000002
   19.01222229   99.49330139    0.81999999    2.73000002
   19.01527786   98.77580261    0.81999999    2.73000002
   19.02138901   98.77580261    0.81999999    2.73000002
   19.02555466   99.80259705    0.81999999    2.73000002
   19.02888870  104.84500122    0.81999999    2.73000002
   19.03194427  102.80100250    0.81999999    2.73000002
   19.03527641   98.90750122    0.81999999    2.73000002
   19.03833199   97.43170166    0.81999999    2.73000002
   19.03916550  103.45700073    0.81999999    2.73000002
   19.04194450   97.23989868    0.81999999    2.73000002
   19.04527664   98.89579773    0.81999999    2.73000002
   19.04833221   98.45210266    0.81999999    2.73000002
   19.05166626   92.12480164    0.81999999    2.73000002
   19.05499840  101.90000153    0.81999999    2.73000002
   19.05805397   98.17269897    0.81999999    2.73000002
   19.06416512   98.17269897    0.81999999    2.73000002
   19.06833458   96.38210297    0.81999999    2.73000002
   19.07166672  100.53199768    0.81999999    2.73000002
   19.07250023   98.07450104    0.81999999    2.73000002
   19.07527924   98.24520111    0.81999999    2.73000002
   19.07861137   96.01509857    0.81999999    2.73000002
   19.08166695   96.70860291    0.81999999    2.73000002
   19.08500099   99.62789917    0.81999999    2.73000002
   19.08833313   99.27290344    0.81999999    2.73000002
   19.09138870   99.38929749    0.81999999    2.73000002
   19.09472275   99.85769653    0.81999999    2.73000002
   19.09777832  101.26200104    0.81999999    2.73000002
   19.10111237  100.59899902    0.81999999    2.73000002
   19.12138939   70.91239929    0.81999999    2.73000002
   19.12194443   72.41639709    0.81999999    2.73000002
   19.12527847   96.65329742    0.81999999    2.73000002
   19.12833405   97.80319977    0.81999999    2.73000002
   19.13166618   95.21389771    0.81999999    2.73000002
   19.13500023   98.50019836    0.81999999    2.73000002
   19.13805580   95.84300232    0.81999999    2.73000002
   19.14138794  100.17099762    0.81999999    2.73000002
   19.14472198   99.09249878    0.81999999    2.73000002
   19.14999962   99.09249878    0.81999999    2.73000002
   19.15416718  101.14299774    0.81999999    2.73000002
   19.15444374   97.94819641    0.81999999    2.73000002
   19.15749931   96.98989868    0.81999999    2.73000002
   19.16083336   97.21060181    0.81999999    2.73000002
   19.16388893   95.22119904    0.81999999    2.73000002
   19.16722107  102.41899872    0.81999999    2.73000002
   19.17055511   94.70970154    0.81999999    2.73000002
   19.17361069   97.56020355    0.81999999    2.73000002
   19.17694473   93.32759857    0.81999999    2.73000002
   19.18000031   91.77469635    0.81999999    2.73000002
   19.18333244   99.49659729    0.81999999    2.73000002
   19.18666649   95.47100067    0.81999999    2.73000002
   19.18777657   93.63809967    0.81999999    2.73000002
   19.19277763   93.63809967    0.81999999    2.73000002
   19.19694328   98.62310028    0.81999999    2.73000002
   19.20027924   97.06819916    0.81999999    2.73000002
   19.20333481  100.50800323    0.81999999    2.73000002
   19.20666695   95.08809662    0.81999999    2.73000002
   19.20972252   96.97530365    0.81999999    2.73000002
   19.21305656   98.25740051    0.81999999    2.73000002
   19.21638870   91.46669769    0.81999999    2.73000002
   19.21944427   95.02989960    0.81999999    2.73000002
   19.22111130   98.23509979    0.81999999    2.73000002
   19.22305679   92.80670166    0.81999999    2.73000002
   19.22638893   93.47720337    0.81999999    2.73000002
   19.22944450  100.06500244    0.81999999    2.73000002
   19.23555565  100.06500244    0.81999999    2.73000002
   19.23972321   97.20999908    0.81999999    2.73000002
   19.24305534   99.95169830    0.81999999    2.73000002
   19.24611092   94.20559692    0.81999999    2.73000002
   19.24944496   99.27020264    0.81999999    2.73000002
   19.25277710  100.89499664    0.81999999    2.73000002
   19.25444412   94.27410126    0.81999999    2.73000002
   19.25611115   92.94300079    0.81999999    2.73000002
   19.25944519   97.70639801    0.81999999    2.73000002
   19.26250076   95.96019745    0.81999999    2.73000002
   19.26583290   95.67150116    0.81999999    2.73000002
   19.26916695   95.88030243    0.81999999    2.73000002
   19.27222252   95.24079895    0.81999999    2.73000002
   19.27861023   95.24079895    0.81999999    2.73000002
   19.28249931  100.97499847    0.81999999    2.73000002
   19.28583336   96.76370239    0.81999999    2.73000002
   19.28805542   95.97609711    0.81999999    2.73000002
   19.28944397   98.39179993    0.81999999    2.73000002
   19.29277802   95.76730347    0.81999999    2.73000002
   19.29583359   96.40000153    0.81999999    2.73000002
   19.29916573   98.08899689    0.81999999    2.73000002
   19.30249977   96.64050293    0.81999999    2.73000002
   19.30555534   97.02660370    0.81999999    2.73000002
   19.30888748   99.11849976    0.81999999    2.73000002
   19.31222153   94.05909729    0.81999999    2.73000002
   19.31527710   94.88269806    0.81999999    2.73000002
   19.32139015   94.88269806    0.81999999    2.73000002
   19.32555580   96.73429871    0.81999999    2.73000002
   19.32861137   97.38629913    0.81999999    2.73000002
   19.33194542   97.48400116    0.81999999    2.73000002
   19.33527756   97.94740295    0.81999999    2.73000002
   19.33833313   95.54489899    0.81999999    2.73000002
   19.34166718   97.35310364    0.81999999    2.73000002
   19.34472275   98.53430176    0.81999999    2.73000002
   19.34805679   96.44280243    0.81999999    2.73000002
   19.35138893   96.33910370    0.81999999    2.73000002
   19.35444450   97.03309631    0.81999999    2.73000002
   19.35499954   97.81050110    0.81999999    2.73000002
   19.35833359   98.31220245    0.81999999    2.73000002
   19.36416626   98.31220245    0.81999999    2.73000002
   19.36833382   95.31729889    0.81999999    2.73000002
   19.37166595   93.07499695    0.81999999    2.73000002
   19.37472153   95.46649933    0.81999999    2.73000002
   19.37805557   94.18869781    0.81999999    2.73000002
   19.38111115   99.53929901    0.81999999    2.73000002
   19.38444519   96.38500214    0.81999999    2.73000002
   19.38777733   97.42790222    0.81999999    2.73000002
   19.38833237   94.92900085    0.81999999    2.73000002
   19.39138794   92.11460114    0.81999999    2.73000002
   19.39444351   89.82659912    0.81999999    2.73000002
   19.39777756   90.36740112    0.81999999    2.73000002
   19.40111160   91.09549713    0.81999999    2.73000002
   19.40694427   91.09549713    0.81999999    2.73000002
   19.41110992   90.60610199    0.81999999    2.73000002
   19.41444397   96.26599884    0.81999999    2.73000002
   19.41749954   98.60959625    0.81999999    2.73000002
   19.42083359   94.89540100    0.81999999    2.73000002
   19.42166519   94.59020233    0.81999999    2.73000002
   19.42444420   94.28949738    0.81999999    2.73000002
   19.42749977   99.14499664    0.81999999    2.73000002
   19.43083191   94.33940125    0.81999999    2.73000002
   19.43416595  104.04699707    0.81999999    2.73000002
   19.43722153   98.63420105    0.81999999    2.73000002
   19.44055557   96.31700134    0.81999999    2.73000002
   19.44388771   93.86019897    0.81999999    2.73000002
   19.45000076   93.86019897    0.81999999    2.73000002
   19.45388985   95.55449677    0.81999999    2.73000002
   19.45499992   94.22370148    0.81999999    2.73000002
   19.45777893   99.67819977    0.81999999    2.73000002
   19.46083450   99.84600067    0.81999999    2.73000002
   19.46416664   98.67320251    0.81999999    2.73000002
   19.46750069  100.25900269    0.81999999    2.73000002
   19.47055626  101.02100372    0.81999999    2.73000002
   19.47389030   96.94930267    0.81999999    2.73000002
   19.47722244  102.28500366    0.81999999    2.73000002
   19.48027802   97.82740021    0.81999999    2.73000002
   19.48361206   99.66390228    0.81999999    2.73000002
   19.48666763   97.80919647    0.81999999    2.73000002
   19.48833275   99.47720337    0.81999999    2.73000002
   19.49277878   99.47720337    0.81999999    2.73000002
   19.49694443   97.46739960    0.81999999    2.73000002
   19.50000000   97.46649933    0.81999999    2.73000002
   19.50333405   97.03170013    0.81999999    2.73000002
   19.50666618   98.35369873    0.81999999    2.73000002
   19.50972176   93.75890350    0.81999999    2.73000002
   19.51305580   90.10870361    0.81999999    2.73000002
   19.51611137   95.11430359    0.81999999    2.73000002
   19.51944351   93.78099823    0.81999999    2.73000002
   19.52166557   96.73220062    0.81999999    2.73000002
   19.52305603  101.09500122    0.81999999    2.73000002
   19.52611160  100.58999634    0.81999999    2.73000002
   19.52944374   98.20210266    0.81999999    2.73000002
   19.53555489   98.20210266    0.81999999    2.73000002
   19.53972244   95.53359985    0.81999999    2.73000002
   19.54305458   97.63849640    0.81999999    2.73000002
   19.54611015   99.22899628    0.81999999    2.73000002
   19.54944420  103.01799774    0.81999999    2.73000002
   19.55249977  101.02500153    0.81999999    2.73000002
   19.55499840   98.09590149    0.81999999    2.73000002
   19.55638885   95.94029999    0.81999999    2.73000002
   19.55944443   99.51660156    0.81999999    2.73000002
   19.56277657   94.37329865    0.81999999    2.73000002
   19.56611061   99.92209625    0.81999999    2.73000002
   19.56916809   98.72750092    0.81999999    2.73000002
   19.57250023   95.85289764    0.81999999    2.73000002
   19.57833481   95.85289764    0.81999999    2.73000002
   19.58250046   94.14949799    0.81999999    2.73000002
   19.58583450   92.74109650    0.81999999    2.73000002
   19.58833313   96.43949890    0.81999999    2.73000002
   19.58944511   97.84629822    0.81999999    2.73000002
   19.59250069   93.89689636    0.81999999    2.73000002
   19.59583473   93.98590088    0.81999999    2.73000002
   19.59916687   94.76110077    0.81999999    2.73000002
   19.60222244   97.95989990    0.81999999    2.73000002
   19.60555649  102.78800201    0.81999999    2.73000002
   19.60888863   97.62259674    0.81999999    2.73000002
   19.61194420   99.44799805    0.81999999    2.73000002
   19.61527824   95.97319794    0.81999999    2.73000002
   19.62111092   95.97319794    0.81999999    2.73000002
   19.62527847   97.68379974    0.81999999    2.73000002
   19.62861061   95.44589996    0.81999999    2.73000002
   19.63194466   97.26059723    0.81999999    2.73000002
   19.63500023   97.37979889    0.81999999    2.73000002
   19.63833237   94.69020081    0.81999999    2.73000002
   19.64166641   94.49929810    0.81999999    2.73000002
   19.64472198   96.43039703    0.81999999    2.73000002
   19.64805603   97.42289734    0.81999999    2.73000002
   19.65111160   97.59809875    0.81999999    2.73000002
   19.65444374   97.47409821    0.81999999    2.73000002
   19.65638924   95.96269989    0.81999999    2.73000002
   19.65805435   99.34239960    0.81999999    2.73000002
   19.66416550   99.34239960    0.81999999    2.73000002
   19.66833305   98.87519836    0.81999999    2.73000002
   19.67138863  100.80999756    0.81999999    2.73000002
   19.67472076   96.79129791    0.81999999    2.73000002
   19.67805481   97.16860199    0.81999999    2.73000002
   19.68111038   97.71160126    0.81999999    2.73000002
   19.68444443   98.46119690    0.81999999    2.73000002
   19.68750000   95.55699921    0.81999999    2.73000002
   19.68944359   96.05970001    0.81999999    2.73000002
   19.69111061   95.53669739    0.81999999    2.73000002
   19.69444275   99.35430145    0.81999999    2.73000002
   19.69749832   95.79920197    0.81999999    2.73000002
   19.70083427   94.00640106    0.81999999    2.73000002
   19.70694542   94.00640106    0.81999999    2.73000002
   19.71111107   94.18640137    0.81999999    2.73000002
   19.71444511   97.51640320    0.81999999    2.73000002
   19.71750069   95.43000031    0.81999999    2.73000002
   19.72083473   95.75879669    0.81999999    2.73000002
   19.72305679   98.42800140    0.81999999    2.73000002
   19.72444534   96.74739838    0.81999999    2.73000002
   19.72777748   97.59040070    0.81999999    2.73000002
   19.73083305  100.43199921    0.81999999    2.73000002
   19.73416710   94.39980316    0.81999999    2.73000002
   19.73722267   97.18450165    0.81999999    2.73000002
   19.74055672  101.02899933    0.81999999    2.73000002
   19.74388885   99.12449646    0.81999999    2.73000002
   19.74972153   99.12449646    0.81999999    2.73000002
   19.75388908   99.60410309    0.81999999    2.73000002
   19.75638962   97.19450378    0.81999999    2.73000002
   19.75749969  101.62799835    0.81999999    2.73000002
   19.76083374   95.52510071    0.81999999    2.73000002
   19.76388931   97.75009918    0.81999999    2.73000002
   19.76722145   99.70520020    0.81999999    2.73000002
   19.77027702   98.41619873    0.81999999    2.73000002
   19.77361107   97.98719788    0.81999999    2.73000002
   19.77694511  100.82499695    0.81999999    2.73000002
   19.78000069   92.28269958    0.81999999    2.73000002
   19.78333282   98.08640289    0.81999999    2.73000002
   19.78666687   98.04199982    0.81999999    2.73000002
   19.79277802   98.04199982    0.81999999    2.73000002
   19.79666710   98.42620087    0.81999999    2.73000002
   19.79999924   98.94930267    0.81999999    2.73000002
   19.80333328  102.16899872    0.81999999    2.73000002
   19.80638885  104.79900360    0.81999999    2.73000002
   19.80972099   95.37339783    0.81999999    2.73000002
   19.81305504   97.22779846    0.81999999    2.73000002
   19.81638718   99.31469727    0.81999999    2.73000002
   19.81944466   97.83599854    0.81999999    2.73000002
   19.82277870   96.91850281    0.81999999    2.73000002
   19.82361221   97.09950256    0.81999999    2.73000002
   19.82611275  100.47399902    0.81999999    2.73000002
   19.82944489   97.75720215    0.81999999    2.73000002
   19.83555603   97.75720215    0.81999999    2.73000002
   19.83972359   96.21669769    0.81999999    2.73000002
   19.84277916  104.37999725    0.81999999    2.73000002
   19.84611130  103.39900208    0.81999999    2.73000002
   19.84944534  100.14299774    0.81999999    2.73000002
   19.85250092   96.34300232    0.81999999    2.73000002
   19.85583305   99.26229858    0.81999999    2.73000002
   19.85694504   97.83689880    0.81999999    2.73000002
   19.85916710  102.82299805    0.81999999    2.73000002
   19.86250114   98.22910309    0.81999999    2.73000002
   19.86583328   98.14739990    0.81999999    2.73000002
   19.86888885   94.39170074    0.81999999    2.73000002
   19.87222290   92.54840088    0.81999999    2.73000002
   19.87833405   92.54840088    0.81999999    2.73000002
   19.88249969  100.95300293    0.81999999    2.73000002
   19.88583374  104.87400055    0.81999999    2.73000002
   19.88888931   97.79620361    0.81999999    2.73000002
   19.89055634  102.21399689    0.81999999    2.73000002
   19.89249992  101.10900116    0.81999999    2.73000002
   19.89583397   96.19529724    0.81999999    2.73000002
   19.89916611   98.89330292    0.81999999    2.73000002
   19.90222168  103.33399963    0.81999999    2.73000002
   19.90555573  103.19200134    0.81999999    2.73000002
   19.90888786  100.51100159    0.81999999    2.73000002
   19.91194344   98.69809723    0.81999999    2.73000002
   19.91527748   99.59860229    0.81999999    2.73000002
   19.92111015   99.59860229    0.81999999    2.73000002
   19.92527771   97.02439880    0.81999999    2.73000002
   19.92860985  103.04199982    0.81999999    2.73000002
   19.93166542  100.80599976    0.81999999    2.73000002
   19.93499947   99.70860291    0.81999999    2.73000002
   19.93833160   97.56199646    0.81999999    2.73000002
   19.94138718   98.83999634    0.81999999    2.73000002
   19.94472122  104.17900085    0.81999999    2.73000002
   19.94805527  100.85700226    0.81999999    2.73000002
   19.95111275   99.16349792    0.81999999    2.73000002
   19.95444489   95.54509735    0.81999999    2.73000002
   19.95722389   97.75759888    0.81999999    2.73000002
   19.95805550   97.96160126    0.81999999    2.73000002
   19.96416664   97.96160126    0.81999999    2.73000002
   19.96805573   94.86779785    0.81999999    2.73000002
   19.97138977   91.99109650    0.81999999    2.73000002
   19.97472191   98.41359711    0.81999999    2.73000002
   19.97777748  101.08399963    0.81999999    2.73000002
   19.98111153   98.39179993    0.81999999    2.73000002
   19.98444557   97.69589996    0.81999999    2.73000002
   19.98750114   97.81620026    0.81999999    2.73000002
   19.99055672  100.53700256    0.81999999    2.73000002
   19.99111176   98.61620331    0.81999999    2.73000002
   19.99444389   97.34539795    0.81999999    2.73000002
   19.99749947   93.47720337    0.81999999    2.73000002
   20.00083351   94.68170166    0.81999999    2.73000002
   20.00694466   94.68170166    0.81999999    2.73000002
   20.01111031   94.14340210    0.81999999    2.73000002
   20.01416588   99.56670380    0.81999999    2.73000002
   20.01749992   93.17440033    0.81999999    2.73000002
   20.02083397   96.15959930    0.81999999    2.73000002
   20.02388954   97.82879639    0.81999999    2.73000002
   20.02416611   97.54689789    0.81999999    2.73000002
   20.02750015   97.86889648    0.81999999    2.73000002
   20.03055573   97.13200378    0.81999999    2.73000002
   20.03388786   96.27069855    0.81999999    2.73000002
   20.03722191  100.37000275    0.81999999    2.73000002
   20.04027748  101.68800354    0.81999999    2.73000002
   20.04361153  100.01599884    0.81999999    2.73000002
   20.04972076  100.01599884    0.81999999    2.73000002
   20.06083298   92.71209717    0.00000000    0.00000000
   20.06222153   95.16709900    0.00000000    0.00000000
   20.06583214   97.56340027    0.00000000    0.00000000
   20.06944466   95.77709961    0.00000000    0.00000000
   20.07333374   99.18199921    0.00000000    0.00000000
   20.07722282   96.19049835    0.00000000    0.00000000
   20.08111191   93.93789673    0.00000000    0.00000000
   20.08500099   92.75879669    0.00000000    0.00000000
   20.08889008   94.72190094    0.00000000    0.00000000
   20.09361267   94.72190094    0.00000000    0.00000000
   20.09833336   96.13400269    0.00000000    0.00000000
   20.10222244   96.09880066    0.00000000    0.00000000
   20.10583305   92.97589874    0.00000000    0.00000000
   20.10972214   91.75959778    0.00000000    0.00000000
   20.11361122   95.34850311    0.00000000    0.00000000
   20.11750031   95.73069763    0.00000000    0.00000000
   20.12138939   95.95149994    0.00000000    0.00000000
   20.13888931  101.92500305    0.00000000    0.00000000
   20.14361191  101.92500305    0.00000000    0.00000000
   20.14833260   97.98349762    0.00000000    0.00000000
   20.15222168   97.73819733    0.00000000    0.00000000
   20.15611076  100.26799774    0.00000000    0.00000000
   20.15999985   96.25309753    0.00000000    0.00000000
   20.16388893   94.19069672    0.00000000    0.00000000
   20.16777802   94.00330353    0.00000000    0.00000000
   20.17166519   96.60489655    0.00000000    0.00000000
   20.17194366   98.50129700    0.00000000    0.00000000
   20.17555428   94.97579956    0.00000000    0.00000000
   20.17944336   97.13760376    0.00000000    0.00000000
   20.18638802   97.13760376    0.00000000    0.00000000
   20.19138718  100.39199829    0.00000000    0.00000000
   20.19499969  101.23500061    0.00000000    0.00000000
   20.19888878   96.68969727    0.00000000    0.00000000
   20.20277786   97.43109894    0.00000000    0.00000000
   20.20527840   99.31970215    0.00000000    0.00000000
   20.20694542   96.70529938    0.00000000    0.00000000
   20.21083450   98.08329773    0.00000000    0.00000000
   20.21472359   94.86519623    0.00000000    0.00000000
   20.21861076   95.37740326    0.00000000    0.00000000
   20.22249985   97.32240295    0.00000000    0.00000000
   20.22944450   97.32240295    0.00000000    0.00000000
   20.23416710   96.82520294    0.00000000    0.00000000
   20.23805618   98.43090057    0.00000000    0.00000000
   20.23861122   96.12519836    0.00000000    0.00000000
   20.24222183   97.53839874    0.00000000    0.00000000
   20.24611092   97.91480255    0.00000000    0.00000000
   20.25000000  101.44599915    0.00000000    0.00000000
   20.25388908   97.04239655    0.00000000    0.00000000
   20.25777817   99.89219666    0.00000000    0.00000000
   20.26166725   99.29740143    0.00000000    0.00000000
   20.26527786  102.00700378    0.00000000    0.00000000
   20.27222252  102.00700378    0.00000000    0.00000000
   20.27694511   98.33249664    0.00000000    0.00000000
   20.28083229   95.77850342    0.00000000    0.00000000
   20.28472137   94.47339630    0.00000000    0.00000000
   20.28861046  101.00800323    0.00000000    0.00000000
   20.29249954  104.75199890    0.00000000    0.00000000
   20.29611015  101.01000214    0.00000000    0.00000000
   20.29999924  101.31700134    0.00000000    0.00000000
   20.30388832  103.21600342    0.00000000    0.00000000
   20.30777740   95.76860046    0.00000000    0.00000000
   20.30833244   98.55259705    0.00000000    0.00000000
   20.31499863   98.55259705    0.00000000    0.00000000
   20.31972313   99.88880157    0.00000000    0.00000000
   20.32361221   99.19470215    0.00000000    0.00000000
   20.32750130  101.33000183    0.00000000    0.00000000
   20.33139038  102.19200134    0.00000000    0.00000000
   20.33527756   95.00209808    0.00000000    0.00000000
   20.33916664  103.23799896    0.00000000    0.00000000
   20.34055710  100.60500336    0.00000000    0.00000000
   20.34333420  100.57900238    0.00000000    0.00000000
   20.34722328  101.18900299    0.00000000    0.00000000
   20.35111237   99.98339844    0.00000000    0.00000000
   20.35777855   99.98339844    0.00000000    0.00000000
   20.36277771  100.04499817    0.00000000    0.00000000
   20.36638832  104.86699677    0.00000000    0.00000000
   20.37027740   97.93530273    0.00000000    0.00000000
   20.37416649  100.12599945    0.00000000    0.00000000
   20.37472153   97.66480255    0.00000000    0.00000000
   20.37833405   98.65360260    0.00000000    0.00000000
   20.38222313   98.92050171    0.00000000    0.00000000
   20.38583374   96.53959656    0.00000000    0.00000000
   20.38972282  100.99099731    0.00000000    0.00000000
   20.39361191   97.70279694    0.00000000    0.00000000
   20.40083313   97.70279694    0.00000000    0.00000000
   20.40555573   95.71559906    0.00000000    0.00000000
   20.40805435  101.86199951    0.00000000    0.00000000
   20.40972137   95.46900177    0.00000000    0.00000000
   20.41361046   97.07820129    0.00000000    0.00000000
   20.41749954   98.28489685    0.00000000    0.00000000
   20.42138863   99.80210114    0.00000000    0.00000000
   20.42527771  105.08000183    0.00000000    0.00000000
   20.42888832   97.44110107    0.00000000    0.00000000
   20.43277740  100.68900299    0.00000000    0.00000000
   20.43666649  101.47100067    0.00000000    0.00000000
   20.44361115  101.47100067    0.00000000    0.00000000
   20.44805527   97.52159882    0.00000000    0.00000000
   20.45194435  107.03500366    0.00000000    0.00000000
   20.45583344   98.76180267    0.00000000    0.00000000
   20.45944595  119.59100342    0.00000000    0.00000000
   20.46333504  141.41600037    0.00000000    0.00000000
   20.46722221  157.19099426    0.00000000    0.00000000
   20.47111130  162.89500427    0.00000000    0.00000000
   20.47500038  189.01400757    0.00000000    0.00000000
   20.47555542  190.54800415    0.00000000    0.00000000
   20.47916794  203.23699951    0.00000000    0.00000000
   20.48638916  203.23699951    0.00000000    0.00000000
   20.49111176   -1.00000000    0.00000000    0.00000000
   20.49500084   -1.00000000    0.00000000    0.00000000
   20.49888992   -1.00000000    0.00000000    0.00000000
   20.50277710   -1.00000000    0.00000000    0.00000000
   20.50666618   -1.00000000    0.00000000    0.00000000
   20.51055527   -1.00000000    0.00000000    0.00000000
   20.51444435   -1.00000000    0.00000000    0.00000000
   20.51833344   -1.00000000    0.00000000    0.00000000
   20.52222252   -1.00000000    0.00000000    0.00000000
   20.53388786   -1.00000000    0.00000000    0.00000000
   20.53777695   -1.00000000    0.00000000    0.00000000
   20.54166603   -1.00000000    0.00000000    0.00000000
   20.54555511   -1.00000000    0.00000000    0.00000000
   20.54944420   -1.00000000    0.00000000    0.00000000
   20.55333328   -1.00000000    0.00000000    0.00000000
   20.55722237   -1.00000000    0.00000000    0.00000000
   20.56110954   -1.00000000    0.00000000    0.00000000
   20.56499863   -1.00000000    0.00000000    0.00000000
   20.57694626   -1.00000000    0.00000000    0.00000000
   20.58055687   -1.00000000    0.00000000    0.00000000
   20.58444595   -1.00000000    0.00000000    0.00000000
   20.58833313   -1.00000000    0.00000000    0.00000000
   20.59222221   -1.00000000    0.00000000    0.00000000
   20.59611130   -1.00000000    0.00000000    0.00000000
   20.60000038   -1.00000000    0.00000000    0.00000000
   20.60388947   -1.00000000    0.00000000    0.00000000
   20.60777855   -1.00000000    0.00000000    0.00000000
   20.61972237   -1.00000000    0.00000000    0.00000000
   20.62361145   -1.00000000    0.00000000    0.00000000
   20.62750053   -1.00000000    0.00000000    0.00000000
