    HOUR (UT)   FLARE FACTOR    SKY TESTER    SUN TESTER
   12.41305542   -1.00000000   -1.00000000   -1.00000000
   12.45472240  209.44400024    4.90999985    1.98000002
   12.45777798  182.97700500    4.90999985    1.98000002
   12.46111107  192.02099609    4.90999985    1.98000002
   12.46444416  197.13900757    4.90999985    1.98000002
   12.46749973  165.50300598    4.90999985    2.00000000
   12.47083282  166.64599609    4.90999985    1.98000002
   12.47499943  166.64599609    4.90999985    2.00000000
   12.47888851  156.22500610    4.90999985    2.00000000
   12.48222160  161.05099487    4.90999985    2.00000000
   12.48555565  147.64300537    4.90999985    2.01999998
   12.48777771  136.02400208    4.90999985    2.00000000
   12.48916721  141.83299255    4.90999985    2.01999998
   12.49250031  154.41799927    4.90999985    2.00000000
   12.49555588  157.86099243    4.90999985    2.01999998
   12.49888897  162.84100342    4.90999985    2.01999998
   12.50222206  160.19099426    4.90999985    2.01999998
   12.50527763  150.75900269    4.90999985    2.01999998
   12.50861073  148.44200134    4.90999985    2.01999998
   12.51166630  152.77400208    4.90999985    2.03999996
   12.51777744  152.77400208    4.90999985    2.01999998
   12.52194405  156.44000244    4.90999985    2.03999996
   12.52499962  152.49200439    4.90999985    2.03999996
   12.52833271  143.63999939    4.90999985    2.03999996
   12.53166676  139.16999817    4.90999985    2.03999996
   12.53500080  151.29800415    4.90999985    2.03999996
   12.53805637  143.86399841    4.90999985    2.05999994
   12.54138947  129.24499512    4.90999985    2.05999994
   12.54444504  144.21699524    4.90999985    2.03999996
   12.54777813  150.75900269    4.90999985    2.05999994
   12.55111122  143.13400269    4.90999985    2.05999994
   12.55416679  149.99699402    4.90999985    2.05999994
   12.55472279  156.32600403    4.90999985    2.05999994
   12.56055546  156.32600403    4.90999985    2.05999994
   12.56472206  143.74699402    4.90999985    2.05999994
   12.56805515  142.10699463    4.90999985    2.07999992
   12.57111073  153.43299866    4.90999985    2.05999994
   12.57444477  131.36000061    4.90999985    2.07999992
   12.57750034  134.65199280    4.90999985    2.07999992
   12.58083344  157.61300659    4.90999985    2.07999992
   12.58416653  146.89199829    4.90999985    2.07999992
   12.58722210  124.69699860    4.90999985    2.09999990
   12.58805561  136.91400146    4.90999985    2.07999992
   12.59083271  147.76400757    4.90999985    2.09999990
   12.59388828  132.31300354    4.90999985    2.07999992
   12.59722233  150.88600159    4.90999985    2.09999990
   12.60333347  150.88600159    4.90999985    2.09999990
   12.60750008  132.25100708    4.90999985    2.09999990
   12.61083412  145.15899658    4.90999985    2.09999990
   12.61388969  135.69599915    4.90999985    2.09999990
   12.61722279  144.61399841    4.90999985    2.09999990
   12.62055588  143.45799255    4.90999985    2.11999989
   12.62138939  149.45399475    4.90999985    2.09999990
   12.62416649  142.41400146    4.90999985    2.09999990
   12.62722206  151.49899292    4.90999985    2.11999989
   12.63055611  148.19200134    4.90999985    2.11999989
   12.63388920  150.95199585    4.90999985    2.11999989
   12.63694477  141.76800537    4.90999985    2.11999989
   12.64027786  151.36000061    4.90999985    2.11999989
   12.64611053  151.36000061    4.90999985    2.11999989
   12.65027714  154.44000244    4.90999985    2.13000011
   12.65361118  158.85000610    4.90999985    2.11999989
   12.65472221  149.94200134    4.90999985    2.13000011
   12.65722179  163.76600647    4.90999985    2.11999989
   12.66027737  163.50300598    4.90999985    2.13000011
   12.66361046  153.35200500    4.90999985    2.13000011
   12.66694450  156.67700195    4.90999985    2.13000011
   12.67000008  161.58599854    4.90999985    2.13000011
   12.67333412  146.25500488    4.90999985    2.13000011
   12.67666721  154.27200317    4.90999985    2.13000011
   12.67972279  144.53900146    4.90999985    2.15000010
   12.68305588  131.12899780    4.90999985    2.15000010
   12.68916702  131.12899780    4.90999985    2.15000010
   12.69333363  148.51899719    4.90999985    2.15000010
   12.69638920  141.24099731    4.90999985    2.15000010
   12.69972229  150.16299438    4.90999985    2.15000010
   12.70305538  145.76100159    4.90999985    2.15000010
   12.70611095  159.42399597    4.90999985    2.15000010
   12.70944405  146.19400024    4.90999985    2.15000010
   12.71249962  144.84100342    4.90999985    2.15000010
   12.71583271  145.57899475    4.90999985    2.15000010
   12.71916580  149.63499451    4.90999985    2.17000008
   12.72138882  151.45300293    4.90999985    2.17000008
   12.72277737  148.53300476    4.90999985    2.17000008
   12.72583294  160.88699341    4.90999985    2.17000008
   12.73194408  160.88699341    4.90999985    2.17000008
   12.73611164  141.12600708    4.90999985    2.17000008
   12.73944473  138.55900574    4.90999985    2.17000008
   12.74250031  143.03300476    4.90999985    2.17000008
   12.74583340  148.72799683    4.90999985    2.17000008
   12.74888897  156.75399780    4.90999985    2.17000008
   12.75222206  148.06599426    4.90999985    2.17000008
   12.75472260  147.93600464    4.90999985    2.17000008
   12.75583363  157.45199585    4.90999985    2.19000006
   12.75888920  147.81799316    4.90999985    2.19000006
   12.76222229  144.07800293    4.90999985    2.19000006
   12.76555538  151.50700378    4.90999985    2.19000006
   12.76861095  146.34399414    4.90999985    2.19000006
   12.77472210  146.34399414    4.90999985    2.19000006
   12.77888870  143.07400513    4.90999985    2.19000006
   12.78222179  149.16700745    4.90999985    2.19000006
   12.78555584  136.61300659    4.90999985    2.19000006
   12.78805637  145.00999451    4.90999985    2.21000004
   12.78916740  144.47799683    4.90999985    2.21000004
   12.79222298  153.09599304    4.90999985    2.21000004
   12.79555607  146.43899536    4.90999985    2.19000006
   12.79888916  140.10299683    4.90999985    2.21000004
   12.80194473  168.56300354    4.90999985    2.21000004
   12.80527782  144.25100708    4.90999985    2.21000004
   12.80861092  153.40600586    4.90999985    2.21000004
   12.81166649  141.29699707    4.90999985    2.21000004
   12.81777763  141.29699707    4.90999985    2.21000004
   12.82166672  156.39100647    4.90999985    2.21000004
   12.82499981  146.08399963    4.90999985    2.21000004
   12.82833290  143.10400391    4.90999985    2.23000002
   12.83138847  144.97500610    4.90999985    2.23000002
   12.83472157  146.76699829    4.90999985    2.23000002
   12.83805561  147.07899475    4.90999985    2.23000002
   12.84111118  143.43699646    4.90999985    2.21000004
   12.84444427  145.45500183    4.90999985    2.23000002
   12.84749985  136.03599548    4.90999985    2.21000004
   12.85083389  140.09399414    4.90999985    2.23000002
   12.85416698  137.47099304    4.90999985    2.23000002
   12.85472298  137.54499817    4.90999985    2.23000002
   12.86055565  137.54499817    4.90999985    2.23000002
   12.86472225  142.68800354    4.90999985    2.25000000
   12.86777782  141.47500610    4.90999985    2.23000002
   12.87111092  139.98800659    4.90999985    2.23000002
   12.87416649  139.52299500    4.90999985    2.25000000
   12.87750053  141.17199707    4.90999985    2.23000002
   12.88083363  145.00799561    4.90999985    2.23000002
   12.88388920  148.75599670    4.90999985    2.25000000
   12.88722229  157.25700378    4.90999985    2.25000000
   12.88805580  139.63600159    4.90999985    2.25000000
   12.89083290  144.23599243    4.90999985    2.25000000
   12.89416695  153.32600403    4.90999985    2.25000000
   12.89722252  151.31500244    4.90999985    2.25000000
   12.90333271  151.31500244    4.90999985    2.26999998
   12.90749931  154.48399353    4.90999985    2.25000000
   12.91083336  158.33299255    4.90999985    2.25000000
   12.91388893  147.05499268    4.90999985    2.25000000
   12.91722298  149.97099304    4.90999985    2.26999998
   12.92027855  144.43600464    4.90999985    2.26999998
   12.92138958  136.00900269    4.90999985    2.26999998
   12.92388916  144.86199951    4.90999985    2.26999998
   12.92722225  147.00199890    4.90999985    2.25000000
   12.93027782  143.21400452    4.90999985    2.26999998
   12.93361092  149.36500549    4.90999985    2.26999998
   12.93666649  143.83200073    4.90999985    2.26999998
   12.94000053  133.37199402    4.90999985    2.26999998
   12.94611073  133.37199402    4.90999985    2.26999998
   12.95027733  139.83900452    4.90999985    2.26999998
   12.95361137  141.42700195    4.90999985    2.26999998
   12.95472240  159.39399719    4.90999985    2.26999998
   12.95722198  155.61900330    4.90999985    2.26999998
   12.96055508  153.26800537    4.90999985    2.26999998
   12.96361065  150.78500366    4.90999985    2.26999998
   12.96694374  140.08099365    4.90999985    2.28999996
   12.96999931  150.04400635    4.90999985    2.28999996
   12.97361088  150.42100525    4.90999985    2.26999998
   12.97694397  146.67700195    4.90999985    2.28999996
   12.97999954  159.55099487    4.90999985    2.26999998
   12.98333359  138.83200073    4.90999985    2.28999996
   12.98916721  138.83200073    4.90999985    2.28999996
   12.99361134  155.08000183    4.90999985    2.28999996
   12.99666691  154.27400208    4.90999985    2.28999996
   13.00000000  142.62800598    4.90999985    2.28999996
   13.00305557  145.92399597    4.90999985    2.28999996
   13.00638866  150.15899658    4.90999985    2.28999996
   13.00972176  142.29100037    4.90999985    2.28999996
   13.01277733  143.73300171    4.90999985    2.28999996
   13.01611137  138.85899353    4.90999985    2.28999996
   13.01944447  138.76699829    4.90999985    2.30999994
   13.02138901  139.21699524    4.90999985    2.30999994
   13.02305508  149.57699585    4.90999985    2.30999994
   13.02638817  152.41299438    4.90999985    2.30999994
   13.03194427  152.41299438    4.90999985    2.30999994
   13.03611183  146.14700317    4.90999985    2.30999994
   13.03916740  145.70700073    4.90999985    2.30999994
   13.04250050  152.37699890    4.90999985    2.30999994
   13.04583359  148.02799988    4.90999985    2.30999994
   13.04888916  142.06399536    4.90999985    2.30999994
   13.05222225  144.74899292    4.90999985    2.30999994
   13.05472279  144.91200256    4.90999985    2.30999994
   13.05583382  155.08599854    4.90999985    2.30999994
   13.05916691  144.61999512    4.90999985    2.32999992
   13.06222248  139.91000366    4.90999985    2.30999994
   13.06555557  145.12699890    4.90999985    2.30999994
   13.06861115  141.17399597    4.90999985    2.30999994
   13.07472229  141.17399597    4.90999985    2.32999992
   13.07888889  144.05599976    4.90999985    2.32999992
   13.08194447  140.68899536    4.90999985    2.32999992
   13.08527756  147.03300476    4.90999985    2.32999992
   13.08805561  155.40800476    4.90999985    2.32999992
   13.08888817  149.68800354    4.90999985    2.32999992
   13.09222221  145.46699524    4.90999985    2.32999992
   13.09527779  147.36999512    4.90999985    2.32999992
   13.09861088  146.25999451    4.90999985    2.32999992
   13.10166740  141.61099243    4.90999985    2.32999992
   13.10500050  157.35000610    4.90999985    2.34999990
   13.10833359  147.64599609    4.90999985    2.32999992
   13.11138916  133.51800537    4.90999985    2.34999990
   13.11750031  133.51800537    4.90999985    2.34999990
   13.12166691  145.42599487    4.90999985    2.34999990
   13.12500000  142.22200012    4.90999985    2.34999990
   13.12805557  134.37199402    4.90999985    2.34999990
   13.13138866  141.78300476    4.90999985    2.34999990
   13.13472176  146.24400330    4.90999985    2.34999990
   13.13805580  136.38800049    4.90999985    2.34999990
   13.14111137  139.22999573    4.90999985    2.34999990
   13.14444447  144.89300537    4.90999985    2.34999990
   13.14750004  139.66499329    4.90999985    2.34999990
   13.15083313  143.82699585    4.90999985    2.34999990
   13.15416622  141.50799561    4.90999985    2.34999990
   13.15472221  147.60200500    4.90999985    2.34999990
   13.16055489  147.60200500    4.90999985    2.34999990
   13.16444397  145.77999878    4.90999985    2.36999989
   13.16777802  150.65899658    4.90999985    2.36999989
   13.17111111  148.43200684    4.90999985    2.34999990
   13.17416668  152.08900452    4.90999985    2.34999990
   13.17750072  155.13600159    4.90999985    2.36999989
   13.18055630  153.54299927    4.90999985    2.36999989
   13.18388939  150.38999939    4.90999985    2.34999990
   13.18722248  142.42700195    4.90999985    2.36999989
   13.18805599  141.46000671    4.90999985    2.36999989
   13.19083309  149.71800232    4.90999985    2.36999989
   13.19416714  144.02099609    4.90999985    2.36999989
   13.19722271  139.80299377    4.90999985    2.36999989
   13.20333290  139.80299377    4.90999985    2.36999989
   13.20749950  150.26100159    4.90999985    2.36999989
   13.21055508  153.34399414    4.90999985    2.36999989
   13.21388912  144.54200745    4.90999985    2.36999989
   13.21694374  153.16700745    4.90999985    2.36999989
   13.22027779  150.19700623    4.90999985    2.36999989
   13.22138882  154.69099426    4.90999985    2.36999989
   13.22388840  149.45599365    4.90999985    2.36999989
   13.22722149  143.64700317    4.90999985    2.36999989
   13.23027706  143.03100586    4.90999985    2.39000010
   13.23361111  148.82899475    4.90999985    2.36999989
   13.23666668  149.54100037    4.90999985    2.39000010
   13.24000072  147.05299377    4.90999985    2.39000010
   13.24611092  147.05299377    4.90999985    2.39000010
   13.25027752  149.47599792    4.90999985    2.36999989
   13.25333309  154.42399597    4.90999985    2.39000010
   13.25472260  149.35600281    4.90999985    2.39000010
   13.25694466  138.96099854    4.90999985    2.39000010
   13.26027775  147.23599243    4.90999985    2.39000010
   13.26333332  144.08200073    4.90999985    2.39000010
   13.26666641  137.55200195    4.90999985    2.39000010
   13.26972198  149.12500000    4.90999985    2.39000010
   13.27305508  147.24699402    4.90999985    2.39000010
   13.27638817  148.82600403    4.90999985    2.39000010
   13.27944374  144.82000732    4.90999985    2.39000010
   13.28277779  144.69200134    4.90999985    2.39000010
   13.28888893  144.69200134    4.90999985    2.39000010
   13.29305553  142.86300659    4.90999985    2.39000010
   13.29638958  142.89100647    4.90999985    2.39000010
   13.29944515  150.74299622    4.90999985    2.39000010
   13.30277824  145.99800110    4.90999985    2.40000010
   13.30611134  145.96800232    4.90999985    2.40000010
   13.30916691  142.03300476    4.90999985    2.40000010
   13.31250000  143.41999817    4.90999985    2.39000010
   13.31555557  150.97999573    4.90999985    2.40000010
   13.31888866  148.71099854    4.90999985    2.40000010
   13.32138920  151.32099915    4.90999985    2.40000010
   13.32250023  153.69200134    4.90999985    2.40000010
   13.32583332  153.76699829    4.90999985    2.40000010
   13.33166695  153.76699829    4.90999985    2.40000010
   13.33583260  148.28300476    4.90999985    2.40000010
   13.33916664  154.38600159    4.90999985    2.40000010
   13.34249973  158.69200134    4.90999985    2.40000010
   13.34555531  139.58000183    4.90999985    2.40000010
   13.34888840  148.00000000    4.90999985    2.40000010
   13.35194492  147.86099243    4.90999985    2.40000010
   13.35472298  143.04600525    4.90999985    2.40000010
   13.35555553  145.67500305    4.90999985    2.40000010
   13.35888958  149.33000183    4.90999985    2.40000010
   13.36194515  147.61300659    4.90999985    2.40000010
   13.36527824  138.62100220    4.90999985    2.40000010
   13.36861134  145.02400208    4.90999985    2.40000010
   13.37472248  145.02400208    4.90999985    2.42000008
   13.37888908  151.93499756    4.90999985    2.42000008
   13.38194466  149.61099243    4.90999985    2.42000008
   13.38527775  143.97399902    4.90999985    2.42000008
   13.38805580  152.28599548    4.90999985    2.42000008
   13.38888836  146.64999390    4.90999985    2.42000008
   13.39222240  148.86799622    4.90999985    2.42000008
   13.39527798  158.58900452    4.90999985    2.42000008
   13.39861107  150.88200378    4.90999985    2.42000008
   13.40194416  156.06799316    4.90999985    2.42000008
   13.40499973  148.90400696    4.90999985    2.42000008
   13.40833282  147.77499390    4.90999985    2.42000008
   13.41138840  154.83200073    4.90999985    2.42000008
   13.41750050  154.83200073    4.90999985    2.42000008
   13.42166710  157.75500488    4.90999985    2.42000008
   13.42500019  162.15499878    4.90999985    2.42000008
   13.42805576  155.44999695    4.90999985    2.42000008
   13.43138885  156.03799438    4.90999985    2.42000008
   13.43444443  149.21600342    4.90999985    2.42000008
   13.43777752  154.87500000    4.90999985    2.44000006
   13.44111156  146.67599487    4.90999985    2.42000008
   13.44416714  153.98199463    4.90999985    2.44000006
   13.44750023  145.35099792    4.90999985    2.44000006
   13.45055580  144.76300049    4.90999985    2.42000008
   13.45388889  155.85299683    4.90999985    2.42000008
   13.45472240  142.92799377    4.90999985    2.42000008
   13.47555542  142.92799377    4.90999985    2.44000006
   13.47972202  159.50799561    4.90999985    2.44000006
   13.48277760  147.20599365    4.90999985    2.44000006
   13.48611164  147.17399597    4.90999985    2.44000006
   13.48805618  150.84399414    4.90999985    2.44000006
   13.48972225  152.51899719    4.90999985    2.44000006
   13.49305534  152.79200745    4.90999985    2.44000006
   13.49611092  145.33999634    4.90999985    2.44000006
   13.49944496  153.57499695    4.90999985    2.44000006
   13.50277805  153.89999390    4.90999985    2.44000006
   13.50583363  150.38400269    4.90999985    2.44000006
   13.50916672  157.95700073    4.90999985    2.46000004
   13.51249981  151.43600464    4.90999985    2.44000006
   13.51833344  151.43600464    4.90999985    2.46000004
   13.52250004  161.15400696    4.90999985    2.46000004
   13.52555561  152.96600342    4.90999985    2.44000006
   13.52888870  146.11799622    4.90999985    2.44000006
   13.53194427  144.52900696    4.90999985    2.46000004
   13.53527832  141.68699646    4.90999985    2.46000004
   13.53861141  143.77799988    4.90999985    2.44000006
   13.54166698  146.26600647    4.90999985    2.46000004
   13.54500008  144.28700256    4.90999985    2.46000004
   13.54833412  141.40100098    4.90999985    2.46000004
   13.55138874  144.43699646    4.90999985    2.46000004
   13.55472279  145.71299744    4.90999985    2.46000004
   13.55527782  145.64100647    4.90999985    2.46000004
   13.56111145  145.64100647    4.90999985    2.46000004
   13.56527805  143.76499939    4.90999985    2.46000004
   13.56833363  136.27499390    4.90999985    2.46000004
   13.57166672  144.15600586    4.90999985    2.46000004
   13.57499981  145.11399841    4.90999985    2.46000004
   13.57805538  153.20399475    4.90999985    2.46000004
   13.58138847  140.68800354    4.90999985    2.46000004
   13.58472157  141.97900391    4.90999985    2.46000004
   13.58777714  144.27400208    4.90999985    2.46000004
   13.58861065  144.19400024    4.90999985    2.46000004
   13.59138870  148.51300049    4.90999985    2.46000004
   13.59472179  141.92999268    4.90999985    2.46000004
   13.59805489  143.07800293    4.90999985    2.46000004
   13.60388947  143.07800293    4.90999985    2.46000004
   13.60805607  145.19299316    4.90999985    2.46000004
   13.61138916  146.08099365    4.90999985    2.46000004
   13.61444473  139.74200439    4.90999985    2.48000002
   13.61777782  138.29800415    4.90999985    2.48000002
   13.62111092  145.80599976    4.90999985    2.46000004
   13.62194443  143.69099426    4.90999985    2.48000002
   13.62444496  137.38400269    4.90999985    2.46000004
   13.62777805  142.97099304    4.90999985    2.46000004
   13.63111115  138.37100220    4.90999985    2.46000004
   13.63416672  132.75100708    4.90999985    2.48000002
   13.63749981  135.46499634    4.90999985    2.48000002
   13.64055538  133.75100708    4.90999985    2.48000002
   13.64694405  133.75100708    4.90999985    2.48000002
   13.65083313  129.36399841    4.90999985    2.48000002
   13.65416622  135.81100464    4.90999985    2.48000002
   13.65527725  134.13699341    4.90999985    2.48000002
   13.65777779  137.11500549    4.90999985    2.48000002
   13.66111088  139.77299500    4.90999985    2.48000002
   13.66444397  140.61300659    4.90999985    2.48000002
   13.66750050  131.58999634    4.90999985    2.48000002
   13.67083359  137.75999451    4.90999985    2.48000002
   13.67388916  136.28599548    4.90999985    2.48000002
   13.67722225  131.41299438    4.90999985    2.48000002
   13.68055630  143.79899597    4.90999985    2.48000002
   13.68361092  138.93099976    4.90999985    2.48000002
   13.68972206  138.93099976    4.90999985    2.48000002
   13.69388866  140.04699707    4.90999985    2.48000002
   13.69694424  134.47700500    4.90999985    2.48000002
   13.70027733  135.50999451    4.90999985    2.48000002
   13.70333290  136.62899780    4.90999985    2.48000002
   13.70666695  141.97999573    4.90999985    2.50000000
   13.71000004  142.35200500    4.90999985    2.50000000
   13.71305561  137.37100220    4.90999985    2.48000002
   13.71638870  140.76800537    4.90999985    2.48000002
   13.71972179  133.79299927    4.90999985    2.48000002
   13.72194386  130.76400757    4.90999985    2.50000000
   13.72305489  143.56700134    4.90999985    2.50000000
   13.72638798  131.44799805    4.90999985    2.50000000
   13.73249912  131.44799805    4.90999985    2.48000002
   13.73666668  143.45700073    4.90999985    2.50000000
   13.73972225  135.36799622    4.90999985    2.50000000
   13.74305534  137.36500549    4.90999985    2.50000000
   13.74638939  135.85000610    4.90999985    2.50000000
   13.74944496  135.97500610    4.90999985    2.50000000
   13.75277805  135.68699646    4.90999985    2.50000000
   13.75527763  141.23300171    4.90999985    2.50000000
   13.75638866  140.95799255    4.90999985    2.50000000
   13.75972176  137.19200134    4.90999985    2.50000000
   13.76305580  137.55200195    4.90999985    2.50000000
   13.76611137  138.73399353    4.90999985    2.50000000
   13.76944447  135.84300232    4.90999985    2.50000000
   13.77527714  135.84300232    4.90999985    2.50000000
   13.77944374  135.81500244    4.90999985    2.50000000
   13.78277779  138.36300659    4.90999985    2.50000000
   13.78583336  137.37600708    4.90999985    2.50000000
   13.78861141  137.29800415    4.90999985    2.50000000
   13.78944492  135.31500244    4.90999985    2.50000000
   13.79277802  138.29499817    4.90999985    2.50000000
   13.79611111  136.67399597    4.90999985    2.50000000
   13.79916668  139.91099548    4.90999985    2.50000000
   13.80249977  136.08799744    4.90999985    2.50000000
   13.80555534  133.43800354    4.90999985    2.50000000
   13.80888939  141.69700623    4.90999985    2.50000000
   13.81222248  143.74400330    4.90999985    2.51999998
   13.81805515  143.74400330    4.90999985    2.51999998
   13.82222176  129.52600098    4.90999985    2.51999998
   13.82555580  132.89900208    4.90999985    2.51999998
   13.82888889  130.32099915    4.90999985    2.50000000
   13.83194447  134.75399780    4.90999985    2.51999998
   13.83527756  129.32299805    4.90999985    2.51999998
   13.83833313  128.08599854    4.90999985    2.51999998
   13.84166622  132.94000244    4.90999985    2.51999998
   13.84499931  134.16200256    4.90999985    2.51999998
   13.84805489  133.39100647    4.90999985    2.51999998
   13.85138893  136.12500000    4.90999985    2.51999998
   13.85472298  137.10000610    4.90999985    2.51999998
   13.85527802  129.61599731    4.90999985    2.51999998
   13.86111164  129.61599731    4.90999985    2.51999998
   13.86527824  130.58599854    4.90999985    2.51999998
   13.86833382  132.80499268    4.90999985    2.51999998
   13.87166691  134.72200012    4.90999985    2.51999998
   13.87472248  136.18899536    4.90999985    2.51999998
   13.87805557  124.81900024    4.90999985    2.51999998
   13.88138866  125.22499847    4.90999985    2.51999998
   13.88444424  129.38000488    4.90999985    2.51999998
   13.88777733  129.16700745    4.90999985    2.51999998
   13.88861084  127.38300323    4.90999985    2.51999998
   13.89111137  130.06300354    4.90999985    2.51999998
   13.89444447  127.20500183    4.90999985    2.51999998
   13.89777756  122.17400360    4.90999985    2.51999998
   13.90388870  122.17400360    4.90999985    2.51999998
   13.90805531  125.66000366    4.90999985    2.51999998
   13.91111088  122.97599792    4.90999985    2.51999998
   13.91444397  125.55500031    4.90999985    2.50000000
   13.91777802  122.93699646    4.90999985    2.48000002
   13.92083359  127.48600006    4.90999985    2.48000002
   13.92194462  128.25000000    4.90999985    2.48000002
   13.92444515  121.83599854    4.90999985    2.50000000
   13.92777824  122.97899628    4.90999985    2.51999998
   13.93111134  128.81300354    4.90999985    2.51999998
   13.93416691  129.23800659    4.90999985    2.50000000
   13.93750000  128.17999268    4.90999985    2.51999998
   13.94083309  127.12100220    4.90999985    2.53999996
   13.94666672  127.12100220    4.90999985    2.51999998
   13.95083332  126.37899780    4.90999985    2.53999996
   13.95416641  129.46800232    4.90999985    2.53999996
   13.95527744  139.75900269    4.90999985    2.53999996
   13.95749950  133.09800720    4.90999985    2.51999998
   13.96083355  122.21099854    4.90999985    2.51999998
   13.96416664  120.77200317    4.90999985    2.51999998
   13.96722221  121.38099670    4.90999985    2.51999998
   13.97055531  128.77499390    4.90999985    2.51999998
   13.97388840  120.59899902    4.90999985    2.51999998
   13.97694397  122.16699982    4.90999985    2.51999998
   13.98027706  122.78900146    4.90999985    2.50000000
   13.98333359  125.30500031    4.90999985    2.50000000
   13.98944473  125.30500031    4.90999985    2.48000002
   13.99361134  123.18000031    4.90999985    2.50000000
   13.99694443  123.25399780    4.90999985    2.46000004
   14.00027752  126.58300018    4.90999985    2.44000006
   14.00333309  129.67300415    4.90999985    2.48000002
   14.00666714  118.16100311    4.90999985    2.51999998
   14.00972176  123.20999908    4.90999985    2.51999998
   14.01305580  129.78500366    4.90999985    2.48000002
   14.01638889  117.69599915    4.90999985    2.42000008
   14.01944447  129.36099243    4.90999985    2.44000006
   14.02194405  137.88999939    4.90999985    2.34999990
   14.02305508  142.21000671    4.90999985    2.36999989
   14.02638817  135.34300232    4.90999985    2.46000004
   14.03249931  135.34300232    4.90999985    2.40000010
   14.03666687  141.93499756    4.90999985    2.34999990
   14.03972244  129.17500305    4.90999985    2.36999989
   14.04305553  137.27699280    4.90999985    2.42000008
   14.04611111  129.34599304    4.90999985    2.44000006
   14.04944515  137.31300354    4.90999985    2.48000002
   14.05277824  135.48500061    4.90999985    2.48000002
   14.05527782  134.00199890    4.90999985    2.48000002
   14.05638885  123.92700195    4.90999985    2.50000000
   14.05944443  135.19799805    4.90999985    2.53999996
   14.06277752  123.60700226    4.90999985    2.53999996
   14.06583309  142.33999634    4.90999985    2.51999998
   14.06916618  136.04699707    4.90999985    2.48000002
   14.07527733  136.04699707    4.90999985    2.46000004
   14.07944393  142.42100525    4.90999985    2.42000008
   14.08249950  131.23899841    4.90999985    2.48000002
   14.08583260  122.36000061    4.90999985    2.53999996
   14.08861065  126.08399963    4.90999985    2.53999996
   14.08972168  148.76199341    4.90999985    2.50000000
   14.09277725  126.77899933    4.90999985    2.34999990
   14.09611034  117.14900208    4.90999985    2.44000006
   14.09916592  140.87399292    4.90999985    2.44000006
   14.10249996  131.63900757    4.90999985    2.44000006
   14.10583401  137.10699463    4.90999985    2.42000008
   14.10888958  135.66200256    4.90999985    2.40000010
   14.11222267  134.67500305    4.90999985    2.46000004
   14.11805534  134.67500305    4.90999985    2.39000010
   14.12222195  135.76899719    4.90999985    2.39000010
   14.12555599  133.52699280    4.90999985    2.34999990
   14.12861156  127.45200348    4.90999985    2.40000010
   14.13194466  124.17800140    4.90999985    2.40000010
   14.13527775  127.84100342    4.90999985    2.40000010
   14.13833332  144.87300110    4.90999985    2.28999996
   14.14166641  125.15499878    4.90999985    2.39000010
   14.14499950  132.37300110    4.90999985    2.40000010
   14.14805508  135.07800293    4.90999985    2.36999989
   14.15138817  127.09600067    4.90999985    2.39000010
   14.15472221  136.43099976    4.90999985    2.36999989
   14.15527725  134.75999451    4.90999985    2.36999989
   14.16083336  134.75999451    4.90999985    2.40000010
   14.16499996  142.86799622    4.90999985    2.32999992
   14.16833401  131.22700500    4.90999985    2.40000010
   14.17166710  138.29499817    4.90999985    2.34999990
   14.17472267  139.02400208    4.90999985    2.39000010
   14.17805576  132.97700500    4.90999985    2.39000010
   14.18111134  148.76800537    4.90999985    2.36999989
   14.18444443  140.40199280    4.90999985    2.36999989
   14.18777752  160.80799866    4.90999985    2.26999998
   14.18861103  158.69999695    4.90999985    2.25000000
   14.19138908  140.02499390    4.90999985    2.26999998
   14.19444466  138.19200134    4.90999985    2.32999992
   14.19777775  152.79200745    4.90999985    2.34999990
   14.20388889  152.79200745    4.90999985    2.42000008
   14.20805550  120.58200073    4.90999985    2.42000008
   14.21111107  140.43299866    4.90999985    2.34999990
   14.21444416  125.77600098    4.90999985    2.30999994
   14.21749973  135.21200562    4.90999985    2.30999994
   14.22083282  134.47099304    4.90999985    2.28999996
   14.22194386  156.60499573    4.90999985    2.26999998
   14.22444439  141.67399597    4.90999985    2.26999998
   14.22749996  137.08099365    4.90999985    2.40000010
   14.23083305  137.90400696    4.90999985    2.48000002
   14.23388958  199.39599609    4.90999985    2.36999989
   14.23722267  172.89799500    4.90999985    2.15000010
   14.24055576  141.10000610    4.90999985    2.26999998
   14.24666691  141.10000610    4.90999985    2.51999998
   14.25083351  151.42799377    4.90999985    2.48000002
   14.25388908  149.53599548    4.90999985    2.40000010
   14.25527763  171.63400269    4.90999985    2.40000010
   14.25777817  159.05900574    4.90999985    2.48000002
   14.26083374  171.33000183    4.90999985    2.46000004
   14.26416683  154.17100525    4.90999985    2.51999998
   14.26722240  154.81399536    4.90999985    2.55999994
   14.27055550  140.73500061    4.90999985    2.53999996
   14.27388859  122.07299805    4.90999985    2.53999996
   14.27694416  152.07200623    4.90999985    2.55999994
   14.28027725  133.23599243    4.90999985    2.57999992
   14.28361130  133.21200562    4.90999985    2.57999992
   14.28944492  133.21200562    4.90999985    2.57999992
   14.29361153  148.47000122    4.90999985    2.57999992
   14.29694462  127.66600037    4.90999985    2.59999990
   14.30000019  131.00799561    4.90999985    2.59999990
   14.30333328  130.38299561    4.90999985    2.59999990
   14.30666733  150.32400513    4.90999985    2.59999990
   14.31000042  140.72599792    4.90999985    2.59999990
   14.31305599  143.34700012    4.90999985    2.53999996
   14.31638908  157.17399597    4.90999985    2.46000004
   14.31944466  151.36500549    4.90999985    2.44000006
   14.32194424  171.48699951    4.90999985    2.48000002
   14.32333374  156.67199707    4.90999985    2.48000002
   14.32638836  163.02299500    4.90999985    2.44000006
   14.33222198  163.02299500    4.90999985    2.42000008
   14.33638859  143.73899841    4.90999985    2.44000006
   14.33972168  141.36000061    4.90999985    2.46000004
   14.34305477  163.08099365    4.90999985    2.42000008
   14.34611034  166.98500061    4.90999985    2.36999989
   14.34944439  168.01400757    4.90999985    2.40000010
   14.35249996  146.84399414    4.90999985    2.42000008
   14.35527802  166.99099731    4.90999985    2.40000010
   14.35638905  167.72900391    4.90999985    2.39000010
   14.35944462  157.75700378    4.90999985    2.32999992
   14.36277771  168.33799744    4.90999985    2.30999994
   14.36611176  190.07600403    4.90999985    2.26999998
   14.36916637  178.60299683    4.90999985    2.28999996
   14.37527752  178.60299683    4.90999985    2.28999996
   14.37944412  206.42700195    4.90999985    2.23000002
   14.38249969  195.72099304    4.90999985    2.19000006
   14.38583279  157.04499817    4.90999985    2.28999996
   14.38861084  164.78300476    4.90999985    2.40000010
   14.38944435  173.10699463    4.90999985    2.42000008
   14.39249992  166.90600586    4.90999985    2.40000010
   14.39583302  165.10499573    4.90999985    2.42000008
   14.39888859  170.35499573    4.90999985    2.42000008
   14.40222168  170.57000732    4.90999985    2.39000010
   14.40555477  174.74600220    4.90999985    2.36999989
   14.40861034  160.89300537    4.90999985    2.39000010
   14.41194439  161.12600708    4.90999985    2.39000010
   14.41805553  161.12600708    4.90999985    2.44000006
   14.42222214  149.14500427    4.90999985    2.53999996
   14.42527771  156.32099915    4.90999985    2.55999994
   14.42861176  158.75799561    4.90999985    2.57999992
   14.43194485  159.62199402    4.90999985    2.55999994
   14.43500042  172.15199280    4.90999985    2.55999994
   14.43833351  192.83900452    4.90999985    2.57999992
   14.44166660  199.35899353    4.90999985    2.57999992
   14.44472218  194.01199341    4.90999985    2.57999992
   14.44805527  177.45100403    4.90999985    2.59999990
   14.45166683  195.06100464    4.90999985    2.57999992
   14.45472240  205.46400452    4.90999985    2.53999996
   14.45527744  173.22999573    4.90999985    2.51999998
   14.46083355  173.22999573    4.90999985    2.46000004
   14.46500015  197.22500610    4.90999985    2.46000004
   14.46833324  184.41099548    4.90999985    2.51999998
   14.47194386  202.11099243    4.90999985    2.53999996
   14.48916721  290.42599487    4.90999985    2.30999994
   14.49166679  271.08599854    4.90999985    2.19000006
   14.49499989  299.79400635    4.90999985    2.19000006
   14.49833393  225.77299500    4.90999985    2.26999998
   14.50388908  225.77299500    4.90999985    2.39000010
   14.50805569  181.91400146    4.90999985    2.46000004
   14.51138878  167.44500732    4.90999985    2.51999998
   14.51444435  164.43800354    4.90999985    2.55999994
   14.51777744  160.90800476    4.90999985    2.61999989
   14.52083302  153.83799744    4.90999985    2.59999990
   14.52222157  151.10200500    4.90999985    2.59999990
   14.52444458  158.95500183    4.90999985    2.61999989
   14.52777767  168.79100037    4.90999985    2.61999989
   14.53083324  152.35899353    4.90999985    2.61999989
   14.53416729  154.92199707    4.90999985    2.61999989
   14.53722286  150.03999329    4.90999985    2.59999990
   14.54055595  160.46800232    4.90999985    2.61999989
   14.54666710  160.46800232    4.90999985    2.59999990
   14.55083370  167.33900452    4.90999985    2.59999990
   14.55416679  157.42799377    4.90999985    2.59999990
   14.55555534  176.73100281    4.90999985    2.61999989
   14.55777836  158.09300232    4.90999985    2.59999990
   14.56111145  150.17399597    4.90999985    2.59999990
   14.56416702  162.03100586    4.90999985    2.61999989
   14.56750011  162.48599243    4.90999985    2.61999989
   14.57055569  163.21600342    4.90999985    2.61999989
   14.57388878  164.27600098    4.90999985    2.61999989
   14.57722187  150.39900208    4.90999985    2.61999989
   14.58027744  170.43200684    4.90999985    2.61999989
   14.58361053  151.27999878    4.90999985    2.61999989
   14.58944416  151.27999878    4.90999985    2.61999989
   14.59361076  150.43299866    4.90999985    2.61999989
   14.59694386  153.91799927    4.90999985    2.59999990
   14.60027790  148.23199463    4.90999985    2.61999989
   14.60333347  153.31500244    4.90999985    2.61999989
   14.60666752  146.55200195    4.90999985    2.61999989
   14.60972214  150.30000305    4.90999985    2.61999989
   14.61305618  149.90199280    4.90999985    2.61999989
   14.61638927  157.35699463    4.90999985    2.61999989
   14.61944485  138.08999634    4.90999985    2.61999989
   14.62222195  148.86500549    4.90999985    2.61999989
   14.62305546  135.06900024    4.90999985    2.61999989
   14.62638855  137.41900635    4.90999985    2.61999989
   14.63249969  137.41900635    4.90999985    2.61999989
   14.63666630  139.77600098    4.90999985    2.61999989
   14.63972187  145.86099243    4.90999985    2.61999989
   14.64305496  144.58999634    4.90999985    2.64000010
   14.64611053  141.05900574    4.90999985    2.64000010
   14.64944458  148.32800293    4.90999985    2.61999989
   14.65277767  120.71900177    4.90999985    2.64000010
   14.65555477  131.52600098    4.90999985    2.64000010
   14.65638828  135.88200378    4.90999985    2.64000010
   14.65972137  158.20599365    4.90999985    2.59999990
   14.66277695  142.20899963    4.90999985    2.59999990
   14.66611099  148.40199280    4.90999985    2.55999994
   14.66916656  151.07200623    4.90999985    2.51999998
   14.67527771  151.07200623    4.90999985    2.51999998
   14.67944431  146.83200073    4.90999985    2.46000004
   14.68249989  170.60800171    4.90999985    2.44000006
   14.68583298  153.82000732    4.90999985    2.34999990
   14.68888855  162.38099670    4.90999985    2.39000010
   14.68944454  170.66400146    4.90999985    2.39000010
   14.69277763  160.88900757    4.90999985    2.42000008
   14.69583321  160.33500671    4.90999985    2.36999989
   14.69916630  166.61199951    4.90999985    2.36999989
   14.70249939  175.81700134    4.90999985    2.36999989
   14.70555496  200.38000488    4.90999985    2.32999992
   14.70888901  164.32200623    4.90999985    2.30999994
   14.71194458  184.98300171    4.90999985    2.34999990
   14.71805477  184.98300171    4.90999985    2.40000010
   14.72222137  161.50799561    4.90999985    2.42000008
   14.72277737  156.74600220    4.90999985    2.44000006
   14.72611046  156.20799255    4.90999985    2.40000010
   14.72916603  159.95300293    4.90999985    2.40000010
   14.73249912  150.57800293    4.90999985    2.42000008
   14.73555565  145.05599976    4.90999985    2.46000004
   14.73888874  149.62899780    4.90999985    2.48000002
   14.74222279  134.32699585    4.90999985    2.51999998
   14.74555588  151.84700012    4.90999985    2.50000000
   14.74861145  142.61300659    4.90999985    2.51999998
   14.75194454  151.19599915    4.90999985    2.51999998
   14.75500011  143.61199951    4.90999985    2.51999998
   14.75611115  139.44099426    4.90999985    2.51999998
   14.76083374  139.44099426    4.90999985    2.48000002
   14.76500034  139.38099670    4.90999985    2.48000002
   14.76833344  153.95300293    4.90999985    2.51999998
   14.77166653  149.88600159    4.90999985    2.42000008
   14.77472210  154.05599976    4.90999985    2.42000008
   14.77805519  149.02400208    4.90999985    2.46000004
   14.78111076  149.76300049    4.90999985    2.48000002
   14.78444481  165.48300171    4.90999985    2.44000006
   14.78777790  157.69400024    4.90999985    2.42000008
   14.78944492  151.84700012    4.90999985    2.42000008
   14.79138947  177.93299866    4.90999985    2.40000010
   14.79444504  161.83299255    4.90999985    2.36999989
   14.79777813  182.30599976    4.90999985    2.34999990
   14.80388927  182.30599976    4.90999985    2.25000000
   14.80805588  221.15100098    4.90999985    2.15000010
   14.81111145  227.60499573    4.90999985    2.15000010
   14.81444454  203.99299622    4.90999985    2.23000002
   14.81750011  214.08299255    4.90999985    2.26999998
   14.82083321  132.85499573    4.90999985    2.32999992
   14.82277775  205.02499390    4.90999985    2.28999996
   14.82444477  183.71200562    4.90999985    2.21000004
   14.82750034  252.60000610    4.90999985    2.11999989
   14.83083344  173.50199890    4.90999985    2.25000000
   14.83388901  174.03799438    4.90999985    2.30999994
   14.83722210  265.22399902    4.90999985    2.19000006
   14.84055519  276.29299927    4.90999985    2.15000010
   14.84666634  276.29299927    4.90999985    2.03999996
   14.85083389  369.10598755    4.90999985    1.98000002
   14.85277843  451.67199707    4.90999985    1.98000002
   14.85416698  376.77600098    4.90999985    2.00000000
   14.85555553  302.55099487    4.90999985    2.01999998
   14.85694504  266.37500000    4.90999985    2.03999996
   14.85833359  287.91699219    4.90999985    2.09999990
   14.85972214  244.75000000    4.90999985    2.11999989
   14.86111164  271.26400757    4.90999985    2.11999989
   14.86250019  251.08500671    4.90999985    2.09999990
   14.86388969  212.78199768    4.90999985    2.11999989
   14.86388969  265.22399902    4.90999985    2.19000006
   14.86388969  276.29299927    4.90999985    2.15000010
   14.86388969  369.10598755    4.90999985    1.98000002
   14.86388969  214.08299255    4.90999985    2.26999998
   14.86416721  132.85499573    4.90999985    2.32999992
   14.86416721  183.71200562    4.90999985    2.21000004
   14.86416721  252.60000610    4.90999985    2.11999989
   14.86416721  173.50199890    4.90999985    2.25000000
   14.86416721  174.03799438    4.90999985    2.30999994
   14.86500072  227.99699402    4.90999985    2.11999989
   14.86805534  211.61999512    4.90999985    2.09999990
   14.87138939  158.59800720    4.90999985    2.21000004
   14.87444496  172.17999268    4.90999985    2.28999996
   14.87777805  132.26800537    4.90999985    2.28999996
   14.88444424  132.26800537    4.90999985    2.30999994
   14.88861084  154.22399902    4.90999985    2.30999994
   14.89194393  126.79100037    4.90999985    2.42000008
   14.89527798  148.95799255    4.90999985    2.36999989
   14.89750004  128.97399902    4.90999985    2.40000010
   14.89861107  120.10700226    4.90999985    2.46000004
   14.90194416  126.32199860    4.90999985    2.51999998
   14.90499973  121.87699890    4.90999985    2.61999989
   14.90833282  121.94300079    4.90999985    2.66000009
   14.91166592  120.62100220    4.90999985    2.66000009
   14.91472149  124.07199860    4.90999985    2.66000009
   14.91805553  130.68400574    4.90999985    2.64000010
   14.92111111  116.96600342    4.90999985    2.57999992
   14.92750072  116.96600342    4.90999985    2.55999994
   14.93166733  156.53399658    4.90999985    2.34999990
   14.93472195  131.05900574    4.90999985    2.36999989
   14.93805599  164.39700317    4.90999985    2.39000010
   14.94138908  147.70899963    4.90999985    2.34999990
   14.94444466  202.33999634    4.90999985    2.21000004
   14.94777775  344.85000610    4.90999985    1.96000004
   14.94972229  391.59100342    4.90999985    1.98000002
   14.95111084  361.94000244    4.90999985    2.00000000
   14.95249939  312.28201294    4.90999985    1.96000004
   14.95388889  293.20498657    4.90999985    1.91999996
   14.95527744  234.67199707    4.90999985    1.94000006
   14.95666695  143.20100403    4.90999985    1.91999996
   14.95666695  164.39700317    4.90999985    2.39000010
   14.95666695  147.70899963    4.90999985    2.34999990
   14.95666695  202.33999634    4.90999985    2.21000004
   14.95694447  344.85000610    4.90999985    1.96000004
   14.95694447  124.07199860    4.90999985    2.66000009
   14.95694447  130.68400574    4.90999985    2.64000010
   14.95694447  116.96600342    4.90999985    2.57999992
   14.95722198  156.53399658    4.90999985    2.34999990
   14.95722198  131.05900574    4.90999985    2.36999989
   14.95777798  112.69799805    4.90999985    1.94000006
   14.96083355  135.83799744    4.90999985    1.80999994
   14.96416664  285.32699585    4.90999985    1.89999998
   14.96749973  220.08200073    4.90999985    1.96000004
   14.97055531  161.39199829    4.90999985    1.88000000
   14.97749996  161.39199829    4.90999985    1.96000004
   14.98138809  236.14599609    4.90999985    2.07999992
   14.98472214  159.47000122    4.90999985    2.17000008
   14.98805618  148.88999939    4.90999985    2.34999990
   14.99055576  136.84800720    4.90999985    2.42000008
   14.99138927  152.05099487    4.90999985    2.44000006
   14.99472237  137.85499573    4.90999985    2.46000004
   14.99777794  150.16600037    4.90999985    2.48000002
   15.00111103  138.25799561    4.90999985    2.48000002
   15.00444412  137.88099670    4.90999985    2.46000004
   15.00749969  141.11799622    4.90999985    2.44000006
   15.01083374  136.54899597    4.90999985    2.44000006
   15.01416683  145.15299988    4.90999985    2.46000004
   15.02027798  145.15299988    4.90999985    2.42000008
   15.02444458  131.59700012    4.90999985    2.46000004
   15.02750015  134.27200317    4.90999985    2.42000008
   15.03083324  128.35000610    4.90999985    2.44000006
   15.03416729  144.27299500    4.90999985    2.46000004
   15.03722286  141.48899841    4.90999985    2.50000000
   15.04055595  127.44999695    4.90999985    2.53999996
   15.04361153  131.58999634    4.90999985    2.53999996
   15.04694462  135.80099487    4.90999985    2.51999998
   15.05027771  118.33999634    4.90999985    2.55999994
   15.05333328  131.08599854    4.90999985    2.57999992
   15.05666733  122.48200226    4.90999985    2.64000010
   15.05722237  114.52899933    4.90999985    2.64000010
   15.06305599  114.52899933    4.90999985    2.66000009
   15.06722260  120.25900269    4.90999985    2.66000009
   15.07055569  119.61599731    4.90999985    2.66000009
   15.07361126  121.44200134    4.90999985    2.59999990
   15.07694435  126.46600342    4.90999985    2.61999989
   15.07999992  119.63800049    4.90999985    2.64000010
   15.08333302  121.21399689    4.90999985    2.61999989
   15.08666611  122.76599884    4.90999985    2.59999990
   15.08972168  122.98000336    4.90999985    2.59999990
   15.09055519  123.38300323    4.90999985    2.59999990
   15.09333324  118.99500275    4.90999985    2.59999990
   15.09666634  133.85000610    4.90999985    2.55999994
   15.10000038  127.56199646    4.90999985    2.55999994
   15.10583401  127.56199646    4.90999985    2.46000004
   15.11000061  141.62899780    4.90999985    2.34999990
   15.11333370  154.22599792    4.90999985    2.28999996
   15.11638927  174.62500000    4.90999985    2.17000008
   15.11972237  159.04499817    4.90999985    2.17000008
   15.12305546  185.78799438    4.90999985    2.17000008
   15.12388897  159.86900330    4.90999985    2.17000008
   15.12638855  247.03199768    4.90999985    2.21000004
   15.12972260  207.96899414    4.90999985    2.05999994
   15.13305569  180.93400574    4.90999985    2.13000011
   15.13611126  194.93400574    4.90999985    2.11999989
   15.13944435  212.27299500    4.90999985    2.15000010
   15.14277744  237.40899658    4.90999985    2.15000010
   15.14888859  237.40899658    4.90999985    2.05999994
   15.15277767  303.22698975    4.90999985    2.01999998
   15.15499973  224.19400024    4.90999985    2.05999994
   15.15499973  180.93400574    4.90999985    2.13000011
   15.15499973  194.93400574    4.90999985    2.11999989
   15.15499973  212.27299500    4.90999985    2.15000010
   15.15499973  237.40899658    4.90999985    2.15000010
   15.15527725  303.22698975    4.90999985    2.01999998
   15.15527725  159.04499817    4.90999985    2.17000008
   15.15527725  185.78799438    4.90999985    2.17000008
   15.15527725  247.03199768    4.90999985    2.21000004
   15.15527725  207.96899414    4.90999985    2.05999994
   15.15722179  158.03799438    4.90999985    2.19000006
   15.16027737  160.17500305    4.90999985    2.17000008
   15.16361046  132.87500000    4.90999985    2.26999998
   15.16666698  115.77700043    4.90999985    2.57999992
   15.17000008  128.78700256    4.90999985    2.66000009
   15.17555618  128.78700256    4.90999985    2.59999990
   15.17972279  125.57199860    4.90999985    2.64000010
   15.18305588  125.63200378    4.90999985    2.61999989
   15.18638897  117.84999847    4.90999985    2.61999989
   15.18861103  119.40399933    4.90999985    2.59999990
   15.18972206  124.11100006    4.90999985    2.59999990
   15.19305515  120.75599670    4.90999985    2.59999990
   15.19611073  127.58999634    4.90999985    2.59999990
   15.19944477  121.37100220    4.90999985    2.59999990
   15.20277786  122.33100128    4.90999985    2.57999992
   15.20583344  120.23899841    4.90999985    2.57999992
   15.20916653  132.34300232    4.90999985    2.55999994
   15.21222210  126.61599731    4.90999985    2.53999996
   15.21861076  126.61599731    4.90999985    2.57999992
   15.22277737  119.69799805    4.90999985    2.57999992
   15.22611046  115.84600067    4.90999985    2.55999994
   15.22916603  124.01499939    4.90999985    2.53999996
   15.23249912  129.87699890    4.90999985    2.50000000
   15.23555565  134.32099915    4.90999985    2.48000002
   15.23888874  125.09700012    4.90999985    2.48000002
   15.24222279  130.51100159    4.90999985    2.40000010
   15.24527836  167.65400696    4.90999985    2.25000000
   15.24861145  149.75700378    4.90999985    2.28999996
   15.25194454  144.71000671    4.90999985    2.23000002
   15.25500011  150.22099304    4.90999985    2.30999994
   15.25555515  122.11499786    4.90999985    2.30999994
   15.26138878  122.11499786    4.90999985    2.34999990
   15.26555538  116.22200012    4.90999985    2.59999990
   15.26861095  118.12500000    4.90999985    2.61999989
   15.27194405  115.11799622    4.90999985    2.64000010
   15.27527714  109.88999939    4.90999985    2.64000010
   15.27833271  117.43499756    4.90999985    2.59999990
   15.28166676  119.03099823    4.90999985    2.61999989
   15.28500080  114.44400024    4.90999985    2.59999990
   15.28805637  117.06700134    4.90999985    2.61999989
   15.28888893  128.17599487    4.90999985    2.59999990
   15.29166698  122.84899902    4.90999985    2.61999989
   15.29472256  115.17199707    4.90999985    2.64000010
   15.29805565  117.30000305    4.90999985    2.66000009
   15.30416679  117.30000305    4.90999985    2.66000009
   15.30833340  116.77100372    4.90999985    2.66000009
   15.31166649  116.91999817    4.90999985    2.66000009
   15.31472206  115.50099945    4.90999985    2.61999989
   15.31805515  113.70600128    4.90999985    2.64000010
   15.32138920  117.81400299    4.90999985    2.64000010
   15.32222176  117.30000305    4.90999985    2.64000010
   15.32499981  126.97100067    4.90999985    2.61999989
   15.32805538  114.45300293    4.90999985    2.66000009
   15.33138847  128.70300293    4.90999985    2.61999989
   15.33472157  115.36199951    4.90999985    2.64000010
   15.33777714  120.85500336    4.90999985    2.55999994
   15.34111118  119.33999634    4.90999985    2.50000000
   15.34694386  119.33999634    4.90999985    2.44000006
   15.35111141  130.33700562    4.90999985    2.50000000
   15.35444450  131.81900024    4.90999985    2.42000008
   15.35555553  151.90499878    4.90999985    2.40000010
   15.35805607  155.00500488    4.90999985    2.30999994
   15.36111164  155.47200012    4.90999985    2.19000006
   15.36444473  135.11000061    4.90999985    2.25000000
   15.36777782  123.19699860    4.90999985    2.34999990
   15.37083340  129.05200195    4.90999985    2.32999992
   15.37416649  145.43899536    4.90999985    2.34999990
   15.37722206  139.45899963    4.90999985    2.40000010
   15.38055611  131.68299866    4.90999985    2.46000004
   15.38388920  128.09700012    4.90999985    2.42000008
   15.39000034  128.09700012    4.90999985    2.57999992
   15.39416695  125.43000031    4.90999985    2.66000009
   15.39722252  118.58100128    4.90999985    2.66000009
   15.40055561  116.19200134    4.90999985    2.66000009
   15.40361118  118.14600372    4.90999985    2.66000009
   15.40694427  117.91999817    4.90999985    2.66000009
   15.41027737  111.35399628    4.90999985    2.66000009
   15.41333294  110.54399872    4.90999985    2.66000009
   15.41666698  110.01100159    4.90999985    2.66000009
   15.42000008  117.58499908    4.90999985    2.66000009
   15.42222214  109.81800079    4.90999985    2.66000009
   15.42361164  109.17900085    4.90999985    2.66000009
   15.42666721  114.53199768    4.90999985    2.66000009
   15.43277836  114.53199768    4.90999985    2.67000008
   15.43694496  122.16100311    4.90999985    2.66000009
   15.53305531   -1.00000000   -1.00000000   -1.00000000
   15.81388950   -1.00000000   -1.00000000   -1.00000000
   15.97499943   -1.00000000   -1.00000000   -1.00000000
   16.03861046   94.10410309    4.90999985    2.19000006
   16.04194450  176.84700012    4.90999985    2.30999994
   16.04500008  269.78399658    4.90999985    2.19000006
   16.04833221  197.14700317    4.90999985    2.11999989
   16.05166626  227.85400391    4.90999985    2.23000002
   16.05472183  343.79299927    4.90999985    2.05999994
   16.05666542  217.83000183    4.90999985    2.01999998
   16.05694389  176.84700012    4.90999985    2.30999994
   16.05694389  269.78399658    4.90999985    2.19000006
   16.05694389  197.14700317    4.90999985    2.11999989
   16.05694389  227.85400391    4.90999985    2.23000002
   16.05694389  343.79299927    4.90999985    2.05999994
   16.05888748  156.35499573    4.90999985    1.91999996
   16.06222153  147.79400635    4.90999985    1.85000002
   16.06555557  321.33999634    4.90999985    1.88000000
   16.06750107  210.83799744    4.90999985    2.05999994
   16.06750107  156.35499573    4.90999985    1.91999996
   16.06750107  147.79400635    4.90999985    1.85000002
   16.06777954  321.33999634    4.90999985    1.88000000
   16.06972313  162.08700562    4.90999985    2.19000006
   16.07277870  223.48800659    4.90999985    2.21000004
   16.07611275  251.72900391    4.90999985    2.07999992
   16.07944489  247.65199280    4.90999985    2.07999992
   16.08250046  269.32101440    4.90999985    2.03999996
   16.08833313  269.32101440    4.90999985    2.01999998
   16.09250069  200.46800232    4.90999985    1.88000000
   16.09555626  192.62699890    4.90999985    1.89999998
   16.09889030  225.46299744    4.90999985    2.00000000
   16.10138893  249.89300537    4.90999985    1.98000002
   16.10222244  350.36099243    4.90999985    2.03999996
   16.10444450  348.86300659    4.90999985    2.05999994
   16.10555649  430.31900024    4.90999985    2.03999996
   16.10694504  105.95200348    4.90999985    2.05999994
   16.10694504  162.08700562    4.90999985    2.19000006
   16.10722351  223.48800659    4.90999985    2.21000004
   16.10722351  251.72900391    4.90999985    2.07999992
   16.10722351  247.65199280    4.90999985    2.07999992
   16.10722351  269.32101440    4.90999985    2.03999996
   16.10722351  200.46800232    4.90999985    1.88000000
   16.10750008  192.62699890    4.90999985    1.89999998
   16.10750008  225.46299744    4.90999985    2.00000000
   16.10750008  350.36099243    4.90999985    2.03999996
   16.10805511  158.52799988    4.90999985    1.94000006
   16.11138916  344.04800415    4.90999985    1.98000002
   16.11333466  151.53300476    4.90999985    1.96000004
   16.11333466  158.52799988    4.90999985    1.94000006
   16.11333466  344.04800415    4.90999985    1.98000002
   16.11527824  300.19299316    4.90999985    1.91999996
   16.11750031  347.34899902    4.90999985    2.09999990
   16.11861038  333.46301270    4.90999985    2.03999996
   16.12000084  199.25500488    4.90999985    2.03999996
   16.12027740  300.19299316    4.90999985    1.91999996
   16.12083435  204.54499817    4.90999985    2.15000010
   16.12388992  232.13499451    4.90999985    2.11999989
   16.12722206  202.98800659    4.90999985    2.25000000
   16.13055611  174.88699341    4.90999985    2.17000008
   16.13361168  204.11099243    4.90999985    2.23000002
   16.13694382  191.47700500    4.90999985    2.21000004
   16.14111137  191.47700500    4.90999985    2.19000006
   16.14500046  168.19900513    4.90999985    2.17000008
   16.14833260  189.93899536    4.90999985    2.13000011
   16.15166664  277.55398560    4.90999985    2.07999992
   16.15388870  384.01199341    4.90999985    2.07999992
   16.15527725  322.12500000    4.90999985    2.07999992
   16.15722275  319.01000977    4.90999985    2.03999996
   16.15861130  326.71600342    4.90999985    2.01999998
   16.15999985  291.29598999    4.90999985    2.05999994
   16.16138840  214.39599609    4.90999985    2.07999992
   16.16138840  322.12500000    4.90999985    2.07999992
   16.16138840  232.13499451    4.90999985    2.11999989
   16.16138840  202.98800659    4.90999985    2.25000000
   16.16138840  174.88699341    4.90999985    2.17000008
   16.16166687  204.11099243    4.90999985    2.23000002
   16.16166687  191.47700500    4.90999985    2.21000004
   16.16166687  168.19900513    4.90999985    2.17000008
   16.16166687  189.93899536    4.90999985    2.13000011
   16.16194344  277.55398560    4.90999985    2.07999992
   16.16250038  187.05799866    4.90999985    1.98000002
   16.16555595  127.94899750    4.90999985    1.96000004
   16.16888809  152.25100708    4.90999985    1.94000006
   16.17222214  125.83899689    4.90999985    1.89999998
   16.17527771   62.66949844    4.90999985    1.88000000
   16.18194389   62.66949844    4.90999985    1.80999994
   16.18610954   -1.00000000    4.90999985    1.69000006
   16.18944359   -1.00000000    4.90999985    1.64999998
   16.19249916   -1.00000000    4.90999985    1.66999996
   16.19610977   -1.00000000    4.90999985    1.63000000
   16.19916534   -1.00000000    4.90999985    1.60000002
   16.20250130   -1.00000000    4.90999985    1.53999996
   16.20583344   -1.00000000    4.90999985    1.51999998
   16.20888901   -1.00000000    4.90999985    1.53999996
   16.21222305   -1.00000000    4.90999985    1.53999996
   16.21555710   -1.00000000    4.90999985    1.51999998
   16.21861076   -1.00000000    4.90999985    1.46000004
   16.22500038   -1.00000000    4.90999985    1.50000000
   16.22888947   -1.00000000    4.90999985    1.51999998
   16.23222351   -1.00000000    4.90999985    1.41999996
   16.23555565   -1.00000000    4.90999985    1.51999998
   16.23861122   -1.00000000    4.90999985    1.51999998
   16.24194527   -1.00000000    4.90999985    1.50000000
   16.24527740   -1.00000000    4.90999985    1.55999994
   16.24833298   -1.00000000    4.90999985    1.55999994
   16.25166702   -1.00000000    4.90999985    1.61000001
   16.25472260   -1.00000000    4.90999985    1.66999996
   16.25805473   -1.00000000    4.90999985    1.58000004
   16.26138878   -1.00000000    4.90999985    1.66999996
   16.26777840   -1.00000000    4.90999985    1.61000001
   16.27194405   -1.00000000   -1.00000000   -1.00000000
   16.27499962  108.88800049    4.90999985    1.83000004
   16.27833366  126.28900146    4.90999985    1.86000001
   16.28166580  171.89900208    4.90999985    1.91999996
   16.28472137  122.11799622    4.90999985    1.91999996
   16.28805542  307.17001343    4.90999985    1.85000002
   16.28999901  102.55400085    4.90999985    1.96000004
   16.28999901   -1.00000000   -1.00000000   -1.00000000
   16.28999901  108.88800049    4.90999985    1.83000004
   16.29027748  126.28900146    4.90999985    1.86000001
   16.29027748  171.89900208    4.90999985    1.91999996
   16.29027748  122.11799622    4.90999985    1.91999996
   16.29027748  307.17001343    4.90999985    1.85000002
   16.29027748   -1.00000000    4.90999985    1.66999996
   16.29055595   -1.00000000    4.90999985    1.58000004
   16.29055595   -1.00000000    4.90999985    1.66999996
   16.29222107  184.78100586    4.90999985    1.85000002
   16.29527664  202.04600525    4.90999985    1.88000000
   16.29861069  291.96099854    4.90999985    1.96000004
   16.30194283  301.85900879    4.90999985    2.01999998
   16.30388832  269.75000000    4.90999985    2.05999994
   16.30499840  204.69599915    4.90999985    2.05999994
   16.30527687  184.78100586    4.90999985    1.85000002
   16.30527687  202.04600525    4.90999985    1.88000000
   16.30527687  291.96099854    4.90999985    1.96000004
   16.30527687  301.85900879    4.90999985    2.01999998
   16.30638885  216.79100037    4.90999985    1.96000004
   16.30972099  265.94900513    4.90999985    2.00000000
   16.31305504  304.32000732    4.90999985    1.98000002
   16.31499863  211.24899292    4.90999985    2.07999992
   16.31499863  216.79100037    4.90999985    1.96000004
   16.31499863  265.94900513    4.90999985    2.00000000
   16.31499863  304.32000732    4.90999985    1.98000002
   16.31694603  180.71699524    4.90999985    2.11999989
   16.32027817  278.93099976    4.90999985    2.11999989
   16.32361221  229.00700378    4.90999985    2.17000008
   16.32666779  222.88099670    4.90999985    2.09999990
   16.33000183  210.87699890    4.90999985    2.13000011
   16.33583450  210.87699890    4.90999985    2.11999989
   16.33972359  247.63900757    4.90999985    2.11999989
   16.34305573  213.33900452    4.90999985    2.03999996
   16.34638977  317.35998535    4.90999985    2.09999990
   16.34833336  241.12100220    4.90999985    2.07999992
   16.34944534  256.78601074    4.90999985    2.03999996
   16.35083389  188.41999817    4.90999985    2.07999992
   16.35111237  180.71699524    4.90999985    2.11999989
   16.35111237  278.93099976    4.90999985    2.11999989
   16.35111237  229.00700378    4.90999985    2.17000008
   16.35111237  222.88099670    4.90999985    2.09999990
   16.35111237  210.87699890    4.90999985    2.13000011
   16.35138893  247.63900757    4.90999985    2.11999989
   16.35138893  213.33900452    4.90999985    2.03999996
   16.35138893  317.35998535    4.90999985    2.09999990
   16.35194397  225.24400330    4.90999985    2.07999992
   16.35527802  253.23599243    4.90999985    2.11999989
   16.35861206  229.61900330    4.90999985    2.07999992
   16.36166763  275.40301514    4.90999985    2.13000011
   16.36499977  332.57000732    4.90999985    2.05999994
   16.36694527  295.64401245    4.90999985    2.05999994
   16.36833382  304.47799683    4.90999985    2.01999998
   16.36972237  234.87100220    4.90999985    2.03999996
   16.37111092  268.50900269    4.90999985    2.15000010
   16.37249947  256.84500122    4.90999985    2.13000011
   16.37388992  267.87799072    4.90999985    2.11999989
   16.37527847  304.88400269    4.90999985    2.09999990
   16.37666702  221.48800659    4.90999985    2.05999994
   16.37666702  225.24400330    4.90999985    2.07999992
   16.37666702  253.23599243    4.90999985    2.11999989
   16.37666702  229.61900330    4.90999985    2.07999992
   16.37666702  275.40301514    4.90999985    2.13000011
   16.37694550  332.57000732    4.90999985    2.05999994
   16.37750053  269.43200684    4.90999985    2.03999996
   16.38055611  158.76899719    4.90999985    2.00000000
   16.38388824  101.05799866    4.90999985    1.96000004
   16.38694382   -1.00000000    4.90999985    1.86000001
   16.39027786   -1.00000000    4.90999985    1.83000004
   16.39361191   -1.00000000    4.90999985    1.73000002
   16.39749908   -1.00000000    4.90999985    1.75000000
   16.40166664   -1.00000000    4.90999985    1.76999998
   16.40499878   -1.00000000    4.90999985    1.76999998
   16.40805435   -1.00000000    4.90999985    1.76999998
   16.41166687   -1.00000000    4.90999985    1.76999998
   16.41499901  153.00900269    4.90999985    1.85000002
   16.41805458   23.57019997    4.90999985    1.86000001
   16.42138863   -1.00000000    4.90999985    1.88000000
   16.42444420   -1.00000000    4.90999985    1.78999996
   16.42777634   -1.00000000    4.90999985    1.76999998
   16.43111038   -1.00000000    4.90999985    1.76999998
   16.43416595   -1.00000000    4.90999985    1.73000002
   16.44055557   -1.00000000    4.90999985    1.64999998
   16.44444275   -1.00000000    4.90999985    1.55999994
   16.44777679   -1.00000000    4.90999985    1.50000000
   16.45111275   -1.00000000    4.90999985    1.48000002
   16.45416832   -1.00000000    4.90999985    1.41999996
   16.45750046   -1.00000000    4.90999985    1.38000000
   16.46083450   -1.00000000    4.90999985    1.33000004
   16.46389008   -1.00000000    4.90999985    1.33000004
   16.46722221   -1.00000000    4.90999985    1.36000001
   16.47055626   -1.00000000    4.90999985    1.34000003
   16.47361183   -1.00000000    4.90999985    1.38000000
   16.47694588   -1.00000000    4.90999985    1.33000004
   16.48750114   -1.00000000    4.90999985    1.39999998
   16.49055672   -1.00000000    4.90999985    1.44000006
   16.49388885   -1.00000000    4.90999985    1.50000000
   16.49694443   -1.00000000    4.90999985    1.48000002
   16.50027847   -1.00000000    4.90999985    1.46000004
   16.50361061   -1.00000000    4.90999985    1.58000004
   16.50666618   -1.00000000    4.90999985    1.53999996
   16.51000023   -1.00000000    4.90999985    1.55999994
   16.51361084   -1.00000000    4.90999985    1.63000000
   16.51694489   -1.00000000    4.90999985    1.76999998
   16.52000046   -1.00000000    4.90999985    1.66999996
   16.52611160   -1.00000000    4.90999985    1.69000006
   16.53027725   -1.00000000    4.90999985    1.69000006
   16.53333282   -1.00000000    4.90999985    1.66999996
   16.53666687   -1.00000000    4.90999985    1.60000002
   16.53999901   -1.00000000    4.90999985    1.55999994
   16.54305458   -1.00000000    4.90999985    1.51999998
   16.54666710   -1.00000000    4.90999985    1.39999998
   16.54999924   -1.00000000    4.90999985    1.38000000
   16.55305481   -1.00000000    4.90999985    1.34000003
   16.55638885   -1.00000000    4.90999985    1.34000003
   16.55972099   -1.00000000    4.90999985    1.30999994
   16.56277657   -1.00000000    4.90999985    1.25000000
   16.57305717   -1.00000000    4.90999985    1.30999994
   16.57638931   -1.00000000    4.90999985    1.23000002
   16.57972336   -1.00000000    4.90999985    1.23000002
   16.58305550   -1.00000000    4.90999985    1.23000002
   16.58611107   -1.00000000    4.90999985    1.21000004
   16.58944511   -1.00000000    4.90999985    1.14999998
   16.59277916   -1.00000000    4.90999985    1.26999998
   16.59583473   -1.00000000    4.90999985    1.36000001
   16.59916687   -1.00000000    4.90999985    1.26999998
   16.60222244   -1.00000000    4.90999985    1.30999994
   16.60555649   -1.00000000    4.90999985    1.25000000
   16.61583328   -1.00000000    4.90999985    1.09000003
   16.61916733   -1.00000000    4.90999985    1.16999996
   16.62222290   -1.00000000    4.90999985    1.44000006
   16.62555504   -1.00000000    4.90999985    1.33000004
   16.62888908   -1.00000000    4.90999985    1.13000000
   16.63194466   -1.00000000    4.90999985    1.21000004
   16.63527679   -1.00000000    4.90999985    1.07000005
   16.63861084   -1.00000000    4.90999985    0.95999998
   16.64166641   -1.00000000    4.90999985    1.00000000
   16.64527702   -1.00000000    4.90999985    1.01999998
   16.64861107   -1.00000000    4.90999985    1.03999996
   16.65861130   -1.00000000    4.90999985    1.28999996
   16.66194344   -1.00000000    4.90999985    1.61000001
   16.66527748   25.69689941    4.90999985    1.86000001
   16.66833305   -1.00000000    4.90999985    1.75000000
   16.67166519   77.91899872    4.90999985    1.76999998
   16.67499924  193.47500610    4.90999985    2.09999990
   16.67749977  194.16700745    4.90999985    2.30999994
   16.67833328  299.81298828    4.90999985    2.28999996
   16.68166542  145.79299927    4.90999985    1.89999998
   16.68499947  246.77999878    4.90999985    1.94000006
   16.68805504   35.44409943    4.90999985    2.01999998
   16.69138718   -1.00000000    4.90999985    1.78999996
   16.69749832   -1.00000000    4.90999985    1.63000000
   16.70166779   -1.00000000    4.90999985    1.51999998
   16.70499992  106.51000214    4.90999985    1.66999996
   16.70805550   43.24769974    4.90999985    1.86000001
   16.71166801   -1.00000000    4.90999985    1.64999998
   16.71500015   -1.00000000    4.90999985    1.46000004
   16.71805573   -1.00000000    4.90999985    1.33000004
   16.72138977   -1.00000000    4.90999985    1.71000004
   16.72472191  122.97699738    4.90999985    1.85000002
   16.72777748  267.12799072    4.90999985    1.78999996
   16.73111153  220.31100464    4.90999985    2.21000004
   16.73416710  189.40100098    4.90999985    2.00000000
   16.74027824  189.40100098    4.90999985    1.85000002
   16.74444389   -1.00000000    4.90999985    1.60000002
   16.74777794  298.45199585    4.90999985    1.76999998
   16.75083351  146.00700378    4.90999985    2.46000004
   16.75416756  137.60200500    4.90999985    2.51999998
   16.75749969  146.07400513    4.90999985    2.46000004
   16.76055527  144.46499634    4.90999985    2.28999996
   16.76388931  217.00799561    4.90999985    2.23000002
   16.76722145  177.60400391    4.90999985    2.11999989
   16.77027702  211.47599792    4.90999985    2.09999990
   16.77361107   97.41419983    4.90999985    1.94000006
   16.77666664  180.95199585    4.90999985    1.80999994
   16.77750015  202.50700378    4.90999985    1.86000001
   16.78333282  202.50700378    4.90999985    1.66999996
   16.78722191  282.38800049    4.90999985    1.89999998
   16.79055595  170.81300354    4.90999985    1.98000002
   16.79388809  126.37599945    4.90999985    1.96000004
   16.79694366   -1.00000000    4.90999985    1.76999998
   16.80027771   -1.00000000    4.90999985    1.64999998
   16.80333328   -1.00000000    4.90999985    1.61000001
   16.80666542   -1.00000000   -1.00000000   -1.00000000
   16.80999947  270.34600830    4.90999985    1.96000004
   16.81083298  245.70500183    4.90999985    1.96000004
   16.81333351  134.93299866    4.90999985    1.98000002
   16.81666756  226.82699585    4.90999985    1.86000001
   16.82000160  269.32998657    4.90999985    1.94000006
   16.82611275  269.32998657    4.90999985    1.75000000
   16.83027840  144.66499329    4.90999985    1.78999996
   16.83333397  332.08499146    4.90999985    1.89999998
   16.83555603  232.20100403    4.90999985    1.96000004
   16.83666801  221.54499817    4.90999985    1.94000006
   16.83666801  332.08499146    4.90999985    1.89999998
   16.83694458   -1.00000000    4.90999985    1.64999998
   16.83694458   -1.00000000    4.90999985    1.61000001
   16.83694458   -1.00000000   -1.00000000   -1.00000000
   16.83694458  270.34600830    4.90999985    1.96000004
   16.83722305  134.93299866    4.90999985    1.98000002
   16.83722305  226.82699585    4.90999985    1.86000001
   16.83722305  269.32998657    4.90999985    1.94000006
   16.83722305  144.66499329    4.90999985    1.78999996
   16.83805656  229.93200684    4.90999985    1.94000006
   16.84138870  247.77900696    4.90999985    2.05999994
   16.84472275  309.47900391    4.90999985    2.03999996
   16.84666824  236.67100525    4.90999985    2.01999998
   16.84777832  245.65699768    4.90999985    2.03999996
   16.84916687  228.24000549    4.90999985    2.05999994
   16.85055542  202.36500549    4.90999985    2.09999990
   16.85083389  229.93200684    4.90999985    1.94000006
   16.85083389  247.77900696    4.90999985    2.05999994
   16.85083389  309.47900391    4.90999985    2.03999996
   16.85138893  252.62399292    4.90999985    2.09999990
   16.85472298  246.30299377    4.90999985    2.07999992
   16.85777855  154.20399475    4.90999985    1.94000006
   16.86111069   23.57019997    4.90999985    1.86000001
   16.86444473  196.59599304    4.90999985    1.80999994
   16.86750031  162.36000061    4.90999985    2.00000000
   16.87166595  162.36000061    4.90999985    1.86000001
   16.87583351   -1.00000000    4.90999985    1.64999998
   16.87888908   -1.00000000    4.90999985    1.46000004
   16.88222313   -1.00000000    4.90999985    1.39999998
   16.88583374   -1.00000000    4.90999985    1.34000003
   16.88888931   -1.00000000    4.90999985    1.33000004
   16.89222145   -1.00000000    4.90999985    1.25000000
   16.89555550   -1.00000000    4.90999985    1.23000002
   16.89861107   -1.00000000    4.90999985    1.01999998
   16.90194321   -1.00000000    4.90999985    0.95999998
   16.90499878   -1.00000000    4.90999985    0.98000002
   16.90833282   -1.00000000    4.90999985    0.94000000
   16.91860962   -1.00000000    4.90999985    1.51999998
   16.92194366   -1.00000000    4.90999985    1.58000004
   16.92499924   -1.00000000    4.90999985    1.58000004
   16.92833328  182.87899780    4.90999985    1.78999996
   16.93138885  257.70498657    4.90999985    1.96000004
   16.93472099   -1.00000000    4.90999985    2.01999998
   16.93805504   -1.00000000    4.90999985    1.78999996
   16.94111061   -1.00000000    4.90999985    1.75000000
   16.94444275  142.49299622    4.90999985    1.83000004
   16.94777679   -1.00000000    4.90999985    1.83000004
   16.95083427   -1.00000000    4.90999985    1.69000006
   16.95722389   -1.00000000    4.90999985    1.60000002
   16.96138954   -1.00000000    4.90999985    1.61000001
   16.96472359   -1.00000000    4.90999985    1.55999994
   16.96805573   -1.00000000    4.90999985    1.46000004
   16.97111130   -1.00000000    4.90999985    1.44000006
   16.97444534   -1.00000000    4.90999985    1.48000002
   16.97750092   -1.00000000    4.90999985    1.46000004
   16.98083305   -1.00000000    4.90999985    1.44000006
   16.98416710   -1.00000000    4.90999985    1.44000006
   16.98750114   -1.00000000    4.90999985    1.38000000
   16.99083328   -1.00000000    4.90999985    1.44000006
   16.99416733   -1.00000000    4.90999985    1.50000000
   17.00416756   -1.00000000    4.90999985    1.25000000
   17.00749969   -1.00000000    4.90999985    0.95999998
   17.01083374   -1.00000000    4.90999985    1.01999998
   17.01388931   -1.00000000    4.90999985    1.11000001
   17.01722145   -1.00000000    4.90999985    1.00000000
   17.02055550   -1.00000000    4.90999985    1.33000004
   17.02388954   -1.00000000    4.90999985    1.44000006
   17.02722168   -1.00000000    4.90999985    1.50000000
   17.03027725   -1.00000000    4.90999985    1.60000002
   17.03361130   -1.00000000    4.90999985    1.88000000
   17.03694344   -1.00000000    4.90999985    1.46000004
   17.06305504   -1.00000000    4.90999985    1.16999996
   17.06638718   -1.00000000    4.90999985    1.03999996
   17.06944466   -1.00000000    4.90999985    0.88000000
   17.07277870   -1.00000000    4.90999985    0.88000000
   17.07611275   -1.00000000    4.90999985    0.92000002
   17.07916832   -1.00000000    4.90999985    0.98000002
   17.08250046   -1.00000000    4.90999985    1.19000006
   17.08555603   -1.00000000    4.90999985    1.23000002
   17.08889008   -1.00000000    4.90999985    1.19000006
   17.09250069   -1.00000000    4.90999985    1.23000002
   17.09555626   -1.00000000    4.90999985    1.26999998
   17.10583305   -1.00000000    4.90999985    1.30999994
   17.10916710   -1.00000000    4.90999985    1.38000000
   17.11222267   -1.00000000    4.90999985    1.46000004
   17.11555672   -1.00000000    4.90999985    1.36000001
   17.11861038   -1.00000000    4.90999985    1.36000001
   17.12194443   -1.00000000    4.90999985    1.53999996
   17.12555504   -1.00000000    4.90999985    1.63000000
   17.12861061   -1.00000000    4.90999985    1.58000004
   17.13194466   -1.00000000    4.90999985    1.51999998
   17.13527679   -1.00000000    4.90999985    1.38000000
   17.13833237   -1.00000000    4.90999985    1.30999994
   17.14472198   -1.00000000    4.90999985    1.51999998
   17.14861107  124.45099640    4.90999985    1.73000002
   17.15194321   -1.00000000    4.90999985    1.76999998
   17.15527725   -1.00000000    4.90999985    1.83000004
   17.15666580  114.71800232    4.90999985    1.69000006
   17.15888786  169.36199951    4.90999985    1.89999998
   17.16194344  185.05599976    4.90999985    2.11999989
   17.16527748  252.38900757    4.90999985    1.89999998
   17.16860962  184.84800720    4.90999985    2.03999996
   17.17166519  291.60900879    4.90999985    2.28999996
   17.17499924   -1.00000000    4.90999985    1.94000006
   17.17805481   -1.00000000    4.90999985    1.75000000
   17.18138885   -1.00000000    4.90999985    1.44000006
   17.19138718   -1.00000000    4.90999985    1.28999996
   17.19472122   -1.00000000    4.90999985    1.34000003
   17.19805527   -1.00000000    4.90999985    1.44000006
   17.20111275   -1.00000000    4.90999985    1.19000006
   17.20444489   -1.00000000    4.90999985    1.34000003
   17.20777893   -1.00000000    4.90999985    1.25000000
   17.21083450   -1.00000000    4.90999985    1.21000004
   17.21416664   -1.00000000    4.90999985    1.13000000
   17.21722221   -1.00000000    4.90999985    1.11000001
   17.22055626   -1.00000000    4.90999985    0.88000000
   17.22389030   -1.00000000    4.90999985    0.86000001
   17.23444557   -1.00000000    4.90999985    0.81999999
   17.23750114   -1.00000000    4.90999985    0.88000000
   17.24083328   -1.00000000    4.90999985    0.98000002
   17.24416733   -1.00000000    4.90999985    1.03999996
   17.24722290   -1.00000000    4.90999985    1.09000003
   17.25055504   -1.00000000    4.90999985    0.92000002
   17.25361061   -1.00000000    4.90999985    0.83999997
   17.25749969   -1.00000000    4.90999985    0.92000002
   17.26055527   -1.00000000    4.90999985    1.00000000
   17.26388931   -1.00000000    4.90999985    1.26999998
   17.26694489   -1.00000000    4.90999985    1.39999998
   17.27722168   -1.00000000    4.90999985    1.09000003
   17.28055573   -1.00000000    4.90999985    1.23000002
   17.28361130   -1.00000000    4.90999985    1.44000006
   17.28694344   -1.00000000    4.90999985    1.26999998
   17.29055595   -1.00000000    4.90999985    1.33000004
   17.29361153   -1.00000000    4.90999985    1.38000000
   17.29694366  129.42900085    4.90999985    1.69000006
   17.29999924   -1.00000000    4.90999985    1.88000000
   17.30333328  204.18800354    4.90999985    1.86000001
   17.30666542  158.67300415    4.90999985    2.25000000
   17.30972099   51.83670044    4.90999985    2.28999996
   17.32000160   -1.00000000    4.90999985    1.11000001
   17.32389069   -1.00000000    4.90999985    0.88000000
   17.32694626   -1.00000000    4.90999985    1.05999994
   17.33027840   -1.00000000    4.90999985    1.33000004
   17.33333397   -1.00000000    4.90999985    1.48000002
   17.33666801   -1.00000000    4.90999985    1.30999994
   17.34000015   -1.00000000    4.90999985    0.95999998
   17.34305573   -1.00000000    4.90999985    1.16999996
   17.34638977   -1.00000000    4.90999985    1.30999994
   17.34972191   -1.00000000    4.90999985    1.23000002
   17.35277748   -1.00000000    4.90999985    1.26999998
   17.36305618   -1.00000000    4.90999985    1.48000002
   17.36611176   -1.00000000    4.90999985    1.69000006
   17.36944389   -1.00000000    4.90999985    1.71000004
   17.37249947   -1.00000000    4.90999985    1.61000001
   17.37583351  177.23899841    4.90999985    1.75000000
   17.37916756  316.61099243    4.90999985    1.94000006
   17.38111115  195.76300049    4.90999985    2.03999996
   17.38111115   -1.00000000    4.90999985    1.26999998
   17.38111115   -1.00000000    4.90999985    1.48000002
   17.38111115   -1.00000000    4.90999985    1.69000006
   17.38138962   -1.00000000    4.90999985    1.71000004
   17.38138962   -1.00000000    4.90999985    1.61000001
   17.38138962  177.23899841    4.90999985    1.75000000
   17.38138962  316.61099243    4.90999985    1.94000006
   17.38166618   -1.00000000    4.90999985    1.30999994
   17.38166618   -1.00000000    4.90999985    1.23000002
   17.38333321  205.46000671    4.90999985    2.19000006
   17.38638878  167.57699585    4.90999985    2.21000004
   17.38972282  177.71200562    4.90999985    2.15000010
   17.39305496  147.42399597    4.90999985    2.28999996
   17.39611053  181.73699951    4.90999985    2.30999994
   17.40194321  181.73699951    4.90999985    2.09999990
   17.40611076  292.58700562    4.90999985    1.96000004
   17.40916634   90.24169922    4.90999985    1.98000002
   17.41250038   -1.00000000    4.90999985    1.73000002
   17.41583252   -1.00000000    4.90999985    1.55999994
   17.41916656   -1.00000000    4.90999985    1.39999998
   17.42222214   -1.00000000    4.90999985    1.26999998
   17.42555428   -1.00000000    4.90999985    1.36000001
   17.42888832   -1.00000000    4.90999985    1.50000000
   17.43194389   -1.00000000    4.90999985    1.58000004
   17.43527603   -1.00000000    4.90999985    1.63000000
   17.43861008   -1.00000000    4.90999985    1.58000004
   17.44888878   -1.00000000    4.90999985    1.50000000
   17.45194435   -1.00000000    4.90999985    1.39999998
   17.45527840   -1.00000000    4.90999985    1.39999998
   17.45861244   -1.00000000    4.90999985    1.46000004
   17.46166801   -1.00000000    4.90999985    1.46000004
   17.46500015   -1.00000000    4.90999985    1.58000004
   17.46805573   -1.00000000    4.90999985    1.61000001
   17.47138977   -1.00000000    4.90999985    1.60000002
   17.47472191   -1.00000000    4.90999985    1.60000002
   17.47777748   -1.00000000    4.90999985    1.66999996
   17.48111153   -1.00000000    4.90999985    1.63000000
   17.48750114   -1.00000000    4.90999985    1.76999998
   17.49166679   -1.00000000    4.90999985    1.69000006
   17.49500084   -1.00000000    4.90999985    1.64999998
   17.49805641   -1.00000000    4.90999985    1.61000001
   17.50138855   -1.00000000    4.90999985    1.58000004
   17.50472260   -1.00000000    4.90999985    1.71000004
   17.50777817   -1.00000000    4.90999985    1.48000002
   17.51111031   -1.00000000    4.90999985    1.69000006
   17.51416588   -1.00000000    4.90999985    1.66999996
   17.51777840   -1.00000000    4.90999985    1.60000002
   17.52111053   -1.00000000    4.90999985    1.61000001
   17.52416611   -1.00000000    4.90999985    1.50000000
   17.53027725   -1.00000000    4.90999985    1.63000000
   17.53444481   -1.00000000    4.90999985    1.55999994
   17.53777695   -1.00000000    4.90999985    1.55999994
   17.54111099   -1.00000000    4.90999985    1.69000006
   17.54444313   32.85770035    4.90999985    1.73000002
   17.54749870  288.65200806    4.90999985    1.88000000
   17.54833221  307.31100464    4.90999985    1.88000000
   17.55111122  186.75999451    4.90999985    2.05999994
   17.55444336  199.94799805    4.90999985    2.23000002
   17.55777740  167.35699463    4.90999985    2.07999992
   17.56083298  164.13600159    4.90999985    2.17000008
   17.56416512  154.31799316    4.90999985    2.23000002
   17.56750107  143.69299316    4.90999985    2.26999998
   17.57333374  143.69299316    4.90999985    2.42000008
   17.57750130  135.66200256    4.90999985    2.30999994
   17.58055687  120.75800323    4.90999985    2.44000006
   17.58166695  127.89199829    4.90999985    2.46000004
   17.58416748  126.46199799    4.90999985    2.51999998
   17.58750153  126.00499725    4.90999985    2.57999992
   17.59083366  123.54399872    4.90999985    2.57999992
   17.59388924  114.80400085    4.90999985    2.57999992
   17.59722328  121.08899689    4.90999985    2.57999992
   17.60055542  114.71700287    4.90999985    2.53999996
   17.60361099  113.54199982    4.90999985    2.51999998
   17.60694504  129.30299377    4.90999985    2.51999998
   17.61000061  120.63899994    4.90999985    2.51999998
   17.61611176  120.63899994    4.90999985    2.50000000
   17.62027740  132.66900635    4.90999985    2.42000008
   17.62333298  124.84300232    4.90999985    2.40000010
   17.62666702  134.78199768    4.90999985    2.40000010
   17.63000107  127.29799652    4.90999985    2.44000006
   17.63305473  119.85299683    4.90999985    2.44000006
   17.63638878  124.73600006    4.90999985    2.40000010
   17.63972282  120.17299652    4.90999985    2.42000008
   17.64277840  129.97999573    4.90999985    2.44000006
   17.64611053  164.27999878    4.90999985    2.36999989
   17.64833260  253.98500061    4.90999985    2.19000006
   17.64972115  209.31599426    4.90999985    2.03999996
   17.65277672  301.57101440    4.90999985    2.03999996
   17.65472221  168.73399353    4.90999985    2.03999996
   17.65499878  127.29799652    4.90999985    2.44000006
   17.65499878  119.85299683    4.90999985    2.44000006
   17.65499878  124.73600006    4.90999985    2.40000010
   17.65499878  120.17299652    4.90999985    2.42000008
   17.65527725  129.97999573    4.90999985    2.44000006
   17.65527725  164.27999878    4.90999985    2.36999989
   17.65527725  209.31599426    4.90999985    2.03999996
   17.65527725  301.57101440    4.90999985    2.03999996
   17.65527725  134.78199768    4.90999985    2.40000010
   17.65972137  134.78199768    4.90999985    2.21000004
   17.66361046  238.31700134    4.90999985    2.11999989
   17.66694450  246.57800293    4.90999985    1.91999996
   17.67027664  147.88299561    4.90999985    2.07999992
   17.67333221  147.32299805    4.90999985    2.21000004
   17.67666626  218.35299683    4.90999985    2.15000010
   17.68000031  150.52000427    4.90999985    2.19000006
   17.68305397  164.91999817    4.90999985    2.32999992
   17.68638802  244.29499817    4.90999985    2.17000008
   17.68861008  284.28500366    4.90999985    2.05999994
   17.68999863  237.37399292    4.90999985    2.03999996
   17.69305420  200.99000549    4.90999985    1.96000004
   17.69638824  263.52600098    4.90999985    1.91999996
   17.70222282  263.52600098    4.90999985    1.86000001
   17.70639038   -1.00000000    4.90999985    1.76999998
   17.70972252   23.57019997    4.90999985    1.75000000
   17.71305656   88.83049774    4.90999985    1.78999996
   17.71611214  188.16000366    4.90999985    1.88000000
   17.71944427  137.89999390    4.90999985    1.96000004
   17.72305679   -1.00000000    4.90999985    1.88000000
   17.72611237   -1.00000000    4.90999985    1.69000006
   17.72944450   -1.00000000    4.90999985    1.58000004
   17.73277855   -1.00000000    4.90999985    1.63000000
   17.73583412   -1.00000000    4.90999985    1.64999998
   17.73916626   -1.00000000    4.90999985    1.69000006
   17.74527740   -1.00000000    4.90999985    1.73000002
   17.74944496   -1.00000000    4.90999985    1.66999996
   17.75250053   -1.00000000    4.90999985    1.75000000
   17.75527763  133.33200073    4.90999985    1.78999996
   17.75611115   49.34090042    4.90999985    1.80999994
   17.75916672   32.03279877    4.90999985    1.83000004
   17.76250076  159.19099426    4.90999985    1.88000000
   17.76583290  163.97200012    4.90999985    1.88000000
   17.76888847  131.10699463    4.90999985    1.85000002
   17.77222252  100.13200378    4.90999985    1.83000004
   17.77555466   -1.00000000    4.90999985    1.78999996
   17.77861023  112.14299774    4.90999985    1.78999996
   17.78194427  128.97700500    4.90999985    1.85000002
   17.78805542  128.97700500    4.90999985    2.00000000
   17.79222107  195.25900269    4.90999985    2.07999992
   17.79527664  189.95700073    4.90999985    2.13000011
   17.79861069  199.86399841    4.90999985    2.11999989
   17.80194283  231.75500488    4.90999985    2.11999989
   17.80499840  235.52600098    4.90999985    2.05999994
   17.80833244  263.09698486    4.90999985    2.07999992
   17.81166649  309.85900879    4.90999985    1.98000002
   17.81361008  231.07899475    4.90999985    2.00000000
   17.81472206  145.71400452    4.90999985    1.96000004
   17.81499863  231.75500488    4.90999985    2.11999989
   17.81499863  235.52600098    4.90999985    2.05999994
   17.81499863  263.09698486    4.90999985    2.07999992
   17.81499863  309.85900879    4.90999985    1.98000002
   17.81499863  112.14299774    4.90999985    1.78999996
   17.81527710  128.97700500    4.90999985    1.85000002
   17.81527710  195.25900269    4.90999985    2.07999992
   17.81555557  189.95700073    4.90999985    2.13000011
   17.81555557  199.86399841    4.90999985    2.11999989
   17.81666756  105.03399658    4.90999985    1.89999998
   17.81972313   85.78929901    4.90999985    1.76999998
   17.82305717  121.55799866    4.90999985    1.85000002
   17.82638931  165.41099548    4.90999985    1.88000000
   17.82944489  164.12899780    4.90999985    1.94000006
   17.83555603  164.12899780    4.90999985    1.85000002
   17.83972359   -1.00000000    4.90999985    1.75000000
   17.84305573   -1.00000000    4.90999985    1.75000000
   17.84611130   -1.00000000    4.90999985    1.64999998
   17.84972191   -1.00000000    4.90999985    1.80999994
   17.85277748  108.98999786    4.90999985    1.85000002
   17.85611153   -1.00000000    4.90999985    1.83000004
   17.85916710   76.54100037    4.90999985    1.76999998
   17.86250114   -1.00000000    4.90999985    1.78999996
   17.86583328   -1.00000000    4.90999985    1.73000002
   17.86888885   -1.00000000    4.90999985    1.73000002
   17.87222290   -1.00000000    4.90999985    1.64999998
   17.87833405   -1.00000000    4.90999985    1.66999996
   17.88249969   -1.00000000    4.90999985    1.63000000
   17.88583374   -1.00000000    4.90999985    1.60000002
   17.88916588   -1.00000000    4.90999985    1.60000002
   17.89222145   -1.00000000    4.90999985    1.63000000
   17.89555550   -1.00000000    4.90999985    1.71000004
   17.89861107   -1.00000000    4.90999985    1.66999996
   17.90194321   -1.00000000    4.90999985    1.58000004
   17.90527725   -1.00000000    4.90999985    1.58000004
   17.90833282   -1.00000000    4.90999985    1.53999996
   17.91166687   -1.00000000    4.90999985    1.39999998
   17.91499901   -1.00000000    4.90999985    1.38000000
   17.92527771   -1.00000000    4.90999985    1.30999994
   17.92860985   -1.00000000    4.90999985    1.36000001
   17.93194389   -1.00000000    4.90999985    1.30999994
   17.93499947   -1.00000000    4.90999985    1.34000003
   17.93833160   -1.00000000    4.90999985    1.30999994
   17.94166565   -1.00000000    4.90999985    1.25000000
   17.94472122   -1.00000000    4.90999985    1.14999998
   17.94805527   -1.00000000    4.90999985    1.19000006
   17.95166779   -1.00000000    4.90999985    1.21000004
   17.95472336   -1.00000000    4.90999985    1.25000000
   17.95805550   -1.00000000    4.90999985    1.30999994
   17.96833420   -1.00000000    4.90999985    1.38000000
   17.97138977   -1.00000000    4.90999985    1.39999998
   17.97472191   -1.00000000    4.90999985    1.34000003
   17.97805595   -1.00000000    4.90999985    1.36000001
   17.98111153   -1.00000000    4.90999985    1.26999998
   17.98472214   -1.00000000    4.90999985    1.26999998
   17.98777771   -1.00000000    4.90999985    1.26999998
   17.99111176   -1.00000000    4.90999985    1.30999994
   17.99444389   -1.00000000    4.90999985    1.21000004
   17.99749947   -1.00000000    4.90999985    1.25000000
   18.00083351   -1.00000000    4.90999985    1.25000000
   18.01111031   -1.00000000    4.90999985    1.21000004
   18.01444435   -1.00000000    4.90999985    1.13000000
   18.01777840   -1.00000000    4.90999985    1.16999996
   18.02083397   -1.00000000    4.90999985    1.14999998
   18.02416611   -1.00000000    4.90999985    1.09000003
   18.02750015   -1.00000000    4.90999985    1.01999998
   18.03055573   -1.00000000    4.90999985    0.98000002
   18.03388786   -1.00000000    4.90999985    1.00000000
   18.03722191   -1.00000000    4.90999985    0.98000002
   18.04027748   -1.00000000    4.90999985    0.98000002
   18.04361153   -1.00000000    4.90999985    1.00000000
   18.05388832   -1.00000000    4.90999985    1.11000001
   18.07361221   -1.00000000    4.90999985    1.48000002
   18.07666779   -1.00000000    4.90999985    1.44000006
   18.08000183   -1.00000000    4.90999985    1.41999996
   18.08361244   -1.00000000    4.90999985    1.48000002
   18.08694458   -1.00000000    4.90999985    1.46000004
   18.09277916   -1.00000000    4.90999985    1.48000002
   18.09694481   -1.00000000    4.90999985    1.64999998
   18.10027885   -1.00000000    4.90999985    1.50000000
   18.10361099   -1.00000000    4.90999985    1.58000004
   18.10666656   -1.00000000    4.90999985    1.53999996
   18.11000061   -1.00000000    4.90999985    1.61000001
   18.11305618   -1.00000000    4.90999985    1.61000001
   18.11666679   -1.00000000    4.90999985    1.61000001
   18.12000084   -1.00000000    4.90999985    1.66999996
   18.12305641   -1.00000000    4.90999985    1.66999996
   18.12638855   -1.00000000    4.90999985    1.46000004
   18.12944412   -1.00000000    4.90999985    1.46000004
   18.13583374   -1.00000000    4.90999985    1.63000000
   18.13999939   -1.00000000    4.90999985    1.63000000
   18.14305496   -1.00000000    4.90999985    1.61000001
   18.14638901   -1.00000000    4.90999985    1.58000004
   18.14999962   -1.00000000    4.90999985    1.46000004
   18.15333366   -1.00000000    4.90999985    1.16999996
   18.15638924   -1.00000000    4.90999985    1.14999998
   18.15972137   -1.00000000    4.90999985    1.28999996
   18.16277695   -1.00000000    4.90999985    1.34000003
   18.16611099   -1.00000000    4.90999985    1.03999996
   18.16944313   -1.00000000    4.90999985    1.05999994
   18.17249870   -1.00000000    4.90999985    1.13000000
   18.18277740   -1.00000000    4.90999985    1.19000006
   18.18583298   -1.00000000    4.90999985    1.44000006
   18.18916512   -1.00000000    4.90999985    1.44000006
   18.19249916   -1.00000000    4.90999985    1.34000003
   18.19555473   -1.00000000    4.90999985    1.48000002
   18.19888878   -1.00000000    4.90999985    1.44000006
   18.20194435   -1.00000000    4.90999985    1.30999994
   18.20527840   -1.00000000    4.90999985    1.39999998
   18.20861244   -1.00000000    4.90999985    1.28999996
   18.21166801   -1.00000000    4.90999985    1.46000004
   18.21500015   -1.00000000    4.90999985    1.46000004
   18.22555542   -1.00000000    4.90999985    1.48000002
   18.22888947   -1.00000000    4.90999985    1.30999994
   18.23194504   -1.00000000    4.90999985    1.23000002
   18.23527718   -1.00000000    4.90999985    1.16999996
   18.23833275   -1.00000000    4.90999985    1.25000000
   18.24166679   -1.00000000    4.90999985    1.36000001
   18.24500084   -1.00000000    4.90999985    1.38000000
   18.24805641   -1.00000000    4.90999985    1.39999998
   18.25194359   -1.00000000    4.90999985    1.60000002
   18.25527763   -1.00000000    4.90999985    1.66999996
   18.25861168   -1.00000000    4.90999985    1.66999996
   18.26416588   -1.00000000    4.90999985    1.71000004
   18.26833344   -1.00000000    4.90999985    1.71000004
   18.27166557   64.44920349    4.90999985    1.76999998
   18.27499962   70.30699921    4.90999985    1.80999994
   18.27805519  115.43000031    4.90999985    1.80999994
   18.28138924  118.11399841    4.90999985    1.89999998
   18.28222275   97.01740265    4.90999985    1.89999998
   18.28472137  146.42700195    4.90999985    1.88000000
   18.28805542   90.21779633    4.90999985    1.83000004
   18.29138756   88.95719910    4.90999985    1.85000002
   18.29444313  242.45500183    4.90999985    1.89999998
   18.29777718  278.53799438    4.90999985    2.00000000
   18.30111122  194.48100281    4.90999985    2.09999990
   18.30722237  194.48100281    4.90999985    2.01999998
   18.31138802  147.39799500    4.90999985    1.88000000
   18.31444359  124.50700378    4.90999985    1.89999998
   18.31555557  139.03599548    4.90999985    1.89999998
   18.31805611  158.41799927    4.90999985    1.91999996
   18.32139015  116.43800354    4.90999985    1.94000006
   18.32472229   89.03900146    4.90999985    1.83000004
   18.32777786   99.67209625    4.90999985    1.83000004
   18.33111191   -1.00000000    4.90999985    1.83000004
   18.33444595   -1.00000000    4.90999985    1.63000000
   18.33750153   -1.00000000    4.90999985    1.85000002
   18.34083366  131.80099487    4.90999985    1.80999994
   18.34388924  108.29299927    4.90999985    1.88000000
   18.35000038  108.29299927    4.90999985    1.83000004
   18.35416794  105.68299866    4.90999985    1.80999994
   18.35722351  111.99500275    4.90999985    1.83000004
   18.36055565  258.85299683    4.90999985    1.88000000
   18.36388969  223.78399658    4.90999985    2.03999996
   18.36694527  264.21200562    4.90999985    1.96000004
   18.37027740  175.70799255    4.90999985    2.01999998
   18.37361145  254.64500427    4.90999985    1.96000004
   18.37666702  136.14900208    4.90999985    1.91999996
   18.38000107   77.19329834    4.90999985    1.91999996
   18.38222313  147.70399475    4.90999985    1.85000002
   18.38333321  208.66900635    4.90999985    1.88000000
   18.38666725  295.07598877    4.90999985    1.96000004
   18.39277840  295.07598877    4.90999985    1.91999996
   18.39694405  297.48098755    4.90999985    1.96000004
   18.40027809  229.67300415    4.90999985    2.00000000
   18.40333366  218.28399658    4.90999985    1.96000004
   18.40666580  232.84300232    4.90999985    2.00000000
   18.40999985  237.42999268    4.90999985    2.03999996
   18.41305542  254.36700439    4.90999985    1.94000006
   18.41555595  241.92799377    4.90999985    2.03999996
   18.41666603  258.38699341    4.90999985    2.03999996
   18.42000008  241.95300293    4.90999985    2.03999996
   18.42333221  234.40800476    4.90999985    1.98000002
   18.42638779  240.10099792    4.90999985    1.94000006
   18.42972183  164.29800415    4.90999985    1.96000004
   18.43555450  164.29800415    4.90999985    1.89999998
   18.43972206  137.74200439    4.90999985    1.89999998
   18.44305420  305.75299072    4.90999985    1.89999998
   18.44499969  272.63699341    4.90999985    1.98000002
   18.44638824  215.99800110    4.90999985    2.05999994
   18.44638824  164.29800415    4.90999985    1.96000004
   18.44638824  137.74200439    4.90999985    1.89999998
   18.44638824  305.75299072    4.90999985    1.89999998
   18.44638824  237.42999268    4.90999985    2.03999996
   18.44666672  254.36700439    4.90999985    1.94000006
   18.44666672  258.38699341    4.90999985    2.03999996
   18.44666672  241.95300293    4.90999985    2.03999996
   18.44666672  234.40800476    4.90999985    1.98000002
   18.44694328  240.10099792    4.90999985    1.94000006
   18.44777679  232.06900024    4.90999985    2.01999998
   18.45083427  270.70700073    4.90999985    1.98000002
   18.45416832  114.11599731    4.90999985    1.96000004
   18.45750046  133.29699707    4.90999985    1.83000004
   18.46055603  167.07899475    4.90999985    1.80999994
   18.46722221  167.07899475    4.90999985    1.76999998
   18.47111130   77.23680115    4.90999985    1.80999994
   18.47444534  100.97000122    4.90999985    1.80999994
   18.47777748  108.85800171    4.90999985    1.88000000
   18.48027802  126.95099640    4.90999985    1.86000001
   18.48111153  128.74800110    4.90999985    1.91999996
   18.48444557  286.62100220    4.90999985    1.89999998
   18.48750114  116.29000092    4.90999985    1.89999998
   18.49083328  172.90499878    4.90999985    1.86000001
   18.49416733   -1.00000000    4.90999985    1.83000004
   18.49722290   -1.00000000    4.90999985    1.76999998
   18.50055504   -1.00000000    4.90999985    1.71000004
   18.50388908   -1.00000000    4.90999985    1.75000000
   18.51000023   -1.00000000    4.90999985    1.63000000
   18.51416588   -1.00000000    4.90999985    1.63000000
   18.51722145   -1.00000000    4.90999985    1.66999996
   18.52055550   -1.00000000    4.90999985    1.63000000
   18.52388954   -1.00000000    4.90999985    1.63000000
   18.52694511   -1.00000000    4.90999985    1.69000006
   18.53027725   -1.00000000    4.90999985    1.75000000
   18.53361130   29.32290077    4.90999985    1.75000000
   18.53666687   -1.00000000    4.90999985    1.83000004
   18.53999901   37.75730133    4.90999985    1.76999998
   18.54333305   -1.00000000    4.90999985    1.73000002
   18.54638863   -1.00000000    4.90999985    1.69000006
   18.55277634   -1.00000000    4.90999985    1.64999998
   18.55694389   -1.00000000    4.90999985    1.71000004
   18.56027794   -1.00000000    4.90999985    1.66999996
   18.56333351   -1.00000000    4.90999985    1.64999998
   18.56666756   -1.00000000    4.90999985    1.66999996
   18.56972313   -1.00000000    4.90999985    1.66999996
   18.57305717   -1.00000000    4.90999985    1.66999996
   18.57638931   -1.00000000    4.90999985    1.66999996
   18.57944489   -1.00000000    4.90999985    1.69000006
   18.58305550   -1.00000000    4.90999985    1.61000001
   18.58638954   -1.00000000    4.90999985    1.63000000
   18.58972359   -1.00000000    4.90999985    1.61000001
   18.59555626   -1.00000000    4.90999985    1.66999996
   18.59972191   -1.00000000    4.90999985    1.63000000
   18.60305595   -1.00000000    4.90999985    1.60000002
   18.60611153   -1.00000000    4.90999985    1.53999996
   18.60944557   -1.00000000    4.90999985    1.44000006
   18.61277771   -1.00000000    4.90999985    1.38000000
   18.61611176   -1.00000000    4.90999985    1.36000001
   18.61944389   -1.00000000    4.90999985    1.38000000
   18.62277794   -1.00000000    4.90999985    1.44000006
   18.62583351   -1.00000000    4.90999985    1.46000004
   18.62916756   -1.00000000    4.90999985    1.44000006
   18.63249969   -1.00000000    4.90999985    1.41999996
   18.64249992   -1.00000000    4.90999985    1.36000001
   18.64583397   -1.00000000    4.90999985    1.38000000
   18.64916611   -1.00000000    4.90999985    1.38000000
   18.65250015   -1.00000000    4.90999985    1.36000001
   18.65583229   -1.00000000    4.90999985    1.30999994
   18.65888786   -1.00000000    4.90999985    1.23000002
   18.66222191   -1.00000000    4.90999985    1.23000002
   18.66555595   -1.00000000    4.90999985    1.25000000
   18.66860962   -1.00000000    4.90999985    1.21000004
   18.67194366   -1.00000000    4.90999985    1.16999996
   18.67499924   -1.00000000    4.90999985    1.14999998
   18.68555450   -1.00000000    4.90999985    0.88000000
   18.68861008   -1.00000000    4.90999985    0.88000000
   18.69194412   -1.00000000    4.90999985    0.86000001
   18.69499969   -1.00000000    4.90999985    0.83999997
   18.69833183   -1.00000000    4.90999985    0.94000000
   18.70166779   -1.00000000    4.90999985    0.83999997
   18.70472336   -1.00000000    4.90999985    0.86000001
   18.70805550   -1.00000000    4.90999985    0.92000002
   18.71138954   -1.00000000    4.90999985    0.81999999
   18.71472359   -1.00000000    4.90999985    0.69000000
   18.71805573   -1.00000000    4.90999985    0.61000001
   18.72833443   -1.00000000    4.90999985    0.64999998
   18.73139000   -1.00000000    4.90999985    0.86000001
   18.73472214   -1.00000000    4.90999985    0.88000000
   18.73805618   -1.00000000    4.90999985    0.75000000
   18.74111176   -1.00000000    4.90999985    0.83999997
   18.74444389   -1.00000000    4.90999985    0.95999998
   18.74777794   -1.00000000    4.90999985    0.81999999
   18.75111198   -1.00000000    4.90999985    1.03999996
   18.75444412   -1.00000000    4.90999985    0.98000002
   18.75749969   -1.00000000    4.90999985    0.79000002
   18.76083374   -1.00000000    4.90999985    0.63000000
   18.77111053   -1.00000000    4.90999985    0.63000000
   18.77444458   -1.00000000    4.90999985    0.67000002
   18.77750015   -1.00000000    4.90999985    0.89999998
   18.78111076   -1.00000000    4.90999985    1.00000000
   18.78444481   -1.00000000    4.90999985    1.39999998
   18.78777695   -1.00000000    4.90999985    1.48000002
   18.79083252   -1.00000000    4.90999985    1.36000001
   18.79416656   -1.00000000    4.90999985    1.13000000
   18.79749870   -1.00000000    4.90999985    1.01999998
   18.80055428   -1.00000000    4.90999985    1.07000005
   18.80388832   -1.00000000    4.90999985    1.00000000
   18.81388855   -1.00000000    4.90999985    1.07000005
   18.81722260   -1.00000000    4.90999985    1.05999994
   18.82055664   -1.00000000    4.90999985    0.73000002
   18.82361221   -1.00000000    4.90999985    0.64999998
   18.82694626   -1.00000000    4.90999985    0.70999998
   18.83027840   -1.00000000    4.90999985    0.79000002
   18.83333397   -1.00000000    4.90999985    0.76999998
   18.83666801   -1.00000000    4.90999985    0.63000000
   18.84000015   -1.00000000    4.90999985    0.47999999
   18.84305573   -1.00000000    4.90999985    0.55000001
   18.84638977   -1.00000000    4.90999985    0.67000002
   18.85694504   -1.00000000    4.90999985    0.75000000
   18.86000061   -1.00000000    4.90999985    0.63000000
   18.86333466   -1.00000000    4.90999985    0.61000001
   18.86638832   -1.00000000    4.90999985    0.67000002
   18.86972237   -1.00000000    4.90999985    0.83999997
   18.87305641   -1.00000000    4.90999985    0.86000001
   18.87611198   -1.00000000    4.90999985    0.79000002
   18.87944412   -1.00000000    4.90999985    0.73000002
   18.88305473   -1.00000000    4.90999985    0.67000002
   18.88611031   -1.00000000    4.90999985    0.64999998
   18.88944435   -1.00000000    4.90999985    0.58999997
   18.89972115   -1.00000000    4.90999985    0.75000000
   18.90277672   -1.00000000    4.90999985    0.81999999
   18.90611076   -1.00000000    4.90999985    0.92000002
   18.90944481   -1.00000000    4.90999985    0.94000000
   18.91250038   -1.00000000    4.90999985    0.95999998
   18.91611099   -1.00000000    4.90999985    0.89999998
   18.91916656   -1.00000000    4.90999985    0.92000002
   18.92249870   -1.00000000    4.90999985    1.00000000
   18.92555428   -1.00000000    4.90999985    1.11000001
   18.92888832   -1.00000000    4.90999985    1.14999998
   18.93222237   -1.00000000    4.90999985    1.23000002
   18.94249916   -1.00000000    4.90999985    1.25000000
   18.94583321   -1.00000000    4.90999985    1.23000002
   18.94944382   -1.00000000    4.90999985    1.25000000
   18.95250130   -1.00000000    4.90999985    1.28999996
   18.95583344   -1.00000000    4.90999985    1.19000006
   18.95888901   -1.00000000    4.90999985    1.09000003
   18.96222305   -1.00000000    4.90999985    1.19000006
   18.96555710   -1.00000000    4.90999985    1.33000004
   18.96861076   -1.00000000    4.90999985    1.33000004
   18.97194481   -1.00000000    4.90999985    1.39999998
   18.97527885   -1.00000000   -1.00000000   -1.00000000
   18.98139000   -1.00000000   -1.00000000   -1.00000000
   18.98527718   -1.00000000    4.90999985    1.69000006
   18.98861122   -1.00000000    4.90999985    1.61000001
   18.99194527   -1.00000000    4.90999985    1.50000000
   18.99500084   -1.00000000    4.90999985    1.34000003
   18.99833298   -1.00000000    4.90999985    1.23000002
   19.00166702   -1.00000000    4.90999985    1.14999998
   19.00472260   -1.00000000    4.90999985    1.11000001
   19.00805473   -1.00000000    4.90999985    1.14999998
   19.01111031   -1.00000000    4.90999985    1.28999996
   19.01499939   -1.00000000    4.90999985    1.51999998
   19.01805496   -1.00000000    4.90999985    1.66999996
   19.02416611   -1.00000000    4.90999985    1.51999998
   19.02833366   -1.00000000    4.90999985    1.36000001
   19.03138924   -1.00000000    4.90999985    1.30999994
   19.03472137   -1.00000000    4.90999985    1.25000000
   19.03805542   -1.00000000    4.90999985    1.23000002
   19.04111099   -1.00000000    4.90999985    1.13000000
   19.04444313   -1.00000000    4.90999985    1.00000000
   19.04805565   -1.00000000    4.90999985    0.98000002
   19.05111122   -1.00000000    4.90999985    0.94000000
   19.05444336   -1.00000000    4.90999985    0.95999998
   19.05749893   -1.00000000    4.90999985    0.92000002
   19.06083298   -1.00000000    4.90999985    0.92000002
   19.07111168   -1.00000000    4.90999985    0.95999998
   19.09083366   -1.00000000    4.90999985    1.09000003
   19.09416771   -1.00000000    4.90999985    1.07000005
   19.09722328   -1.00000000    4.90999985    1.05999994
   19.10055542   -1.00000000    4.90999985    1.23000002
   19.10361099   -1.00000000    4.90999985    1.25000000
   19.11416626   -1.00000000    4.90999985    1.33000004
   19.11722183   -1.00000000    4.90999985    1.48000002
   19.12055588   -1.00000000    4.90999985    1.48000002
   19.12416649   -1.00000000    4.90999985    1.51999998
   19.12722206   -1.00000000    4.90999985    1.48000002
   19.13055611   -1.00000000    4.90999985    1.64999998
   19.13388824   -1.00000000    4.90999985    1.60000002
   19.13694382   55.57789993    4.90999985    1.53999996
   19.14027786   -1.00000000    4.90999985    1.69000006
   19.14333344   -1.00000000    4.90999985    1.51999998
   19.14666748   -1.00000000    4.90999985    1.64999998
   19.15694427   -1.00000000    4.90999985    1.38000000
   19.16027832   -1.00000000    4.90999985    1.36000001
   19.16333389  248.37899780    4.90999985    1.55999994
   19.16666603  202.92399597    4.90999985    2.11999989
   19.17000008   97.54219818    4.90999985    1.94000006
   19.17305565  252.99099731    4.90999985    1.88000000
   19.17638779   -1.00000000    4.90999985    1.91999996
   19.17944336   -1.00000000    4.90999985    1.63000000
   19.18277740   -1.00000000    4.90999985    1.48000002
   19.18610954   -1.00000000    4.90999985    1.38000000
   19.18916512   -1.00000000    4.90999985    1.38000000
   19.19583321   -1.00000000    4.90999985    1.26999998
   19.19972038   -1.00000000    4.90999985    1.23000002
   19.20305634   -1.00000000    4.90999985    1.23000002
   19.20639038   -1.00000000    4.90999985    1.48000002
   19.20944595   -1.00000000    4.90999985    1.69000006
   19.21277809   -1.00000000    4.90999985    1.64999998
   19.21611214   -1.00000000    4.90999985    1.46000004
   19.21916771   29.75359917    4.90999985    1.58000004
   19.22249985  176.17199707    4.90999985    1.66999996
   19.22305679  264.80700684    4.90999985    1.73000002
   19.22611237  127.48699951    4.90999985    1.94000006
   19.22916794  153.63800049    4.90999985    2.05999994
   19.23250008   -1.00000000    4.90999985    1.73000002
   19.24277878   -1.00000000    4.90999985    1.16999996
   19.24583435   -1.00000000    4.90999985    1.14999998
   19.24916649   -1.00000000    4.90999985    1.19000006
   19.25250053   -1.00000000    4.90999985    1.30999994
   19.25555611   -1.00000000    4.90999985    1.39999998
   19.25916672   -1.00000000    4.90999985    1.26999998
   19.26222229   -1.00000000    4.90999985    1.19000006
   19.26555634   -1.00000000    4.90999985    1.34000003
   19.26861000   -1.00000000    4.90999985    1.73000002
   19.27194405   -1.00000000    4.90999985    1.53999996
   19.27527809   -1.00000000    4.90999985    1.44000006
   19.28138924   -1.00000000    4.90999985    1.69000006
   19.28555489   -1.00000000    4.90999985    1.73000002
   19.28888893   -1.00000000    4.90999985    1.55999994
   19.29249954   -1.00000000    4.90999985    1.33000004
   19.29555511   -1.00000000    4.90999985    1.21000004
   19.29888916   -1.00000000    4.90999985    1.30999994
   19.30194283   -1.00000000    4.90999985    1.28999996
   19.30527687   -1.00000000   -1.00000000   -1.00000000
   19.30861092   -1.00000000    4.90999985    1.61000001
   19.31166649   -1.00000000    4.90999985    1.61000001
   19.31499863   -1.00000000    4.90999985    1.71000004
   19.31833458  183.42700195    4.90999985    1.58000004
   19.32416725  183.42700195    4.90999985    1.63000000
   19.32833481   -1.00000000    4.90999985    1.69000006
   19.33166695   -1.00000000    4.90999985    1.66999996
   19.33500099   -1.00000000    4.90999985    1.66999996
   19.33805656   -1.00000000    4.90999985    1.61000001
   19.34138870   78.18840027    4.90999985    1.76999998
   19.34472275   -1.00000000    4.90999985    1.64999998
   19.34777832   -1.00000000    4.90999985    1.48000002
   19.35111237   -1.00000000    4.90999985    1.50000000
   19.35444450   -1.00000000    4.90999985    1.58000004
   19.35805511   23.57019997    4.90999985    1.50000000
   19.36111069   -1.00000000    4.90999985    1.48000002
   19.36722183   -1.00000000    4.90999985    1.76999998
   19.37138939  206.61399841    4.90999985    1.86000001
   19.37444496  126.04000092    4.90999985    1.89999998
   19.37777710  282.38900757    4.90999985    1.88000000
   19.38083267  149.75100708    4.90999985    2.17000008
   19.38416672  168.64199829    4.90999985    2.26999998
   19.38750076  148.39500427    4.90999985    2.23000002
   19.38972282  134.82200623    4.90999985    2.23000002
   19.39111137  149.32299805    4.90999985    2.30999994
   19.39416695  239.51100159    4.90999985    2.07999992
   19.39749908  191.91900635    4.90999985    1.94000006
   19.40083313  228.49400330    4.90999985    1.89999998
   19.40388870  263.08499146    4.90999985    1.91999996
   19.40999985  263.08499146    4.90999985    1.89999998
   19.41416550  149.77900696    4.90999985    1.88000000
   19.41722107  140.33399963    4.90999985    1.85000002
   19.42055511  122.77300262    4.90999985    1.85000002
   19.42305565  111.94200134    4.90999985    1.86000001
   19.42416573  148.93499756    4.90999985    1.86000001
   19.42749977   -1.00000000    4.90999985    1.71000004
   19.43055534   -1.00000000    4.90999985    1.53999996
   19.43388748  124.68000031    4.90999985    1.69000006
   19.43722153   46.49980164    4.90999985    1.71000004
   19.44027710  269.18600464    4.90999985    1.75000000
   19.44361115  242.15100098    4.90999985    1.89999998
   19.44666672  148.69299316    4.90999985    2.09999990
   19.45277786  148.69299316    4.90999985    2.03999996
   19.45694542  169.06199646    4.90999985    2.11999989
   19.46027946  215.55999756    4.90999985    1.86000001
   19.46333504  165.54600525    4.90999985    1.76999998
   19.46666718  259.42300415    4.90999985    1.83000004
   19.47000122  151.81300354    4.90999985    2.03999996
   19.47305679  140.42999268    4.90999985    2.26999998
   19.47638893  146.62600708    4.90999985    2.30999994
   19.47944450  132.99000549    4.90999985    2.32999992
   19.48277855  131.55200195    4.90999985    2.32999992
   19.48611069  165.64500427    4.90999985    2.19000006
   19.48916626  194.99600220    4.90999985    2.03999996
   19.48972321  231.18699646    4.90999985    2.03999996
   19.49555588  231.18699646    4.90999985    1.94000006
   19.49972153  162.41700745    4.90999985    2.13000011
   19.50305557  144.98599243    4.90999985    2.19000006
   19.50638962  181.95700073    4.90999985    2.15000010
   19.50944519  209.69099426    4.90999985    2.03999996
   19.51277733  140.55000305    4.90999985    1.86000001
   19.51583290   49.94570160    4.90999985    1.76999998
   19.51916695   -1.00000000    4.90999985    1.71000004
   19.52249908   -1.00000000    4.90999985    1.61000001
   19.52611160   -1.00000000    4.90999985    1.53999996
   19.52916718   -1.00000000    4.90999985    1.55999994
   19.53249931   -1.00000000    4.90999985    1.60000002
   19.53861046   -1.00000000    4.90999985    1.51999998
   19.54249954   -1.00000000    4.90999985    1.58000004
   19.54583359   -1.00000000    4.90999985    1.53999996
   19.54916573   -1.00000000    4.90999985    1.60000002
   19.55222130   -1.00000000    4.90999985    1.60000002
   19.55555534  123.76300049    4.90999985    1.64999998
   19.55638885   33.38499832    4.90999985    1.69000006
   19.55916595   66.13680267    4.90999985    1.73000002
   19.56222153  159.66000366    4.90999985    1.73000002
   19.56555557  274.77398682    4.90999985    1.88000000
   19.56888962  234.21899414    4.90999985    1.96000004
   19.57194519  235.83299255    4.90999985    1.94000006
   19.57527924  281.45401001    4.90999985    1.85000002
   19.58139038  281.45401001    4.90999985    1.98000002
   19.58555603  249.81500244    4.90999985    2.00000000
   19.58861160  221.02799988    4.90999985    1.94000006
   19.58972359  213.26199341    4.90999985    1.94000006
   19.59222221  233.84199524    4.90999985    1.98000002
   19.59555626  191.75300598    4.90999985    2.00000000
   19.59861183  172.34500122    4.90999985    2.07999992
   19.60194397  210.70500183    4.90999985    2.07999992
   19.60499954  224.27400208    4.90999985    1.96000004
   19.60833359  256.93899536    4.90999985    1.89999998
   19.61166763  183.54600525    4.90999985    1.86000001
   19.61472321  158.05099487    4.90999985    1.71000004
   19.61805534  114.07399750    4.90999985    1.76999998
   19.62416649  114.07399750    4.90999985    1.75000000
   19.62833405   -1.00000000    4.90999985    1.80999994
   19.63166618   -1.00000000    4.90999985    1.83000004
   19.63472176   -1.00000000    4.90999985    1.96000004
   19.63805580   -1.00000000    4.90999985    1.98000002
   19.64138794   -1.00000000    4.90999985    1.94000006
   19.64444351   -1.00000000    4.90999985    2.00000000
   19.64777756   -1.00000000    4.90999985    2.05999994
   19.65083313   -1.00000000    4.90999985    2.03999996
   19.65416718   -1.00000000    4.90999985    1.98000002
   19.65777779   -1.00000000    4.90999985    2.05999994
   19.66083336   -1.00000000    4.90999985    2.05999994
   19.67111015   -1.00000000    4.90999985    1.98000002
   19.67444420   -1.00000000    4.90999985    1.98000002
   19.67749977   -1.00000000    4.90999985    2.01999998
   19.68083191   -1.00000000    4.90999985    1.89999998
   19.68416595   -1.00000000    4.90999985    1.80999994
   19.68722153   -1.00000000    4.90999985    1.73000002
   19.69083214   -1.00000000    4.90999985    1.58000004
   19.69388771   -1.00000000    4.90999985    1.46000004
   19.69722176   -1.00000000    4.90999985    1.48000002
   19.70027924   -1.00000000    4.90999985    1.60000002
   19.70361137   -1.00000000    4.90999985    1.64999998
   19.71389008   -1.00000000    4.90999985    1.64999998
   19.71722221   -1.00000000    4.90999985    1.61000001
   19.72055626   -1.00000000    4.90999985    1.69000006
   19.72416687   -1.00000000    4.90999985    1.69000006
   19.72722244   -1.00000000    4.90999985    1.64999998
   19.73055649   -1.00000000    4.90999985    1.69000006
   19.73388863   -1.00000000    4.90999985    1.69000006
   19.73694420   -1.00000000    4.90999985    1.61000001
   19.74027824   -1.00000000    4.90999985    1.61000001
   19.74333382   -1.00000000    4.90999985    1.69000006
   19.74666786   -1.00000000    4.90999985    1.73000002
   19.75694466   -1.00000000    4.90999985    1.66999996
   19.76000023   -1.00000000    4.90999985    1.61000001
   19.76333427   -1.00000000    4.90999985    1.53999996
   19.76638794   -1.00000000    4.90999985    1.48000002
   19.76972198   -1.00000000    4.90999985    1.38000000
   19.77305603   -1.00000000    4.90999985    1.33000004
   19.77611160   -1.00000000    4.90999985    1.38000000
   19.77944374   -1.00000000    4.90999985    1.41999996
   19.78277779   -1.00000000    4.90999985    1.48000002
   19.78583336   -1.00000000    4.90999985    1.53999996
   19.78916550   -1.00000000    4.90999985    1.53999996
   19.79972076   -1.00000000    4.90999985    1.36000001
   19.80277634   -1.00000000    4.90999985    1.33000004
   19.80611038   -1.00000000    4.90999985    1.33000004
   19.80944443   -1.00000000    4.90999985    1.34000003
   19.81250000   -1.00000000    4.90999985    1.33000004
   19.81583214   -1.00000000    4.90999985    1.34000003
   19.81916809   -1.00000000    4.90999985    1.38000000
   19.82222366   -1.00000000    4.90999985    1.36000001
   19.82583427   -1.00000000    4.90999985    1.36000001
   19.82888985   -1.00000000    4.90999985    1.36000001
   19.83222389   -1.00000000    4.90999985    1.36000001
   19.84250069   -1.00000000    4.90999985    1.41999996
   19.84583473   -1.00000000    4.90999985    1.41999996
   19.84889030   -1.00000000    4.90999985    1.46000004
   19.85222244   -1.00000000    4.90999985    1.50000000
   19.85555649   -1.00000000    4.90999985    1.48000002
   19.85916710   -1.00000000    4.90999985    1.55999994
   19.86222267   -1.00000000    4.90999985    1.63000000
   19.86555672   -1.00000000    4.90999985    1.48000002
   19.86888885   -1.00000000    4.90999985    1.19000006
   19.87194443   -1.00000000    4.90999985    1.14999998
   19.87527847   -1.00000000    4.90999985    1.13000000
   19.88527679   -1.00000000    4.90999985    0.80000001
   19.88861084   -1.00000000    4.90999985    0.83999997
   19.89222145   -1.00000000    4.90999985    0.83999997
   19.89527702   -1.00000000    4.90999985    0.86000001
   19.89861107   -1.00000000    4.90999985    0.81999999
   19.90194321   -1.00000000    4.90999985    0.80000001
   19.90499878   -1.00000000    4.90999985    0.73000002
   19.90833282   -1.00000000    4.90999985    0.58999997
   19.91166687   -1.00000000    4.90999985    0.40000001
   19.91472244   -1.00000000    4.90999985    0.46000001
   19.91805458   -1.00000000    4.90999985    0.46000001
   19.92833328   -1.00000000    4.90999985    0.50000000
   19.93138885   -1.00000000    4.90999985    0.50000000
   19.93472099   -1.00000000    4.90999985    0.41999999
   19.93777657   -1.00000000    4.90999985    0.41999999
   19.94111061   -1.00000000    4.90999985    0.31999999
   19.94444275   -1.00000000    4.90999985    0.31999999
   19.94749832   -1.00000000    4.90999985    0.30000001
   19.95083427   -1.00000000    4.90999985    0.25000000
   19.95416832   -1.00000000    4.90999985    0.25000000
   19.95777893   -1.00000000    4.90999985    0.28000000
   19.96083450   -1.00000000    4.90999985    0.34000000
   19.97111130   -1.00000000    4.90999985    0.64999998
   19.97416687   -1.00000000    4.90999985    0.50000000
   19.97750092   -1.00000000    4.90999985    0.44000000
   19.98083305   -1.00000000    4.90999985    0.34000000
   19.98388863   -1.00000000    4.90999985    0.31999999
   19.98722267   -1.00000000    4.90999985    0.30000001
   19.99083328   -1.00000000    4.90999985    0.30000001
   19.99388885   -1.00000000    4.90999985    0.30000001
   19.99722290   -1.00000000    4.90999985    0.30000001
   20.00055504   -1.00000000    4.90999985    0.31999999
   20.00361061   -1.00000000    4.90999985    0.34000000
   20.01388931   -1.00000000    4.90999985    0.51999998
   20.01722145   -1.00000000    4.90999985    0.55000001
   20.02027702   -1.00000000    4.90999985    0.61000001
   20.02388954   -1.00000000    4.90999985    0.69000000
   20.02694511   -1.00000000    4.90999985    0.69000000
   20.03027725   -1.00000000    4.90999985    0.56999999
   20.03361130   -1.00000000    4.90999985    0.52999997
   20.03666687   -1.00000000    4.90999985    0.51999998
   20.03999901   -1.00000000    4.90999985    0.51999998
   20.04333305   -1.00000000    4.90999985    0.52999997
   20.04638863   -1.00000000    4.90999985    0.55000001
   20.05666542   -1.00000000    4.90999985    0.61000001
   20.05999947   -1.00000000    4.90999985    0.61000001
   20.06333351   -1.00000000    4.90999985    0.67000002
   20.06638718   -1.00000000    4.90999985    0.75000000
   20.06972313   -1.00000000    4.90999985    0.73000002
   20.07305717   -1.00000000    4.90999985    0.67000002
   20.07611275   -1.00000000    4.90999985    0.58999997
   20.07944489   -1.00000000    4.90999985    0.55000001
   20.08250046   -1.00000000    4.90999985    0.50000000
   20.08583450   -1.00000000    4.90999985    0.44000000
   20.08916664   -1.00000000    4.90999985    0.38000000
   20.11444473   -1.00000000    4.90999985    0.40000001
   20.11777878   -1.00000000    4.90999985    0.46000001
   20.12083435   -1.00000000    4.90999985    0.40000001
   20.12444496   -1.00000000    4.90999985    0.34000000
   20.12777710   -1.00000000    4.90999985    0.30000001
   20.13083267   -1.00000000    4.90999985    0.25999999
   20.13416672   -1.00000000    4.90999985    0.25999999
   20.13722229   -1.00000000    4.90999985    0.25999999
   20.14055634   -1.00000000    4.90999985    0.28000000
   20.14388847   -1.00000000    4.90999985    0.28000000
   20.14694405   -1.00000000    4.90999985    0.34000000
   20.15722275   -1.00000000    4.90999985    0.41999999
   20.16055489   -1.00000000    4.90999985    0.44000000
   20.16361046   -1.00000000    4.90999985    0.51999998
   20.16694450   -1.00000000    4.90999985    0.58999997
   20.17027664   -1.00000000    4.90999985    0.55000001
   20.17333221   -1.00000000    4.90999985    0.64999998
   20.17666626   -1.00000000    4.90999985    0.67000002
   20.17972183   -1.00000000    4.90999985    0.76999998
   20.18305397   -1.00000000    4.90999985    1.05999994
   20.18638802   -1.00000000    4.90999985    1.30999994
   20.18944359   -1.00000000    4.90999985    1.60000002
   20.20000076   -1.00000000    4.90999985    1.98000002
   20.20333481   -1.00000000    4.90999985    1.96000004
   20.20666695   -1.00000000    4.90999985    2.03999996
   20.20972252   -1.00000000    4.90999985    2.15000010
   20.21305656   -1.00000000    4.90999985    2.17000008
   20.21611214   -1.00000000    4.90999985    2.19000006
   20.21944427   -1.00000000    4.90999985    2.15000010
   20.22277832   -1.00000000    4.90999985    2.15000010
   20.22638893   -1.00000000    4.90999985    2.13000011
   20.22944450   -1.00000000    4.90999985    2.05999994
   20.23277855   -1.00000000    4.90999985    2.21000004
   20.24305534   -1.00000000    4.90999985    2.15000010
   20.24611092   -1.00000000    4.90999985    1.98000002
   20.24944496   -1.00000000    4.90999985    1.50000000
   20.25250053   -1.00000000    4.90999985    1.46000004
   20.25583267   -1.00000000    4.90999985    1.50000000
   20.25944519   -1.00000000    4.90999985    0.86000001
   20.26250076   -1.00000000    4.90999985    0.76999998
   20.26583290   -1.00000000    4.90999985    0.69000000
   20.26888847   -1.00000000    4.90999985    0.64999998
   20.27222252   -1.00000000    4.90999985    0.73000002
   20.27555466   -1.00000000    4.90999985    0.80000001
   20.28583336   -1.00000000    4.90999985    0.69000000
   20.28888893   -1.00000000    4.90999985    0.64999998
   20.29277802   -1.00000000    4.90999985    0.55000001
   20.29583359   -1.00000000    4.90999985    0.51999998
   20.29916573   -1.00000000    4.90999985    0.67000002
   20.30222130   -1.00000000    4.90999985    0.79000002
   20.30555534   -1.00000000    4.90999985    0.98000002
   20.30888748   -1.00000000    4.90999985    1.21000004
   20.31194305   -1.00000000    4.90999985    1.28999996
   20.31527710   -1.00000000    4.90999985    1.26999998
   20.31861115   -1.00000000    4.90999985    1.19000006
   20.32861137   -1.00000000    4.90999985    1.28999996
   20.33194542   -1.00000000    4.90999985    1.09000003
   20.33500099   -1.00000000    4.90999985    1.00000000
   20.33833313   -1.00000000    4.90999985    0.95999998
   20.34166718   -1.00000000    4.90999985    1.03999996
   20.34472275   -1.00000000    4.90999985    0.98000002
   20.34805679   -1.00000000    4.90999985    0.86000001
   20.35111237   -1.00000000    4.90999985    0.81999999
   20.35444450   -1.00000000    4.90999985    0.79000002
   20.35805511   -1.00000000    4.90999985    0.75000000
   20.36111069   -1.00000000    4.90999985    0.73000002
   20.37138939   -1.00000000    4.90999985    0.50000000
   20.37472153   -1.00000000    4.90999985    0.47999999
   20.37805557   -1.00000000    4.90999985    0.56999999
   20.38111115   -1.00000000    4.90999985    0.55000001
   20.38444519   -1.00000000    4.90999985    0.51999998
   20.38750076   -1.00000000    4.90999985    0.50000000
   20.39138794   -1.00000000    4.90999985    0.38000000
   20.39444351   -1.00000000    4.90999985    0.30000001
   20.39777756   -1.00000000    4.90999985    0.30000001
   20.40111160   -1.00000000    4.90999985    0.30000001
   20.40416718   -1.00000000    4.90999985    0.28000000
   20.41444397   -1.00000000    4.90999985    0.30000001
   20.41749954   -1.00000000    4.90999985    0.31999999
   20.42083359   -1.00000000    4.90999985    0.34000000
   20.42444420   -1.00000000    4.90999985    0.36000001
   20.42749977   -1.00000000    4.90999985    0.38000000
   20.43083191   -1.00000000    4.90999985    0.40000001
   20.43416595   -1.00000000    4.90999985    0.40000001
   20.43722153   -1.00000000    4.90999985    0.41999999
   20.44055557   -1.00000000    4.90999985    0.46000001
   20.44388771   -1.00000000    4.90999985    0.44000000
   20.44694328   -1.00000000    4.90999985    0.46000001
   20.45722389   -1.00000000    3.23000002    0.15000001
   20.46055603   -1.00000000    3.23000002    0.15000001
