    HOUR (UT)   FLARE FACTOR    SKY TESTER    SUN TESTER
   11.79388905   -1.00000000   -1.00000000   -1.00000000
   11.88666630  232.00500488    0.00000000    0.00000000
   11.88972187  236.95100403    0.00000000    0.00000000
   11.89305496  242.21400452    0.00000000    0.00000000
   11.89638901  224.33000183    0.00000000    0.00000000
   11.89944458  268.08300781    0.00000000    0.00000000
   11.90277767  218.05200195    0.00000000    0.00000000
   11.90694427  218.05200195    0.00000000    0.00000000
   11.91111088  238.59700012    0.00000000    0.00000000
   11.91444397  236.46800232    0.00000000    0.00000000
   11.91777802  243.44599915    0.00000000    0.00000000
   11.92000008  237.97900391    0.00000000    0.00000000
   11.92138958  248.20599365    0.00000000    0.00000000
   11.92444515  244.61000061    0.00000000    0.00000000
   11.92777824  248.46800232    0.00000000    0.00000000
   11.93111134  244.52999878    0.00000000    0.00000000
   11.93416691  288.95498657    0.00000000    0.00000000
   11.93750000  237.12100220    0.75000000    1.75000000
   11.94083309  259.22500610    0.75000000    1.75000000
   11.94388866  228.05400085    0.75000000    1.75000000
   11.94999981  228.05400085    0.75000000    1.75000000
   11.95416641  200.85200500    0.75000000    1.75000000
   11.95722198  242.85400391    0.75000000    1.75000000
   11.96055508  239.22200012    0.75000000    1.75000000
   11.96361065  249.73399353    0.75000000    1.75000000
   11.96694374  282.44299316    0.75000000    1.75000000
   11.97027779  256.03601074    0.75000000    1.75000000
   11.97333336  224.71499634    0.75000000    1.75000000
   11.97666645  239.88299561    0.75000000    1.75000000
   11.97999954  221.58099365    0.75000000    1.75000000
   11.98305511  245.46499634    0.75000000    1.75000000
   11.98638916  229.39500427    0.75000000    1.75000000
   11.98694515  227.35899353    0.75000000    1.75000000
   11.99305534  227.35899353    0.75000000    1.75000000
   11.99722290  233.14100647    0.75000000    1.75000000
   12.00027752  203.70500183    0.75000000    1.75000000
   12.00361156  235.58099365    0.75000000    1.75000000
   12.00666714  252.12600708    0.75000000    1.75000000
   12.01000023  227.68400574    0.75000000    1.75000000
   12.01333332  242.16799927    0.75000000    1.75000000
   12.01638889  212.39599609    0.75000000    1.75000000
   12.01972198  243.95100403    0.75000000    1.75000000
   12.02027798  230.97900391    0.75000000    1.75000000
   12.02333355  227.35000610    0.75000000    1.75000000
   12.02666664  237.89700317    0.75000000    1.75000000
   12.02972221  227.57499695    0.75000000    1.75000000
   12.03583336  227.57499695    0.75000000    1.75000000
   12.04000092  224.79100037    0.75000000    1.75000000
   12.04305553  243.57200623    0.75000000    1.75000000
   12.04638958  205.82600403    0.75000000    1.75000000
   12.04972267  209.46200562    0.75000000    1.75000000
   12.05277824  219.61399841    0.75000000    1.75000000
   12.05361176  239.11099243    0.75000000    1.75000000
   12.05638885  237.80799866    0.75000000    1.75000000
   12.05972195  196.11500549    0.75000000    1.75000000
   12.06277752  197.59599304    0.75000000    1.75000000
   12.06611156  219.82600403    0.75000000    1.75000000
   12.06944466  209.16099548    0.75000000    1.75000000
   12.07250023  202.23100281    0.75000000    1.75000000
   12.07861137  202.23100281    0.75000000    1.75000000
   12.08277798  201.89700317    0.75000000    1.75000000
   12.08611107  184.82299805    0.75000000    1.75000000
   12.08694458  203.03300476    0.75000000    1.75000000
   12.08972168  205.01400757    0.75000000    1.75000000
   12.09305477  197.11900330    0.75000000    1.75000000
   12.09611034  206.39999390    0.75000000    1.75000000
   12.09944439  204.05400085    0.75000000    1.75000000
   12.10277843  226.92999268    0.75000000    1.75000000
   12.10583401  219.39199829    0.75000000    1.75000000
   12.10916710  195.47500610    0.75000000    1.75000000
   12.11222267  206.41499329    0.75000000    1.75000000
   12.11555576  179.11900330    0.75000000    1.75000000
   12.12138939  179.11900330    0.75000000    1.75000000
   12.12555599  191.87500000    0.75000000    1.75000000
   12.12888908  210.96600342    0.75000000    1.75000000
   12.13222218  193.53599548    0.75000000    1.75000000
   12.13527775  200.54100037    0.75000000    1.75000000
   12.13861084  223.64900208    0.75000000    1.75000000
   12.14166641  201.40100098    0.75000000    1.75000000
   12.14499950  206.55799866    0.75000000    1.75000000
   12.14833355  209.45799255    0.75000000    1.75000000
   12.15138817  210.47399902    0.75000000    1.75000000
   12.15361118  204.32200623    0.75000000    1.75000000
   12.15499973  217.50399780    0.75000000    1.75000000
   12.15833282  208.52099609    0.75000000    1.75000000
   12.16444397  208.52099609    0.75000000    1.75000000
   12.16861153  212.19400024    0.75000000    1.75000000
   12.17166710  204.49299622    0.75000000    1.75000000
   12.17500019  208.96099854    0.75000000    1.75000000
   12.17833328  209.70100403    0.75000000    1.75000000
   12.18138885  183.52400208    0.75000000    1.75000000
   12.18472195  213.30599976    0.75000000    1.75000000
   12.18694496  189.80000305    0.75000000    1.75000000
   12.18833351  198.52099609    0.75000000    1.75000000
   12.19166660  179.70100403    0.75000000    1.75000000
   12.19472218  190.33099365    0.75000000    1.75000000
   12.19805527  189.42700195    0.75000000    1.75000000
   12.20138836  184.64500427    0.75000000    1.75000000
   12.20722198  184.64500427    0.75000000    1.75000000
   12.21138859  183.04899597    0.75000000    1.75000000
   12.21472168  181.93099976    0.75000000    1.75000000
   12.21777725  182.41099548    0.75000000    1.75000000
   12.22027779  190.94000244    0.75000000    1.75000000
   12.22138882  163.20399475    0.75000000    1.75000000
   12.22472191  172.86799622    0.75000000    1.75000000
   12.22777748  178.39300537    0.75000000    1.75000000
   12.23111057  185.19999695    0.75000000    1.75000000
   12.23444462  184.62399292    0.75000000    1.75000000
   12.23750019  170.89500427    0.75000000    1.75000000
   12.24083328  186.26899719    0.75000000    1.75000000
   12.24416733  183.61500549    0.75000000    1.75000000
   12.25000000  183.61500549    0.75000000    1.75000000
   12.25416660  179.98300171    0.75000000    1.75000000
   12.25749969  187.91400146    0.75000000    1.75000000
   12.26083374  201.45500183    0.75000000    1.75000000
   12.26388931  192.12399292    0.75000000    1.75000000
   12.26722240  195.68400574    0.75000000    1.75000000
   12.27055550  174.72500610    0.75000000    1.75000000
   12.27361107  181.01899719    0.75000000    1.75000000
   12.27694416  189.75199890    0.75000000    1.75000000
   12.28027725  195.55799866    0.75000000    1.75000000
   12.28333378  179.15299988    0.75000000    1.75000000
   12.28666687  175.74800110    0.75000000    1.75000000
   12.28722286  184.84399414    0.75000000    1.75000000
   12.29305553  184.84399414    0.75000000    1.75000000
   12.29722309  194.72399902    0.75000000    1.75000000
   12.30027771  195.52699280    0.75000000    1.75000000
   12.30361176  193.53500366    0.75000000    1.75000000
   12.30694485  197.15400696    0.75000000    1.75000000
   12.31000042  174.98399353    0.75000000    1.75000000
   12.31333351  185.60000610    0.75000000    1.75000000
   12.31638908  186.56399536    0.75000000    1.75000000
   12.31972218  198.13699341    0.75000000    1.75000000
   12.32055569  197.65299988    0.75000000    1.75000000
   12.32333374  216.86900330    0.75000000    1.75000000
   12.32666683  188.56599426    0.75000000    1.75000000
   12.32999992  190.55299377    0.75000000    1.75000000
   12.33583260  190.55299377    0.75000000    1.75000000
   12.34000015  180.29499817    0.75000000    1.75000000
   12.34305477  166.86999512    0.75000000    1.75000000
   12.34638882  157.94999695    0.75000000    1.75000000
   12.34972191  160.06399536    0.75000000    1.75000000
   12.35277843  171.05999756    0.75000000    1.75000000
   12.35388947  175.49400330    0.75000000    1.75000000
   12.35638905  164.97799683    0.75000000    1.75000000
   12.35972214  172.24800110    0.75000000    1.75000000
   12.36305618  173.90499878    0.75000000    1.75000000
   12.36611176  174.30400085    0.75000000    1.75000000
   12.36944485  148.69799805    0.75000000    1.75000000
   12.37277794  174.23100281    0.75000000    1.75000000
   12.37861156  174.23100281    0.75000000    1.75000000
   12.38277817  174.18400574    0.75000000    1.75000000
   12.38611126  172.57600403    0.75000000    1.75000000
   12.38722229  179.68699646    0.75000000    1.75000000
   12.38944435  174.18200684    0.75000000    1.75000000
   12.39277744  159.02999878    0.75000000    1.75000000
   12.39611053  179.38400269    0.75000000    1.75000000
   12.39916611  177.77900696    0.75000000    1.75000000
   12.40249920  163.88400269    0.75000000    1.75000000
   12.40555477  167.04800415    0.75000000    1.75000000
   12.40888882  174.37399292    0.75000000    1.75000000
   12.41222191  164.80900574    0.75000000    1.75000000
   12.41527748  172.17399597    0.75000000    1.75000000
   12.42138958  172.17399597    0.75000000    1.75000000
   12.42555618  177.00300598    0.75000000    1.75000000
   12.42888927  164.50399780    0.75000000    1.75000000
   12.43222237  159.66400146    0.75000000    1.75000000
   12.43527794  157.06500244    0.75000000    1.75000000
   12.43861103  177.75700378    0.75000000    1.75000000
   12.44194412  166.17599487    0.75000000    1.75000000
   12.44499969  172.22900391    0.75000000    1.75000000
   12.44833374  169.83999634    0.75000000    1.75000000
   12.45166683  165.08099365    0.75000000    1.75000000
   12.45388889  158.32800293    0.75000000    1.75000000
   12.45499992  161.46899414    0.75000000    1.75000000
   12.45833302  174.50900269    0.75000000    1.75000000
   12.46444416  174.50900269    0.75000000    1.75000000
   12.46861076  156.99400330    0.75000000    1.75000000
   12.47166634  166.77499390    0.75000000    1.75000000
   12.47499943  156.28399658    0.75000000    1.75000000
   12.47805500  163.89300537    0.75000000    1.75000000
   12.48138809  169.48500061    0.75000000    1.75000000
   12.48472214  160.24600220    0.75000000    1.75000000
   12.48722267  170.02799988    0.75000000    1.75000000
   12.48805618  158.39599609    0.75000000    1.75000000
   12.49138927  165.80000305    0.75000000    1.75000000
   12.49444485  174.32899475    0.75000000    1.75000000
   12.49777794  166.98199463    0.75000000    1.75000000
   12.50111103  174.13000488    0.75000000    1.75000000
   12.50722218  174.13000488    0.75000000    1.75000000
   12.51138878  166.88299561    0.75000000    1.75000000
   12.51444435  163.76800537    0.75000000    1.75000000
   12.51777744  167.10499573    0.75000000    1.75000000
   12.52055550  169.83000183    0.75000000    1.75000000
   12.52138901  173.79600525    0.75000000    1.75000000
   12.52472210  179.62199402    0.75000000    1.75000000
   12.52777767  199.86599731    0.75000000    1.75000000
   12.53111076  177.81700134    0.75000000    1.75000000
   12.53444481  195.40499878    0.75000000    1.75000000
   12.53750038  193.88299561    0.75000000    1.75000000
   12.54083347  183.15499878    0.75000000    1.75000000
   12.54416752  194.39900208    0.75000000    1.75000000
   12.55000019  194.39900208    0.75000000    1.75000000
   12.55416679  176.25300598    0.75000000    1.75000000
   12.55722237  183.70700073    0.75000000    1.75000000
   12.56055546  176.55000305    0.75000000    1.75000000
   12.56388950  180.82899475    0.75000000    1.75000000
   12.56694412  171.43600464    0.75000000    1.75000000
   12.57027817  183.90299988    0.75000000    1.75000000
   12.57361126  165.41600037    0.75000000    1.75000000
   12.57666683  177.21200562    0.75000000    1.75000000
   12.57999992  181.94900513    0.75000000    1.75000000
   12.58305550  169.73300171    0.75000000    1.75000000
   12.58638859  168.50100708    0.75000000    1.75000000
   12.58722210  169.07899475    0.75000000    1.75000000
   12.59277725  169.07899475    0.75000000    1.75000000
   12.59694386  168.08200073    0.75000000    1.75000000
   12.60027790  167.42700195    0.75000000    1.75000000
   12.60361195  179.26600647    0.75000000    1.75000000
   12.60666752  174.89799500    0.75000000    1.75000000
   12.61000061  178.27400208    0.75000000    1.75000000
   12.61333370  180.89599609    0.75000000    1.75000000
   12.61638927  159.54299927    0.75000000    1.75000000
   12.61972237  175.19799805    0.75000000    1.75000000
   12.62055588  166.94500732    0.75000000    1.75000000
   12.62333393  151.98500061    0.75000000    1.75000000
   12.62666702  173.22500610    0.75000000    1.75000000
   12.63000011  171.80499268    0.75000000    1.75000000
   12.63555527  171.80499268    0.75000000    1.75000000
   12.63972187  142.02400208    0.75000000    1.75000000
   12.64305496  164.49899292    0.75000000    1.75000000
   12.64638901  150.58500671    0.75000000    1.75000000
   12.64944458  150.83999634    0.75000000    1.75000000
   12.65277767  146.39999390    0.75000000    1.75000000
   12.65388870  152.44599915    0.75000000    1.75000000
   12.65638828  152.21899414    0.75000000    1.75000000
   12.65972137  154.28900146    0.75000000    1.75000000
   12.66305542  148.06399536    0.75000000    1.75000000
   12.66611099  150.85400391    0.75000000    1.75000000
   12.66944504  151.77000427    0.75000000    1.75000000
   12.67250061  163.15400696    0.75000000    1.75000000
   12.67861176  163.15400696    0.75000000    1.75000000
   12.68277836  158.38200378    0.75000000    1.75000000
   12.68583298  154.54100037    0.75000000    1.75000000
   12.68722248  155.50700378    0.75000000    1.75000000
   12.68944454  159.58200073    0.75000000    1.75000000
   12.69277763  158.67999268    0.75000000    1.75000000
   12.69611073  149.78199768    0.75000000    1.75000000
   12.69916630  171.45700073    0.75000000    1.75000000
   12.70249939  177.41799927    0.75000000    1.75000000
   12.70555496  169.45599365    0.75000000    1.75000000
   12.70888901  156.39999390    0.75000000    1.75000000
   12.71222210  162.33999634    0.75000000    1.75000000
   12.71527767  160.63600159    0.75000000    1.75000000
   12.72138882  160.63600159    0.75000000    1.75000000
   12.72555542  172.21600342    0.75000000    1.75000000
   12.72861099  171.63499451    0.75000000    1.75000000
   12.73194408  169.24000549    0.75000000    1.75000000
   12.73527813  195.41999817    0.75000000    1.75000000
   12.73833370  168.63600159    0.75000000    1.75000000
   12.74166679  237.65400696    0.75000000    1.75000000
   12.74499989  219.77900696    0.75000000    1.75000000
   12.74805546  221.58900452    0.75000000    1.75000000
   12.75138855  287.91699219    0.75000000    1.75000000
   12.75388908  259.33300781    0.75000000    1.75000000
   12.75472260  230.05799866    0.75000000    1.75000000
   12.75805569  244.75999451    0.75000000    1.75000000
   12.76416683  244.75999451    0.75000000    1.75000000
   12.76833344  219.01100159    0.75000000    1.75000000
   12.77166653  225.08200073    0.75000000    1.75000000
   12.77472210  207.11099243    0.75000000    1.75000000
   12.77805519  184.59399414    0.75000000    1.75000000
   12.78138828  244.06500244    0.75000000    1.75000000
   12.78444481  255.91299438    0.75000000    1.75000000
   12.78722286  219.32600403    0.75000000    1.75000000
   12.78805637  148.13800049    0.75000000    1.75000000
   12.79138947  135.83399963    0.75000000    1.75000000
   12.79472256   -1.00000000    0.75000000    1.75000000
   12.79777813   -1.00000000    0.75000000    1.75000000
   12.80111122   -1.00000000    0.75000000    1.75000000
   12.81111145   -1.00000000    0.75000000    1.75000000
   12.81444454   -1.00000000    0.75000000    1.75000000
   12.81750011   -1.00000000    0.75000000    1.75000000
   12.82111073   -1.00000000    0.75000000    1.75000000
   12.82444477   -1.00000000    0.75000000    1.75000000
   12.82750034   -1.00000000    0.75000000    1.75000000
   12.83083344   -1.00000000    0.75000000    1.75000000
   12.83416653   -1.00000000    0.75000000    1.75000000
   12.83722210   -1.00000000    0.75000000    1.75000000
   12.84055519   -1.00000000    0.75000000    1.75000000
   12.84388828   28.76210022    0.75000000    1.75000000
   12.85000038   28.76210022    0.75000000    1.75000000
   12.85416698  132.62300110    0.75000000    1.75000000
   12.85722256   -1.00000000   -1.00000000   -1.00000000
   12.86055565   23.57019997    0.75000000    1.75000000
   12.86361122   -1.00000000    0.75000000    1.75000000
   12.86694431   -1.00000000    0.75000000    1.75000000
   12.87027836   92.40270233    0.75000000    1.75000000
   12.87333393   92.02249908    0.75000000    1.75000000
   12.87666702  147.17999268    0.75000000    1.75000000
   12.88000011  183.60699463    0.75000000    1.75000000
   12.88305569  118.72899628    0.75000000    1.75000000
   12.88638878   76.94760132    0.75000000    1.75000000
   12.88722229   84.34120178    0.75000000    1.75000000
   12.90777779   84.34120178    0.75000000    1.75000000
   12.91194439   43.79890060    0.75000000    1.75000000
   12.91527748   -1.00000000    0.75000000    1.75000000
   12.91833401   -1.00000000    0.75000000    1.75000000
   12.92194462   -1.00000000    0.75000000    1.75000000
   12.92527771   -1.00000000    0.75000000    1.75000000
   12.92833328   -1.00000000    0.75000000    1.75000000
   12.93166733   -1.00000000    0.75000000    1.75000000
   12.93500042   -1.00000000    0.75000000    1.75000000
   12.93805599   -1.00000000    0.75000000    1.75000000
   12.94138908   -1.00000000    0.75000000    1.75000000
   12.94472218   -1.00000000    0.75000000    1.75000000
   12.95472240   -1.00000000    0.75000000    1.75000000
   12.95777798   53.66699982    0.75000000    1.75000000
   12.96111107   72.32830048    0.75000000    1.75000000
   12.96444416   75.22260284    0.75000000    1.75000000
   12.96749973   74.48760223    0.75000000    1.75000000
   12.97083282   94.17169952    0.75000000    1.75000000
   12.97388840   -1.00000000    0.75000000    1.75000000
   12.97722149   -1.00000000    0.75000000    1.75000000
   12.98055553   -1.00000000    0.75000000    1.75000000
   12.98361111   -1.00000000    0.75000000    1.75000000
   12.98694515   -1.00000000    0.75000000    1.75000000
   12.99333382   -1.00000000    0.75000000    1.75000000
   12.99750042  112.45200348    0.75000000    1.75000000
   13.00083351   -1.00000000    0.75000000    1.75000000
   13.00388908   -1.00000000    0.75000000    1.75000000
   13.00722218   -1.00000000    0.75000000    1.75000000
   13.01055527   -1.00000000    0.75000000    1.75000000
   13.01361084   62.75799942    0.75000000    1.75000000
   13.01694393   -1.00000000    0.75000000    1.75000000
   13.02027798   -1.00000000    0.75000000    1.75000000
   13.02361107   -1.00000000    0.75000000    1.75000000
   13.02694416   -1.00000000    0.75000000    1.75000000
   13.02999973   -1.00000000    0.75000000    1.75000000
   13.04027843   -1.00000000    0.75000000    1.75000000
   13.04361153   -1.00000000    0.75000000    1.75000000
   13.04666710   -1.00000000    0.75000000    1.75000000
   13.05000019   -1.00000000    0.75000000    1.75000000
   13.05333328   -1.00000000    0.75000000    1.75000000
   13.05666733   -1.00000000    0.75000000    1.75000000
   13.06000042   -1.00000000    0.75000000    1.75000000
   13.06305599   -1.00000000    0.75000000    1.75000000
   13.06638908   -1.00000000    0.75000000    1.75000000
   13.06972218   -1.00000000    0.75000000    1.75000000
   13.07277775   -1.00000000    0.75000000    1.75000000
   13.08305550   -1.00000000    0.75000000    1.75000000
   13.08638859   -1.00000000    0.75000000    1.75000000
   13.09000015   -1.00000000    0.75000000    1.75000000
   13.09333324   -1.00000000    0.75000000    1.75000000
   13.09638882   -1.00000000    0.75000000    1.75000000
   13.09972191   -1.00000000    0.75000000    1.75000000
   13.10305595   -1.00000000    0.75000000    1.75000000
   13.10611153   23.57019997    0.75000000    1.75000000
   13.10944462  276.37100220    0.75000000    1.75000000
   13.11277771  294.66000366    0.75000000    1.75000000
   13.11583328  338.53500366    0.75000000    1.75000000
   13.12194443  338.53500366    0.75000000    1.75000000
   13.12611103  115.27600098    0.75000000    1.75000000
   13.12944412  122.41799927    0.75000000    1.75000000
   13.13249969   -1.00000000    0.75000000    1.75000000
   13.13583279   -1.00000000    0.75000000    1.75000000
   13.13888836   -1.00000000    0.75000000    1.75000000
   13.14222240   -1.00000000    0.75000000    1.75000000
   13.14555550   -1.00000000    0.75000000    1.75000000
   13.14861107   -1.00000000    0.75000000    1.75000000
   13.15194416   -1.00000000    0.75000000    1.75000000
   13.15527725   -1.00000000    0.75000000    1.75000000
   13.15861034   -1.00000000    0.75000000    1.75000000
   13.16472149   -1.00000000    0.75000000    1.75000000
   13.16888905   -1.00000000    0.75000000    1.75000000
   13.17222214   -1.00000000    0.75000000    1.75000000
   13.17527771   -1.00000000    0.75000000    1.75000000
   13.17861176   -1.00000000    0.75000000    1.75000000
   13.18194485   -1.00000000    0.75000000    1.75000000
   13.18500042   -1.00000000    0.75000000    1.75000000
   13.18861103   -1.00000000    0.75000000    1.75000000
   13.19194412  124.20200348    0.75000000    1.75000000
   13.19499969   47.13589859    0.75000000    1.75000000
   13.19833374   32.44660187    0.75000000    1.75000000
   13.20166683  156.45700073    0.75000000    1.75000000
   13.20749950  156.45700073    0.75000000    1.75000000
   13.21166611  187.32099915    0.75000000    1.75000000
   13.21500015   -1.00000000    0.75000000    1.75000000
   13.21833324   -1.00000000    0.75000000    1.75000000
   13.22166634   -1.00000000    0.75000000    1.75000000
   13.22499943   -1.00000000    0.75000000    1.75000000
   13.22833252   45.60639954    0.75000000    1.75000000
   13.23138809   -1.00000000    0.75000000    1.75000000
   13.23472214   -1.00000000    0.75000000    1.75000000
   13.23805618   -1.00000000    0.75000000    1.75000000
   13.24111176   -1.00000000    0.75000000    1.75000000
   13.24444485  189.08700562    0.75000000    1.75000000
   13.25055599  189.08700562    0.75000000    1.75000000
   13.25472260   -1.00000000    0.75000000    1.75000000
   13.25777817   -1.00000000    0.75000000    1.75000000
   13.26111126   -1.00000000    0.75000000    1.75000000
   13.26416683   -1.00000000    0.75000000    1.75000000
   13.26749992   -1.00000000    0.75000000    1.75000000
   13.27083302   -1.00000000    0.75000000    1.75000000
   13.27388859   -1.00000000    0.75000000    1.75000000
   13.27722168   -1.00000000    0.75000000    1.75000000
   13.28055573   -1.00000000    0.75000000    1.75000000
   13.28361130   -1.00000000    0.75000000    1.75000000
   13.28694534   -1.00000000    0.75000000    1.75000000
   13.29750061   -1.00000000    0.75000000    1.75000000
   13.30055618   -1.00000000    0.75000000    1.75000000
   13.30388927   -1.00000000    0.75000000    1.75000000
   13.30722237   -1.00000000    0.75000000    1.75000000
   13.31027794   -1.00000000    0.75000000    1.75000000
   13.31361103   -1.00000000    0.75000000    1.75000000
   13.31666660   -1.00000000    0.75000000    1.75000000
   13.31999969   -1.00000000    0.75000000    1.75000000
   13.32333374   -1.00000000    0.75000000    1.75000000
   13.32666683   -1.00000000    0.75000000    1.75000000
   13.32999992   -1.00000000    0.75000000    1.75000000
   13.33611107   -1.00000000    0.75000000    1.75000000
   13.34027767  226.14199829    0.75000000    1.75000000
   13.34361076   -1.00000000    0.75000000    1.75000000
   13.34666634   71.06250000    0.75000000    1.75000000
   13.35000038  307.51599121    0.75000000    1.75000000
   13.35333347  278.82101440    0.75000000    1.75000000
   13.35416698  380.71200562    0.75000000    1.75000000
   13.35694504  252.40899658    0.75000000    1.75000000
   13.36000061  249.70399475    0.75000000    1.75000000
   13.36333370  170.27299500    0.75000000    1.75000000
   13.36638927  168.40699768    0.75000000    1.75000000
   13.36972237  172.38400269    0.75000000    1.75000000
   13.37305546  147.85200500    0.75000000    1.75000000
   13.37888908  147.85200500    0.75000000    1.75000000
   13.38305569  150.50000000    0.75000000    1.75000000
   13.38638878  170.97700500    0.75000000    1.75000000
   13.38749981  170.45300293    0.75000000    1.75000000
   13.39000034  164.03599548    0.75000000    1.75000000
   13.39305496  161.72300720    0.75000000    1.75000000
   13.39638901  148.57699585    0.75000000    1.75000000
   13.39944458  157.04100037    0.75000000    1.75000000
   13.40277767  163.12899780    0.75000000    1.75000000
   13.40611076  156.75300598    0.75000000    1.75000000
   13.40916634  150.50000000    0.75000000    1.75000000
   13.41249943  153.81799316    0.75000000    1.75000000
   13.41583252  160.13000488    0.75000000    1.75000000
   13.42194462  160.13000488    0.75000000    1.75000000
   13.42611122  157.77400208    0.75000000    1.75000000
   13.42916679  149.21000671    0.75000000    1.75000000
   13.43249989  142.39599609    0.75000000    1.75000000
   13.43555546  140.74699402    0.75000000    1.75000000
   13.43888855  143.71400452    0.75000000    1.75000000
   13.44222260  149.03500366    0.75000000    1.75000000
   13.44527817  162.36099243    0.75000000    1.75000000
   13.44861126  158.27799988    0.75000000    1.75000000
   13.45194435  137.15899658    0.75000000    1.75000000
   13.45416641  142.87100220    0.75000000    1.75000000
   13.45555496  141.18600464    0.75000000    1.75000000
   13.45861053  144.21099854    0.75000000    1.75000000
   13.46472168  144.21099854    0.75000000    1.75000000
   13.46888828  155.39700317    0.75000000    1.75000000
   13.47194386  147.91700745    0.75000000    1.75000000
   13.47527695  163.33799744    0.75000000    1.75000000
   13.47861099  176.98800659    0.75000000    1.75000000
   13.48166656  217.33700562    0.75000000    1.75000000
   13.48500061   -1.00000000    0.75000000    1.75000000
   13.48833370   -1.00000000    0.75000000    1.75000000
   13.49166679   -1.00000000    0.75000000    1.75000000
   13.49499989   -1.00000000    0.75000000    1.75000000
   13.49805546   -1.00000000    0.75000000    1.75000000
   13.50138855   -1.00000000    0.75000000    1.75000000
   13.50749969   -1.00000000    0.75000000    1.75000000
   13.51166630   -1.00000000    0.75000000    1.75000000
   13.51500034   78.27829742    0.75000000    1.75000000
   13.51805496  134.95399475    0.75000000    1.75000000
   13.52083302  266.26501465    0.75000000    1.75000000
   13.52194405  308.54299927    0.75000000    1.75000000
   13.52499962  320.86801147    0.75000000    1.75000000
   13.52833271  268.66299438    0.75000000    1.75000000
   13.53138828  247.58099365    0.75000000    1.75000000
   13.53472233  180.68200684    0.75000000    1.75000000
   13.53805637  203.73300171    0.75000000    1.75000000
   13.54111195  242.36900330    0.75000000    1.75000000
   13.54444504  313.36898804    0.75000000    1.75000000
   13.55027771  313.36898804    0.75000000    1.75000000
   13.55444431  234.92399597    0.75000000    1.75000000
   13.55777836  279.06100464    0.75000000    1.75000000
   13.56111145  208.01199341    0.75000000    1.75000000
   13.56416702  241.97500610    0.75000000    1.75000000
   13.56750011  197.43099976    0.75000000    1.75000000
   13.57055569  194.41799927    0.75000000    1.75000000
   13.57388878  238.37500000    0.75000000    1.75000000
   13.57722187  252.21299744    0.75000000    1.75000000
   13.58027744  296.80801392    0.75000000    1.75000000
   13.58361053  201.62800598    0.75000000    1.75000000
   13.58694458  122.97399902    0.75000000    1.75000000
   13.58749962   88.96029663    0.75000000    1.75000000
   13.59333324   88.96029663    0.75000000    1.75000000
   13.59749985  135.67599487    0.75000000    1.75000000
   13.60055637  184.56900024    0.75000000    1.75000000
   13.60388947  139.00000000    0.75000000    1.75000000
   13.60694504  303.68499756    0.75000000    1.75000000
   13.61027813  395.80599976    0.75000000    1.75000000
   13.61361122  356.59100342    0.75000000    1.75000000
   13.61666679  259.76000977    0.75000000    1.75000000
   13.61999989  221.75999451    0.75000000    1.75000000
   13.62083340  222.75000000    0.75000000    1.75000000
   13.62361145  204.08000183    0.75000000    1.75000000
   13.62666702  229.16200256    0.75000000    1.75000000
   13.63000011  241.72500610    0.75000000    1.75000000
   13.63611126  241.72500610    0.75000000    1.75000000
   13.64027786  187.38699341    0.75000000    1.75000000
   13.64333344  165.12100220    0.75000000    1.75000000
   13.64666653  222.50300598    0.75000000    1.75000000
   13.64999962  172.47500610    0.75000000    1.75000000
   13.65305519  195.80000305    0.75000000    1.75000000
   13.65416622  181.39399719    0.75000000    1.75000000
   13.65694427  238.16299438    0.75000000    1.75000000
   13.65999985  311.60800171    0.75000000    1.75000000
   13.66333294  141.61500549    0.75000000    1.75000000
   13.66666698  266.63900757    0.75000000    1.75000000
   13.66972256  140.97999573    0.75000000    1.75000000
   13.67305565  135.96600342    0.75000000    1.75000000
   13.67888927  135.96600342    0.75000000    1.75000000
   13.68305588  260.90100098    0.75000000    1.75000000
   13.68638897  220.05799866    0.75000000    1.75000000
   13.68750000  218.19299316    0.75000000    1.75000000
   13.69000053  171.58599854    0.75000000    1.75000000
   13.69305515  179.95799255    0.75000000    1.75000000
   13.69638920  177.16799927    0.75000000    1.75000000
   13.69972229  178.86300659    0.75000000    1.75000000
   13.70277786  181.19000244    0.75000000    1.75000000
   13.70611095  181.58299255    0.75000000    1.75000000
   13.70916653  174.04800415    0.75000000    1.75000000
   13.71249962  183.69500732    0.75000000    1.75000000
   13.71583271  175.84199524    0.75000000    1.75000000
   13.72166634  175.84199524    0.75000000    1.75000000
   13.72583294  360.98098755    0.75000000    1.75000000
   13.72916603  130.52000427    0.75000000    1.75000000
   13.73249912  166.69400024    0.75000000    1.75000000
   13.73555565   -1.00000000    0.75000000    1.75000000
   13.73888874  163.82200623    0.75000000    1.75000000
   13.74222279   63.93569946    0.75000000    1.75000000
   13.74527836  188.98500061    0.75000000    1.75000000
   13.74861145  128.57899475    0.75000000    1.75000000
   13.75194454  157.86199951    0.75000000    1.75000000
   13.75416660  101.71199799    0.75000000    1.75000000
   13.75555515   -1.00000000    0.75000000    1.75000000
   13.75861073   -1.00000000    0.75000000    1.75000000
   13.76472187   -1.00000000    0.75000000    1.75000000
   13.76888847  280.54299927    0.75000000    1.75000000
   13.77194405  159.35400391    0.75000000    1.75000000
   13.77527714  169.82099915    0.75000000    1.75000000
   13.77833271  160.64199829    0.75000000    1.75000000
   13.78166676  150.76699829    0.75000000    1.75000000
   13.78500080  151.13400269    0.75000000    1.75000000
   13.78750038  162.94799805    0.75000000    1.75000000
   13.78861141  158.24000549    0.75000000    1.75000000
   13.79166698  143.20599365    0.75000000    1.75000000
   13.79500008  136.73599243    0.75000000    1.75000000
   13.79833412  126.85900116    0.75000000    1.75000000
   13.80138874  129.58000183    0.75000000    1.75000000
   13.80749989  129.58000183    0.75000000    1.75000000
   13.81166649  146.17300415    0.75000000    1.75000000
   13.81472206  138.93499756    0.75000000    1.75000000
   13.81805515  136.84599304    0.75000000    1.75000000
   13.82083321  132.51800537    0.75000000    1.75000000
   13.82166672  133.41200256    0.75000000    1.75000000
   13.82472229  126.39499664    0.75000000    1.75000000
   13.82805538  134.64500427    0.75000000    1.75000000
   13.83138847  147.50999451    0.75000000    1.75000000
   13.83444405  161.58299255    0.75000000    1.75000000
   13.83777714  140.86399841    0.75000000    1.75000000
   13.84111118  130.03799438    0.75000000    1.75000000
   13.84416676  142.75999451    0.75000000    1.75000000
   13.85027790  142.75999451    0.75000000    1.75000000
   13.85444450  156.70899963    0.75000000    1.75000000
   13.85777855  141.64599609    0.75000000    1.75000000
   13.86083412  153.63099670    0.75000000    1.75000000
   13.86416721  174.86000061    0.75000000    1.75000000
   13.86750031  166.11999512    0.75000000    1.75000000
   13.87055588  175.45300293    0.75000000    1.75000000
   13.87388897  163.99099731    0.75000000    1.75000000
   13.87694454  148.68600464    0.75000000    1.75000000
   13.88027763  139.08999634    0.75000000    1.75000000
   13.88361073  134.54699707    0.75000000    1.75000000
   13.88666630  137.41900635    0.75000000    1.75000000
   13.88749981  139.71099854    0.75000000    1.75000000
   13.89305496  139.71099854    0.75000000    1.75000000
   13.89722252  146.36799622    0.75000000    1.75000000
   13.90055561  137.22999573    0.75000000    1.75000000
   13.90388870  142.48300171    0.75000000    1.75000000
   13.92138958  127.04599762    0.75000000    1.75000000
   13.92361164  131.12100220    0.75000000    1.75000000
   13.92694473  126.37000275    0.75000000    1.75000000
   13.93027782  135.89100647    0.75000000    1.75000000
   13.93611145  135.89100647    0.75000000    1.75000000
   13.94027805  124.49400330    0.75000000    1.75000000
   13.94361115  132.39500427    0.75000000    1.75000000
   13.94666672  129.41999817    0.75000000    1.75000000
   13.94999981  124.17400360    0.75000000    1.75000000
   13.95333290  121.81999969    0.75000000    1.75000000
   13.95444393  121.36000061    0.75000000    1.75000000
   13.95666695  121.25099945    0.75000000    1.75000000
   13.96000004  126.05500031    0.75000000    1.75000000
   13.96305561  124.08200073    0.75000000    1.75000000
   13.96638870  128.58200073    0.75000000    1.75000000
   13.96972179  128.93499756    0.75000000    1.75000000
   13.97277737  129.35099792    0.75000000    1.75000000
   13.97888851  129.35099792    0.75000000    1.75000000
   13.98305511  121.36699677    0.75000000    1.75000000
   13.98638916  127.01899719    0.75000000    1.75000000
   13.98777771  128.62500000    0.75000000    1.75000000
   13.99000072  123.23899841    0.75000000    1.75000000
   13.99333382  121.66799927    0.75000000    1.75000000
   13.99638939  122.13899994    0.75000000    1.75000000
   13.99972248  122.79000092    0.75000000    1.75000000
   14.00305557  122.11299896    0.75000000    1.75000000
   14.00611115  123.74500275    0.75000000    1.75000000
   14.00944424  124.59600067    0.75000000    1.75000000
   14.01277733  130.47799683    0.75000000    1.75000000
   14.01583290  123.25000000    0.75000000    1.75000000
   14.02194405  123.25000000    0.75000000    1.75000000
   14.02611065  122.65000153    0.75000000    1.75000000
   14.02916622  123.13899994    0.75000000    1.75000000
   14.03249931  114.93099976    0.75000000    1.75000000
   14.03555584  122.50000000    0.75000000    1.75000000
   14.03888893  118.85600281    0.75000000    1.75000000
   14.04222298  122.50599670    0.75000000    1.75000000
   14.04527855  120.05699921    0.75000000    1.75000000
   14.04861164  121.57499695    0.75000000    1.75000000
   14.05194473  118.30699921    0.75000000    1.75000000
   14.05472279  120.98200226    0.75000000    1.75000000
   14.05527782  122.67400360    0.75000000    1.75000000
   14.05861092  124.56900024    0.75000000    1.75000000
   14.06472206  124.56900024    0.75000000    1.75000000
   14.06888866  121.68399811    0.75000000    1.75000000
   14.07194424  125.95700073    0.75000000    1.75000000
   14.07527733  119.84700012    0.75000000    1.75000000
   14.07861137  126.28299713    0.75000000    1.75000000
   14.08166695  117.17700195    0.75000000    1.75000000
   14.08500004  117.89499664    0.75000000    1.75000000
   14.08805561  122.27600098    0.75000000    1.75000000
   14.08861065  121.41899872    0.75000000    1.75000000
   14.09194374  127.18499756    0.75000000    1.75000000
   14.09499931  133.19400024    0.75000000    1.75000000
   14.09833336  131.08299255    0.75000000    1.75000000
   14.10166740  131.86500549    0.75000000    1.75000000
   14.10750008  131.86500549    0.75000000    1.75000000
   14.11166668  136.85699463    0.75000000    1.75000000
   14.11500072  141.83299255    0.75000000    1.75000000
   14.11805534  132.00100708    0.75000000    1.75000000
   14.12138939  161.55099487    0.75000000    1.75000000
   14.12166691  169.68899536    0.75000000    1.75000000
   14.12500000  163.36599731    0.75000000    1.75000000
   14.12805557  139.52099609    0.75000000    1.75000000
   14.13138866  136.08999634    0.75000000    1.75000000
   14.13472176  139.01899719    0.75000000    1.75000000
   14.13777733  132.01899719    0.75000000    1.75000000
   14.14111137  136.56399536    0.75000000    1.75000000
   14.14444447  132.29400635    0.75000000    1.75000000
   14.15027714  132.29400635    0.75000000    1.75000000
   14.15444374  129.03399658    0.75000000    1.75000000
   14.15499973  121.51599884    0.75000000    1.75000000
   14.15833282  136.35899353    0.75000000    1.75000000
   14.16138840  131.16299438    0.75000000    1.75000000
   14.16472149  129.70500183    0.75000000    1.75000000
   14.16805553  121.80699921    0.75000000    1.75000000
   14.17111111  123.17199707    0.75000000    1.75000000
   14.17444515  134.67199707    0.75000000    1.75000000
   14.17777824  119.64800262    0.75000000    1.75000000
   14.18083382  127.32199860    0.75000000    1.75000000
   14.18416691  118.88999939    0.75000000    1.75000000
   14.18750000  128.85800171    0.75000000    1.75000000
   14.18833351  127.16799927    0.75000000    1.75000000
   14.19333363  127.16799927    0.75000000    1.75000000
   14.19750023  125.73100281    0.75000000    1.75000000
   14.20055580  127.01799774    0.75000000    1.75000000
   14.20388889  127.30100250    0.75000000    1.75000000
   14.20694447  128.54699707    0.75000000    1.75000000
   14.21027756  124.17600250    0.75000000    1.75000000
   14.21361065  126.11900330    0.75000000    1.75000000
   14.21666622  118.98899841    0.75000000    1.75000000
   14.21999931  119.72899628    0.75000000    1.75000000
   14.22166634  117.24600220    0.75000000    1.75000000
   14.22361088  119.49299622    0.75000000    1.75000000
   14.22666645  118.78299713    0.75000000    1.75000000
   14.22999954  122.78600311    0.75000000    1.75000000
   14.23611164  122.78600311    0.75000000    1.75000000
   14.24027824  152.69700623    0.75000000    1.75000000
   14.24333382  145.13999939    0.75000000    1.75000000
   14.24666691  133.32000732    0.75000000    1.75000000
   14.25000000  127.01000214    0.75000000    1.75000000
   14.25305557  124.71399689    0.75000000    1.75000000
   14.25500011  155.60899353    0.75000000    1.75000000
   14.25666714  134.96299744    0.75000000    1.75000000
   14.25972176  123.01599884    0.75000000    1.75000000
   14.26305580  126.98500061    0.75000000    1.75000000
   14.26638889  118.24400330    0.75000000    1.75000000
   14.26944447  119.78299713    0.75000000    1.75000000
   14.27277756  126.04699707    0.75000000    1.75000000
   14.27888870  126.04699707    0.75000000    1.75000000
   14.28305531  113.39299774    0.75000000    1.75000000
   14.28638935  116.32099915    0.75000000    1.75000000
   14.28833389  118.92299652    0.75000000    1.75000000
   14.29000092  113.92700195    0.75000000    1.75000000
   14.29305553  125.71600342    0.75000000    1.75000000
   14.29638958  123.81500244    0.75000000    1.75000000
   14.29972267  118.04900360    0.75000000    1.75000000
   14.30277824  127.98500061    0.75000000    1.75000000
   14.30611134  132.49600220    0.75000000    1.75000000
   14.30944443  138.46600342    0.75000000    1.75000000
   14.31250000  123.70500183    0.75000000    1.75000000
   14.31583309  117.74900055    0.75000000    1.75000000
   14.32166672  117.74900055    0.75000000    1.75000000
   14.32583332  117.11499786    0.75000000    1.75000000
   14.32916641  144.35600281    0.75000000    1.75000000
   14.33222198  114.00399780    0.75000000    1.75000000
   14.33555508  129.88299561    0.75000000    1.75000000
   14.33888817  130.09899902    0.75000000    1.75000000
   14.34222221  118.43299866    0.75000000    1.75000000
   14.34527779  133.28500366    0.75000000    1.75000000
   14.34861088  136.40600586    0.75000000    1.75000000
   14.35166740  133.43099976    0.75000000    1.75000000
   14.35500050  124.17400360    0.75000000    1.75000000
   14.35555553  128.28999329    0.75000000    1.75000000
   14.35861111  139.82800293    0.75000000    1.75000000
   14.36472225  139.82800293    0.75000000    1.75000000
   14.36861134  144.93800354    0.75000000    1.75000000
   14.37194443  132.35600281    0.75000000    1.75000000
   14.37527752  139.84300232    0.75000000    1.75000000
   14.37833309  134.51499939    0.75000000    1.75000000
   14.38166714  142.89900208    0.75000000    1.75000000
   14.38500023  132.57400513    0.75000000    1.75000000
   14.38805580  121.33100128    0.75000000    1.75000000
   14.38861084  143.55400085    0.75000000    1.75000000
   14.39194393  134.86599731    0.75000000    1.75000000
   14.39499950  136.70500183    0.75000000    1.75000000
   14.39833355  122.49900055    0.75000000    1.75000000
   14.40166664  142.26100159    0.75000000    1.75000000
   14.40749931  142.26100159    0.75000000    1.75000000
   14.41166592  139.53300476    0.75000000    1.75000000
   14.41472149  146.14799500    0.75000000    1.75000000
   14.41805553  122.60900116    0.75000000    1.75000000
   14.42138958  114.18499756    0.75000000    1.75000000
   14.42194462  110.08599854    0.75000000    1.75000000
   14.42500019  130.09700012    0.75000000    1.75000000
   14.42833328  128.15699768    0.75000000    1.75000000
   14.43138885  136.23500061    0.75000000    1.75000000
   14.43472195  137.40299988    0.75000000    1.75000000
   14.43777752  118.78199768    0.75000000    1.75000000
   14.44111156  120.52500153    0.75000000    1.75000000
   14.44444466  138.81100464    0.75000000    1.75000000
   14.45027733  138.81100464    0.75000000    1.75000000
   14.45444393  136.58099365    0.75000000    1.75000000
   14.45527744  128.54800415    0.75000000    1.75000000
   14.45805550  141.48800659    0.75000000    1.75000000
   14.46111107  124.00700378    0.75000000    1.75000000
   14.46444416  135.84500122    0.75000000    1.75000000
   14.46777725  133.24400330    0.75000000    1.75000000
   14.47083282  126.14700317    0.75000000    1.75000000
   14.47416592  130.80900574    0.75000000    1.75000000
   14.47722149  126.62100220    0.75000000    1.75000000
   14.48055553  136.43099976    0.75000000    1.75000000
   14.48388958  130.61999512    0.75000000    1.75000000
   14.48694515  139.64100647    0.75000000    1.75000000
   14.48861122  137.94599915    0.75000000    1.75000000
   14.49305534  137.94599915    0.75000000    1.75000000
   14.49722290  128.63600159    0.75000000    1.75000000
   14.50055599  117.62100220    0.75000000    1.75000000
   14.50361156  134.64399719    0.75000000    1.75000000
   14.50694466  109.97200012    0.75000000    1.75000000
   14.51027775  123.92600250    0.75000000    1.75000000
   14.51361084  134.73100281    0.75000000    1.75000000
   14.51666641  137.26600647    0.75000000    1.75000000
   14.51999950  134.43299866    0.75000000    1.75000000
   14.52194405  115.08799744    0.75000000    1.75000000
   14.52361107  123.80799866    0.75000000    1.75000000
   14.52666664  111.32599640    0.75000000    1.75000000
   14.52999973  118.02100372    0.75000000    1.75000000
   14.53611183  118.02100372    0.75000000    1.75000000
   14.54000092  131.00399780    0.75000000    1.75000000
   14.54333401  139.39199829    0.75000000    1.75000000
   14.54666710  115.26599884    0.75000000    1.75000000
   14.54972267  127.14800262    0.75000000    1.75000000
   14.55305576  118.77799988    0.75000000    1.75000000
   14.55527782  126.55400085    0.75000000    1.75000000
   14.55666733  115.57900238    0.75000000    1.75000000
   14.55972195  134.30400085    0.75000000    1.75000000
   14.56305599  127.55000305    0.75000000    1.75000000
   14.56611156  109.88400269    0.75000000    1.75000000
   14.56944466  124.02600098    0.75000000    1.75000000
   14.57277775  107.57800293    0.75000000    1.75000000
   14.57888889  107.57800293    0.75000000    1.75000000
   14.58305550  117.36900330    0.75000000    1.75000000
   14.58611107  105.12000275    0.75000000    1.75000000
   14.58861065  106.58000183    0.75000000    1.75000000
   14.59000015  116.79699707    0.75000000    1.75000000
   14.59305477  110.22699738    0.75000000    1.75000000
   14.59638882  112.77799988    0.75000000    1.75000000
   14.59944439  114.68900299    0.75000000    1.75000000
   14.60277843  108.39800262    0.75000000    1.75000000
   14.60611153  112.28299713    0.75000000    1.75000000
   14.60916710  110.84100342    0.75000000    1.75000000
   14.61250019  120.91999817    0.75000000    1.75000000
   14.61583328  127.96800232    0.75000000    1.75000000
   14.62166691  127.96800232    0.75000000    1.75000000
   14.62583351  109.36100006    0.75000000    1.75000000
   14.62916660  115.52400208    0.75000000    1.75000000
   14.63222218  107.77600098    0.75000000    1.75000000
   14.63555527  105.56600189    0.75000000    1.75000000
   14.63861084  113.96399689    0.75000000    1.75000000
   14.64194393  113.24299622    0.75000000    1.75000000
   14.64527798  114.96600342    0.75000000    1.75000000
   14.64833355  108.73699951    0.75000000    1.75000000
   14.65166664  121.76499939    0.75000000    1.75000000
   14.65499973  106.23100281    0.75000000    1.75000000
   14.65666676  110.33000183    0.75000000    1.75000000
   14.65861034  124.43499756    0.75000000    1.75000000
   14.66444397  124.43499756    0.75000000    1.75000000
   14.66861153  108.63999939    0.75000000    1.75000000
   14.67194462  116.21700287    0.75000000    1.75000000
   14.67527771  117.43399811    0.75000000    1.75000000
   14.67833328  116.51699829    0.75000000    1.75000000
   14.68166733  109.78600311    0.75000000    1.75000000
   14.68472195  114.75900269    0.75000000    1.75000000
   14.68805599  111.61000061    0.75000000    1.75000000
   14.69000053  108.72399902    0.75000000    1.75000000
   14.69166660  113.18299866    0.75000000    1.75000000
   14.69472218  107.96299744    0.75000000    1.75000000
   14.69805527  103.23300171    0.75000000    1.75000000
   14.70138836  106.20200348    0.75000000    1.75000000
   14.70749950  106.20200348    0.75000000    1.75000000
   14.71166611  104.91799927    0.75000000    1.75000000
   14.71472168  114.44799805    0.75000000    1.75000000
   14.71805477  113.24600220    0.75000000    1.75000000
   14.72111034  110.94200134    0.75000000    1.75000000
   14.72361088  110.07099915    0.75000000    1.75000000
   14.72499943  110.74400330    0.75000000    1.75000000
   14.72805500  112.14800262    0.75000000    1.75000000
   14.73138809  104.78800201    0.75000000    1.75000000
   14.73472214  114.73400116    0.75000000    1.75000000
   14.73777771  107.47399902    0.75000000    1.75000000
   14.74111176  118.29599762    0.75000000    1.75000000
   14.74416733  108.27700043    0.75000000    1.75000000
   14.75027752  108.27700043    0.75000000    1.75000000
   14.75444412  104.40799713    0.75000000    1.75000000
   14.75694466  105.82800293    0.75000000    1.75000000
   14.75805569  110.80400085    0.75000000    1.75000000
   14.76111126  112.87699890    0.75000000    1.75000000
   14.76444435  106.28500366    0.75000000    1.75000000
   14.76777744  109.89800262    0.75000000    1.75000000
   14.77083302  106.00399780    0.75000000    1.75000000
   14.77416611  109.90399933    0.75000000    1.75000000
   14.77722168  114.02200317    0.75000000    1.75000000
   14.78055573  107.48999786    0.75000000    1.75000000
   14.78388977  113.93900299    0.75000000    1.75000000
   14.78694534  114.95200348    0.75000000    1.75000000
   14.79305553  114.95200348    0.75000000    1.75000000
   14.79722309  111.33399963    0.75000000    1.75000000
   14.80055618  105.50599670    0.75000000    1.75000000
   14.80361176  114.91200256    0.75000000    1.75000000
   14.80694485  112.83399963    0.75000000    1.75000000
   14.81027794  105.07599640    0.75000000    1.75000000
   14.81333351  104.38999939    0.75000000    1.75000000
   14.81666660  107.44000244    0.75000000    1.75000000
   14.81972218  105.28299713    0.75000000    1.75000000
   14.82305527  107.94100189    0.75000000    1.75000000
   14.82388878  113.08399963    0.75000000    1.75000000
   14.82666683  108.24700165    0.75000000    1.75000000
   14.82999992  112.67900085    0.75000000    1.75000000
   14.83583260  112.67900085    0.75000000    1.75000000
   14.84000015  102.94300079    0.75000000    1.75000000
   14.84333324  105.34100342    0.75000000    1.75000000
   14.84666634  109.14600372    0.75000000    1.75000000
   14.84972191  107.69499969    0.75000000    1.75000000
   14.85305595  107.01100159    0.75000000    1.75000000
   14.85638905  109.33200073    0.75000000    1.75000000
   14.85722256  105.69999695    0.75000000    1.75000000
   14.86000061  109.01699829    0.75000000    1.75000000
   14.86333370  110.37699890    0.75000000    1.75000000
   14.86638927  109.45999908    0.75000000    1.75000000
   14.86972237  107.28900146    0.75000000    1.75000000
   14.87305546  110.45300293    0.75000000    1.75000000
   14.87888908  110.45300293    0.75000000    1.75000000
   14.88305569  103.79100037    0.75000000    1.75000000
   14.88611126  113.15200043    0.75000000    1.75000000
   14.88944435  107.67500305    0.75000000    1.75000000
   14.89083290  107.64600372    0.75000000    1.75000000
   14.89305496  109.92400360    0.75000000    1.75000000
   14.89611053  112.94599915    0.75000000    1.75000000
   14.89944458  110.85800171    0.75000000    1.75000000
   14.90277767  113.87999725    0.75000000    1.75000000
   14.90583324  116.74900055    0.75000000    1.75000000
   14.90916634  116.63700104    0.75000000    1.75000000
   14.91249943  112.02899933    0.75000000    1.75000000
   14.91555500  111.89800262    0.75000000    1.75000000
   14.92166710  111.89800262    0.75000000    1.75000000
   14.94000053  110.03900146    0.75000000    1.75000000
   14.94333363  117.27100372    0.75000000    1.75000000
   14.94638920  110.77700043    0.75000000    1.75000000
   14.94972229  109.14099884    0.75000000    1.75000000
   14.95305538  116.90000153    0.75000000    1.75000000
   14.95611095  113.55200195    0.75000000    1.75000000
   14.95944405  114.45500183    0.75000000    1.75000000
   14.96472168  114.45500183    0.75000000    1.75000000
   14.96888828  108.59200287    0.75000000    1.75000000
   14.97222137  112.97299957    0.75000000    1.75000000
   14.97305489  111.80300140    0.75000000    1.75000000
   14.97583294  107.63200378    0.75000000    1.75000000
   14.97888851  109.27999878    0.75000000    1.75000000
   14.98222160  103.99900055    0.75000000    1.75000000
   14.98555565  113.29799652    0.75000000    1.75000000
   14.98861122  113.10600281    0.75000000    1.75000000
   14.99194431  106.63600159    0.75000000    1.75000000
   14.99499989  110.53800201    0.75000000    1.75000000
   14.99833393  105.92199707    0.75000000    1.75000000
   15.00166702  110.29799652    0.75000000    1.75000000
   15.00749969  110.29799652    0.75000000    1.75000000
   15.01166630  104.56800079    0.75000000    1.75000000
   15.01500034  107.70500183    0.75000000    1.75000000
   15.01805496  102.47899628    0.75000000    1.75000000
   15.02138901  107.79599762    0.75000000    1.75000000
   15.02444458  111.88300323    0.75000000    1.75000000
   15.02777767  108.14399719    0.75000000    1.75000000
   15.03111076  107.33499908    0.75000000    1.75000000
   15.03416729  110.69499969    0.75000000    1.75000000
   15.03750038  108.66400146    0.75000000    1.75000000
   15.03972244  110.56700134    0.75000000    1.75000000
   15.04111195  109.25199890    0.75000000    1.75000000
   15.04416752  107.36000061    0.75000000    1.75000000
   15.05027771  107.36000061    0.75000000    1.75000000
   15.05444431  105.66999817    0.75000000    1.75000000
   15.05777836  109.59400177    0.75000000    1.75000000
   15.06111145  109.06300354    0.75000000    1.75000000
   15.06416702  104.54000092    0.75000000    1.75000000
   15.06750011  108.07499695    0.75000000    1.75000000
   15.07055569  112.11199951    0.75000000    1.75000000
   15.07305527  108.12100220    0.75000000    1.75000000
   15.07444477  108.51399994    0.75000000    1.75000000
   15.07750034  107.13300323    0.75000000    1.75000000
   15.08083344  107.52500153    0.75000000    1.75000000
   15.08416653  108.89099884    0.75000000    1.75000000
   15.08722210  109.65599823    0.75000000    1.75000000
   15.09333324  109.65599823    0.75000000    1.75000000
   15.09722233  109.51899719    0.75000000    1.75000000
   15.10055637  109.86499786    0.75000000    1.75000000
   15.10388947  106.76499939    0.75000000    1.75000000
   15.10638905  110.13500214    0.75000000    1.75000000
   15.10750008  108.66600037    0.75000000    1.75000000
   15.11083412  108.84300232    0.75000000    1.75000000
   15.11388969  106.64900208    0.75000000    1.75000000
   15.11722279  107.96800232    0.75000000    1.75000000
   15.12055588  104.30500031    0.75000000    1.75000000
   15.12361145  107.87100220    0.75000000    1.75000000
   15.12694454  114.40100098    0.75000000    1.75000000
   15.13000011  112.20400238    0.75000000    1.75000000
   15.13611126  112.20400238    0.75000000    1.75000000
   15.14027786  111.81700134    0.75000000    1.75000000
   15.14333344  106.01599884    0.75000000    1.75000000
   15.14666653  113.01899719    0.75000000    1.75000000
   15.14999962  113.13800049    0.75000000    1.75000000
   15.15305519  121.80500031    0.75000000    1.75000000
   15.15638828  105.31500244    0.75000000    1.75000000
   15.15972137  112.51599884    0.75000000    1.75000000
   15.16277695  106.63500214    0.75000000    1.75000000
   15.16611099  110.32800293    0.75000000    1.75000000
   15.16916656  110.92500305    0.75000000    1.75000000
   15.17250061  114.25199890    0.75000000    1.75000000
   15.17305565  115.92299652    0.75000000    1.75000000
   15.17888927  115.92299652    0.75000000    1.75000000
   15.18305588  108.63899994    0.75000000    1.75000000
   15.18638897  111.22000122    0.75000000    1.75000000
   15.18944454  115.77200317    0.75000000    1.75000000
   15.19277763  110.49800110    0.75000000    1.75000000
   15.19611073  111.33599854    0.75000000    1.75000000
   15.19916630  115.26100159    0.75000000    1.75000000
   15.20249939  111.43399811    0.75000000    1.75000000
   15.20555496  114.03399658    0.75000000    1.75000000
   15.20638847  114.06400299    0.75000000    1.75000000
   15.20944405  111.17400360    0.75000000    1.75000000
   15.21249962  106.46600342    0.75000000    1.75000000
   15.21583271  113.83200073    0.75000000    1.75000000
   15.22166634  113.83200073    0.75000000    1.75000000
   15.22583294  113.99700165    0.75000000    1.75000000
   15.22916603  112.16999817    0.75000000    1.75000000
   15.23222160  113.39299774    0.75000000    1.75000000
   15.23555565  113.54000092    0.75000000    1.75000000
   15.23888874  108.24500275    0.75000000    1.75000000
   15.23972225  107.37300110    0.75000000    1.75000000
   15.24250031  113.91400146    0.75000000    1.75000000
   15.24555588  119.35700226    0.75000000    1.75000000
   15.24888897  120.65599823    0.75000000    1.75000000
   15.25222206  109.70200348    0.75000000    1.75000000
   15.25527763  113.57800293    0.75000000    1.75000000
   15.25861073  117.83399963    0.75000000    1.75000000
   15.26472187  117.83399963    0.75000000    1.75000000
   15.26888847  120.57900238    0.75000000    1.75000000
   15.27194405  118.72100067    0.75000000    1.75000000
   15.27305508  117.56300354    0.75000000    1.75000000
   15.27555561  111.76000214    0.75000000    1.75000000
   15.27861118  113.52700043    0.75000000    1.75000000
   15.28194427  123.34600067    0.75000000    1.75000000
   15.28527832  125.15899658    0.75000000    1.75000000
   15.28833389  113.98000336    0.75000000    1.75000000
   15.29166698  112.16799927    0.75000000    1.75000000
   15.29500008  119.86000061    0.75000000    1.75000000
   15.29805565  118.46499634    0.75000000    1.75000000
   15.30138874  108.10600281    0.75000000    1.75000000
   15.30749989  108.10600281    0.75000000    1.75000000
   15.31166649  112.44899750    0.75000000    1.75000000
   15.31472206  115.80200195    0.75000000    1.75000000
   15.31805515  118.41100311    0.75000000    1.75000000
   15.32138920  117.71299744    0.75000000    1.75000000
   15.32444477  119.82399750    0.75000000    1.75000000
   15.32777786  132.89199829    0.75000000    1.75000000
   15.33111095  138.30299377    0.75000000    1.75000000
   15.33416653  146.36900330    0.75000000    1.75000000
   15.33749962  154.44599915    0.75000000    1.75000000
   15.33972168  167.88999939    0.75000000    1.75000000
   15.34111118  133.50799561    0.75000000    1.75000000
   15.34416676  145.16299438    0.75000000    1.75000000
   15.35027790  145.16299438    0.75000000    1.75000000
   15.35444450  272.42800903    0.75000000    1.75000000
   15.35777855  251.42300415    0.75000000    1.75000000
   15.36083412  229.08500671    0.75000000    1.75000000
   15.36416721  216.40299988    0.75000000    1.75000000
   15.36722279  319.00000000    0.75000000    1.75000000
   15.37055588  371.01400757    0.75000000    1.75000000
   15.37305546  234.45899963    0.75000000    1.75000000
   15.37416649  259.98001099    0.75000000    1.75000000
   15.37722206  133.97200012    0.75000000    1.75000000
   15.38055611  125.67900085    0.75000000    1.75000000
   15.38388920  124.98300171    0.75000000    1.75000000
   15.38694477  116.11599731    0.75000000    1.75000000
   15.39305496  116.11599731    0.75000000    1.75000000
   15.39722252  115.76899719    0.75000000    1.75000000
   15.40055561  117.44100189    0.75000000    1.75000000
   15.40361118  119.09799957    0.75000000    1.75000000
   15.40638828  114.21700287    0.75000000    1.75000000
   15.40749931  111.40000153    0.75000000    1.75000000
   15.41055489  112.91799927    0.75000000    1.75000000
   15.41388893  115.77300262    0.75000000    1.75000000
   15.41722298  109.92700195    0.75000000    1.75000000
   15.42027855  112.02600098    0.75000000    1.75000000
   15.42361164  106.86699677    0.75000000    1.75000000
   15.42666721  116.32599640    0.75000000    1.75000000
   15.43000031  114.28600311    0.75000000    1.75000000
   15.43611145  114.28600311    0.75000000    1.75000000
   15.44000053  112.66000366    0.75000000    1.75000000
   15.44333363  115.44999695    0.75000000    1.75000000
   15.44666672  112.48699951    0.75000000    1.75000000
   15.44999981  111.72699738    0.75000000    1.75000000
   15.45305538  114.61399841    0.75000000    1.75000000
   15.45638847  118.57299805    0.75000000    1.75000000
   15.45972157  107.71700287    0.75000000    1.75000000
   15.46277714  118.40699768    0.75000000    1.75000000
   15.46611118  120.64199829    0.75000000    1.75000000
   15.46916580  114.01200104    0.75000000    1.75000000
   15.47249985  121.56300354    0.75000000    1.75000000
   15.47305489  117.37799835    0.75000000    1.75000000
   15.47888851  117.37799835    0.75000000    1.75000000
   15.48305511  137.88800049    0.75000000    1.75000000
   15.48611164  131.95100403    0.75000000    1.75000000
   15.48944473  170.37500000    0.75000000    1.75000000
   15.49277782  161.75500488    0.75000000    1.75000000
   15.49583340  180.31399536    0.75000000    1.75000000
   15.49916649  202.68699646    0.75000000    1.75000000
   15.50222206  281.51901245    0.75000000    1.75000000
   15.50555515  191.70599365    0.75000000    1.75000000
   15.50638866  186.18899536    0.75000000    1.75000000
   15.50916672  238.66999817    0.75000000    1.75000000
   15.51222229  153.15299988    0.75000000    1.75000000
   15.51555538  153.45300293    0.75000000    1.75000000
   15.52166653  153.45300293    0.75000000    1.75000000
   15.52583313  129.80299377    0.75000000    1.75000000
   15.52916622  121.38800049    0.75000000    1.75000000
   15.53222179  134.21400452    0.75000000    1.75000000
   15.53555584  120.31700134    0.75000000    1.75000000
   15.53861141  140.86700439    0.75000000    1.75000000
   15.53972244  130.56199646    0.75000000    1.75000000
   15.54250050  130.58900452    0.75000000    1.75000000
   15.54555607  146.06599426    0.75000000    1.75000000
   15.54888916  142.50199890    0.75000000    1.75000000
   15.55222225  201.75700378    0.75000000    1.75000000
   15.55527782  194.03999329    0.75000000    1.75000000
   15.55861092  138.67900085    0.75000000    1.75000000
   15.56444454  138.67900085    0.75000000    1.75000000
   15.56861115  163.51100159    0.75000000    1.75000000
   15.57194424  153.61900330    0.75000000    1.75000000
   15.57305527  125.34400177    0.75000000    1.75000000
   15.57555580  121.39099884    0.75000000    1.75000000
   15.57861137  119.95999908    0.75000000    1.75000000
   15.58194447  119.13099670    0.75000000    1.75000000
   15.58527756  112.48300171    0.75000000    1.75000000
   15.58833313  110.01000214    0.75000000    1.75000000
   15.59166622  114.89600372    0.75000000    1.75000000
   15.59499931  113.78199768    0.75000000    1.75000000
   15.59805489  113.26699829    0.75000000    1.75000000
   15.60138893  118.49700165    0.75000000    1.75000000
   15.60750008  118.49700165    0.75000000    1.75000000
   15.61138916  111.90899658    0.75000000    1.75000000
   15.61472225  111.14800262    0.75000000    1.75000000
   15.61805534  115.64900208    0.75000000    1.75000000
   15.62111092  111.41999817    0.75000000    1.75000000
   15.62444496  113.54199982    0.75000000    1.75000000
   15.62777805  114.95300293    0.75000000    1.75000000
   15.63083363  115.56199646    0.75000000    1.75000000
   15.63416672  118.13800049    0.75000000    1.75000000
   15.63722229  112.92800140    0.75000000    1.75000000
   15.63972187  116.42099762    0.75000000    1.75000000
   15.64111137  113.79900360    0.75000000    1.75000000
   15.64444447  111.48799896    0.75000000    1.75000000
   15.65027714  111.48799896    0.75000000    1.75000000
   15.65444374  114.34999847    0.75000000    1.75000000
   15.65749931  109.02200317    0.75000000    1.75000000
   15.66083336  108.70099640    0.75000000    1.75000000
   15.66416645  114.30599976    0.75000000    1.75000000
   15.66722298  114.60900116    0.75000000    1.75000000
   15.67055607  122.95600128    0.75000000    1.75000000
   15.67305565  113.46399689    0.75000000    1.75000000
   15.67416668  115.81300354    0.75000000    1.75000000
   15.67750072  112.85800171    0.75000000    1.75000000
   15.68055630  115.49199677    0.75000000    1.75000000
   15.68388939  119.04699707    0.75000000    1.75000000
   15.68694496  111.13600159    0.75000000    1.75000000
   15.69305515  111.13600159    0.75000000    1.75000000
   15.69722271  112.21700287    0.75000000    1.75000000
   15.70055580  112.73799896    0.75000000    1.75000000
   15.70361137  114.05300140    0.75000000    1.75000000
   15.70638847  116.98300171    0.75000000    1.75000000
   15.70722198  114.75000000    0.75000000    1.75000000
   15.71027756  116.50299835    0.75000000    1.75000000
   15.71361065  110.61499786    0.75000000    1.75000000
   15.71694374  111.11100006    0.75000000    1.75000000
   15.71999931  111.00599670    0.75000000    1.75000000
   15.72333336  110.23400116    0.75000000    1.75000000
   15.72666645  113.01699829    0.75000000    1.75000000
   15.72972202  110.98600006    0.75000000    1.75000000
   15.73583317  110.98600006    0.75000000    1.75000000
   15.74000072  112.24400330    0.75000000    1.75000000
   15.74333382  109.43000031    0.75000000    1.75000000
   15.74666691  114.70700073    0.75000000    1.75000000
   15.74972248  111.99600220    0.75000000    1.75000000
   15.75305557  113.47499847    0.75000000    1.75000000
   15.75611115  110.01300049    0.75000000    1.75000000
   15.75944424  113.24900055    0.75000000    1.75000000
   15.76277733  111.61299896    0.75000000    1.75000000
   15.76583290  115.09899902    0.75000000    1.75000000
   15.76916599  115.39099884    0.75000000    1.75000000
   15.77250004  114.10700226    0.75000000    1.75000000
   15.77305508  109.28600311    0.75000000    1.75000000
   15.77888870  109.28600311    0.75000000    1.75000000
   15.78277779  109.76200104    0.75000000    1.75000000
   15.78611183  115.09899902    0.75000000    1.75000000
   15.78944492  109.50599670    0.75000000    1.75000000
   15.79250050  107.63200378    0.75000000    1.75000000
   15.79583359  110.10800171    0.75000000    1.75000000
   15.79916668  109.69699860    0.75000000    1.75000000
   15.80249977  109.25199890    0.75000000    1.75000000
   15.80555534  108.76999664    0.75000000    1.75000000
   15.80638885  109.97000122    0.75000000    1.75000000
   15.80916691  110.87899780    0.75000000    1.75000000
   15.81250000  112.56099701    0.75000000    1.75000000
   15.81555557  118.94100189    0.75000000    1.75000000
   15.82166672  118.94100189    0.75000000    1.75000000
   15.82583332  114.97399902    0.75000000    1.75000000
   15.82888889  112.98899841    0.75000000    1.75000000
   15.83222198  118.56600189    0.75000000    1.75000000
   15.83555508  152.81399536    0.75000000    1.75000000
   15.83861065   -1.00000000    0.75000000    1.75000000
   15.84222221   -1.00000000    0.75000000    1.75000000
   15.84527779  121.50800323    0.75000000    1.75000000
   15.84861088  121.00499725    0.75000000    1.75000000
   15.85194492  119.80699921    0.75000000    1.75000000
   15.85500050  117.82700348    0.75000000    1.75000000
   15.85833359  114.42700195    0.75000000    1.75000000
   15.86444473  114.42700195    0.75000000    1.75000000
   15.86861134  116.26999664    0.75000000    1.75000000
   15.87194443  118.80699921    0.75000000    1.75000000
   15.87305546  121.30799866    0.75000000    1.75000000
   15.87555599  112.33699799    0.75000000    1.75000000
   15.87888908  136.04200745    0.75000000    1.75000000
   15.88194466  117.47699738    0.75000000    1.75000000
   15.88527775  113.66400146    0.75000000    1.75000000
   15.88833332  123.69799805    0.75000000    1.75000000
   15.89166641  117.47799683    0.75000000    1.75000000
   15.89499950  114.31099701    0.75000000    1.75000000
   15.89805508  119.96900177    0.75000000    1.75000000
   15.90138817  120.10500336    0.75000000    1.75000000
   15.90722179  120.10500336    0.75000000    1.75000000
   15.91138840  137.75399780    0.75000000    1.75000000
   15.91472149  131.13999939    0.75000000    1.75000000
   15.91777802  118.55999756    0.75000000    1.75000000
   15.92111111  118.06900024    0.75000000    1.75000000
   15.92444515  127.58699799    0.75000000    1.75000000
   15.92750072  130.67199707    0.75000000    1.75000000
   15.93083382  132.88900757    0.75000000    1.75000000
   15.93416691  136.68299866    0.75000000    1.75000000
   15.93722248  126.09100342    0.75000000    1.75000000
   15.93972206  120.52100372    0.75000000    1.75000000
   15.96055508  120.52100372    0.75000000    1.75000000
   15.96444416  123.07299805    0.75000000    1.75000000
   15.96777725  126.52400208    0.75000000    1.75000000
   15.97111034  156.97999573    0.75000000    1.75000000
   15.97305489  135.94599915    0.75000000    1.75000000
   15.97472191  153.61099243    0.75000000    1.75000000
   15.97805500  149.90299988    0.75000000    1.75000000
   15.98138809  164.86399841    0.75000000    1.75000000
   15.98444462  157.03399658    0.75000000    1.75000000
   15.98777771  151.54699707    0.75000000    1.75000000
   15.99083328  174.17100525    0.75000000    1.75000000
   15.99416733  140.80900574    0.75000000    1.75000000
   15.99750042  148.49400330    0.75000000    1.75000000
   16.00305557  148.49400330    0.75000000    1.75000000
   16.00722313  145.58900452    0.75000000    1.75000000
   16.01055527  138.85699463    0.75000000    1.75000000
   16.01361084  143.24800110    0.75000000    1.75000000
   16.01694489  150.28999329    0.75000000    1.75000000
   16.02027702  135.91200256    0.75000000    1.75000000
   16.02333260  150.22999573    0.75000000    1.75000000
   16.02666664  143.85200500    0.75000000    1.75000000
   16.03000069  130.93800354    0.75000000    1.75000000
   16.03305435  146.11199951    0.75000000    1.75000000
   16.03638840  131.68200684    0.75000000    1.75000000
   16.03944397  113.60600281    0.75000000    1.75000000
   16.03999901  118.21199799    0.75000000    1.75000000
   16.04611015  118.21199799    0.75000000    1.75000000
   16.04999924  126.12799835    0.75000000    1.75000000
   16.05333328  117.75299835    0.75000000    1.75000000
   16.05666542  114.31600189    0.75000000    1.75000000
   16.05972099  138.07000732    0.75000000    1.75000000
   16.06305504  122.67800140    0.75000000    1.75000000
   16.06638718  112.04499817    0.75000000    1.75000000
   16.06944466  119.03399658    0.75000000    1.75000000
   16.07277870  113.81999969    0.75000000    1.75000000
   16.07333374  112.37300110    0.75000000    1.75000000
   16.07638931  121.55200195    0.75000000    1.75000000
   16.07972336  116.11199951    0.75000000    1.75000000
   16.08277893  118.55300140    0.75000000    1.75000000
   16.08889008  118.55300140    0.75000000    1.75000000
   16.09305573  116.03399658    0.75000000    1.75000000
   16.09611130  117.18699646    0.75000000    1.75000000
   16.09944534  114.86299896    0.75000000    1.75000000
   16.10277748  117.46099854    0.75000000    1.75000000
   16.10583305  114.60700226    0.75000000    1.75000000
   16.10666656  115.37200165    0.75000000    1.75000000
   16.10944557  118.69999695    0.75000000    1.75000000
   16.11277771  114.93199921    0.75000000    1.75000000
   16.11583328  119.26100159    0.75000000    1.75000000
   16.11916733  117.92199707    0.75000000    1.75000000
   16.12222290  116.67800140    0.75000000    1.75000000
   16.12555504  123.30200195    0.75000000    1.75000000
   16.13166618  123.30200195    0.75000000    1.75000000
   16.13583374  117.68299866    0.75000000    1.75000000
   16.13916588  113.65599823    0.75000000    1.75000000
   16.13999939  118.74700165    0.75000000    1.75000000
   16.14277840  153.95199585    0.75000000    1.75000000
   16.14611053  132.53999329    0.75000000    1.75000000
   16.14916611  146.48699951    0.75000000    1.75000000
   16.15250015  143.84700012    0.75000000    1.75000000
   16.15555573  161.28900146    0.75000000    1.75000000
   16.15888786  140.49299622    0.75000000    1.75000000
   16.16222191  123.50299835    0.75000000    1.75000000
   16.16527748  121.61799622    0.75000000    1.75000000
   16.16860962  134.17199707    0.75000000    1.75000000
   16.17444420  134.17199707    0.75000000    1.75000000
   16.17860985  117.23100281    0.75000000    1.75000000
   16.18194389  115.91500092    0.75000000    1.75000000
   16.18499947  118.61599731    0.75000000    1.75000000
   16.18833160  111.05400085    0.75000000    1.75000000
   16.19166565  115.34999847    0.75000000    1.75000000
   16.19472122  109.84500122    0.75000000    1.75000000
   16.19805527  112.25800323    0.75000000    1.75000000
   16.20138931  116.12899780    0.75000000    1.75000000
   16.20444489  118.82199860    0.75000000    1.75000000
   16.20666695  113.13200378    0.75000000    1.75000000
   16.20805550  113.62500000    0.75000000    1.75000000
   16.21138954  114.74800110    0.75000000    1.75000000
   16.21750069  114.74800110    0.75000000    1.75000000
   16.22138977  115.49500275    0.75000000    1.75000000
   16.22472191  111.21800232    0.75000000    1.75000000
   16.22805595  112.64399719    0.75000000    1.75000000
   16.23111153  112.31099701    0.75000000    1.75000000
   16.23444557  113.73300171    0.75000000    1.75000000
   16.23777771  111.69200134    0.75000000    1.75000000
   16.23999977  114.55899811    0.75000000    1.75000000
   16.24138832  113.84799957    0.75000000    1.75000000
   16.24472237  114.08499908    0.75000000    1.75000000
   16.24777794  115.79699707    0.75000000    1.75000000
   16.25111198  114.70700073    0.75000000    1.75000000
   16.25416756  111.52400208    0.75000000    1.75000000
   16.26027870  111.52400208    0.75000000    1.75000000
   16.26444435  114.49600220    0.75000000    1.75000000
   16.26749992  113.72699738    0.75000000    1.75000000
   16.27083397  117.21199799    0.75000000    1.75000000
   16.27333260  112.83999634    0.75000000    1.75000000
   16.27444458  117.75099945    0.75000000    1.75000000
   16.27777672  119.65399933    0.75000000    1.75000000
   16.28083229  109.06099701    0.75000000    1.75000000
   16.28416634  114.72699738    0.75000000    1.75000000
   16.28722191  112.26000214    0.75000000    1.75000000
   16.29055595  113.82700348    0.75000000    1.75000000
   16.29388809  116.15000153    0.75000000    1.75000000
   16.29694366  113.49199677    0.75000000    1.75000000
   16.30305481  113.49199677    0.75000000    1.75000000
   16.30722237  113.27300262    0.75000000    1.75000000
   16.31055450  111.66699982    0.75000000    1.75000000
   16.31361008  112.88099670    0.75000000    1.75000000
   16.31694603  119.20400238    0.75000000    1.75000000
   16.32000160  114.48799896    0.75000000    1.75000000
   16.32333374  115.05899811    0.75000000    1.75000000
   16.32666779  116.36499786    0.75000000    1.75000000
   16.32972336  116.84100342    0.75000000    1.75000000
   16.33305550  122.76499939    0.75000000    1.75000000
   16.33638954  113.18699646    0.75000000    1.75000000
   16.33944511  126.21099854    0.75000000    1.75000000
   16.34000015  113.79100037    0.75000000    1.75000000
   16.34583473  113.79100037    0.75000000    1.75000000
   16.35000038  114.45099640    0.75000000    1.75000000
   16.35333443  110.56999969    0.75000000    1.75000000
   16.35639000  115.27400208    0.75000000    1.75000000
   16.35972214  111.13899994    0.75000000    1.75000000
   16.36305618  110.70099640    0.75000000    1.75000000
   16.36611176  112.18199921    0.75000000    1.75000000
   16.36944389  113.23999786    0.75000000    1.75000000
   16.37277794  113.85299683    0.75000000    1.75000000
   16.37333298  109.72000122    0.75000000    1.75000000
   16.37611198  113.27200317    0.75000000    1.75000000
   16.37944412  109.87500000    0.75000000    1.75000000
   16.38249969  110.82399750    0.75000000    1.75000000
   16.38888931  110.82399750    0.75000000    1.75000000
   16.39277840  113.53500366    0.75000000    1.75000000
   16.39611053  112.86799622    0.75000000    1.75000000
   16.39944458  112.03900146    0.75000000    1.75000000
   16.40250015  119.92900085    0.75000000    1.75000000
   16.40583229  110.48100281    0.75000000    1.75000000
   16.40666580  114.52899933    0.75000000    1.75000000
   16.40944481  112.05999756    0.75000000    1.75000000
   16.41277695  111.10299683    0.75000000    1.75000000
   16.41583252  114.43499756    0.75000000    1.75000000
   16.41916656  116.34300232    0.75000000    1.75000000
   16.42249870  112.16200256    0.75000000    1.75000000
   16.42555428  116.52899933    0.75000000    1.75000000
   16.43166542  116.52899933    0.75000000    1.75000000
   16.43583298  114.97200012    0.75000000    1.75000000
   16.43888855  121.12799835    0.75000000    1.75000000
   16.43999863  117.34200287    0.75000000    1.75000000
   16.44249916  117.23400116    0.75000000    1.75000000
   16.44583321  117.45200348    0.75000000    1.75000000
   16.44888878  115.39700317    0.75000000    1.75000000
   16.45222282  127.32499695    0.75000000    1.75000000
   16.45555687  127.25800323    0.75000000    1.75000000
   16.45861244  124.45099640    0.75000000    1.75000000
   16.46194458  134.06799316    0.75000000    1.75000000
   16.46500015  120.87000275    0.75000000    1.75000000
   16.46833420  138.95199585    0.75000000    1.75000000
   16.47444534  138.95199585    0.75000000    1.75000000
   16.47861099  117.30100250    0.75000000    1.75000000
   16.48194504  113.94499969    0.75000000    1.75000000
   16.48500061  111.83999634    0.75000000    1.75000000
   16.48833275  115.84400177    0.75000000    1.75000000
   16.49138832  116.87200165    0.75000000    1.75000000
   16.49472237  118.18699646    0.75000000    1.75000000
   16.49805641  110.70300293    0.75000000    1.75000000
   16.50111198  156.43299866    0.75000000    1.75000000
   16.50444412  111.19599915    0.75000000    1.75000000
   16.50694466  123.46099854    0.75000000    1.75000000
   16.50805473  114.58000183    0.75000000    1.75000000
   16.51138878  112.23100281    0.75000000    1.75000000
   16.51722145  112.23100281    0.75000000    1.75000000
   16.52138901  154.23599243    0.75000000    1.75000000
   16.52472115  117.63400269    0.75000000    1.75000000
   16.52777672  111.61199951    0.75000000    1.75000000
   16.53111076  194.12699890    0.75000000    1.75000000
   16.53444481  123.29299927    0.75000000    1.75000000
   16.53750038  261.72299194    0.75000000    1.75000000
   16.53999901  275.66598511    0.75000000    1.75000000
   16.54111099  184.48300171    0.75000000    1.75000000
   16.54444313   -1.00000000    0.75000000    1.75000000
   16.54749870   30.24180031    0.75000000    1.75000000
   16.55083275   -1.00000000    0.75000000    1.75000000
   16.55416679   -1.00000000    0.75000000    1.75000000
   16.56027794   -1.00000000    0.75000000    1.75000000
   16.56444359  206.85000610    0.75000000    1.75000000
   16.56750107   -1.00000000    0.75000000    1.75000000
   16.57083511   -1.00000000    0.75000000    1.75000000
   16.57444572   -1.00000000    0.75000000    1.75000000
   16.57777786   -1.00000000    0.75000000    1.75000000
   16.58083344   -1.00000000    0.75000000    1.75000000
   16.58416748  161.15699768    0.75000000    1.75000000
   16.58722305   -1.00000000    0.75000000    1.75000000
   16.59055710   -1.00000000    0.75000000    1.75000000
   16.59388924  114.45800018    0.75000000    1.75000000
   16.59694481  103.12300110    0.75000000    1.75000000
   16.60305595  103.12300110    0.75000000    1.75000000
   16.60722351   -1.00000000    0.75000000    1.75000000
   16.61027908   -1.00000000    0.75000000    1.75000000
   16.61361122   -1.00000000    0.75000000    1.75000000
   16.61694527   -1.00000000    0.75000000    1.75000000
   16.62000084   -1.00000000    0.75000000    1.75000000
   16.62333298   -1.00000000    0.75000000    1.75000000
   16.62638855  265.98999023    0.75000000    1.75000000
   16.62972260   -1.00000000    0.75000000    1.75000000
   16.63305473   -1.00000000    0.75000000    1.75000000
   16.63611031   -1.00000000    0.75000000    1.75000000
   16.63944435  205.87800598    0.75000000    1.75000000
   16.63999939  214.05000305    0.75000000    1.75000000
   16.64583397  214.05000305    0.75000000    1.75000000
   16.64999962  330.18701172    0.75000000    1.75000000
   16.65333366  284.98599243    0.75000000    1.75000000
   16.65638924   -1.00000000    0.75000000    1.75000000
   16.65972137   -1.00000000    0.75000000    1.75000000
   16.66277695  117.04199982    0.75000000    1.75000000
   16.66611099   -1.00000000    0.75000000    1.75000000
   16.66944313   -1.00000000    0.75000000    1.75000000
   16.67249870   -1.00000000    0.75000000    1.75000000
   16.67611122   -1.00000000    0.75000000    1.75000000
   16.67944336  112.43399811    0.75000000    1.75000000
   16.68249893   -1.00000000    0.75000000    1.75000000
   16.68861008   -1.00000000    0.75000000    1.75000000
   16.69277763  196.26699829    0.75000000    1.75000000
   16.69610977  143.21299744    0.75000000    1.75000000
   16.69916534  116.75800323    0.75000000    1.75000000
   16.70250130  115.72699738    0.75000000    1.75000000
   16.70583344  122.85099792    0.75000000    1.75000000
   16.70666695  124.03199768    0.75000000    1.75000000
   16.70916748  119.80699921    0.75000000    1.75000000
   16.71250153  117.31500244    0.75000000    1.75000000
   16.71555710  118.78600311    0.75000000    1.75000000
   16.71888924  119.04399872    0.75000000    1.75000000
   16.72222328  114.35600281    0.75000000    1.75000000
   16.72527885  115.10399628    0.75000000    1.75000000
   16.73166656  115.10399628    0.75000000    1.75000000
   16.73555565  187.49499512    0.75000000    1.75000000
   16.73888969  197.79200745    0.75000000    1.75000000
   16.74027824  236.69599915    0.75000000    1.75000000
   16.74250031  145.04899597    0.75000000    1.75000000
   16.74583435  159.21400452    0.75000000    1.75000000
   16.74888992  154.49699402    0.75000000    1.75000000
   16.75222206  188.78399658    0.75000000    1.75000000
   16.75555611  130.29100037    0.75000000    1.75000000
   16.75861168  125.53700256    0.75000000    1.75000000
   16.76194382  112.64099884    0.75000000    1.75000000
   16.76527786  120.33100128    0.75000000    1.75000000
   16.76833344  114.63600159    0.75000000    1.75000000
   16.77444458  114.63600159    0.75000000    1.75000000
   16.77861023  113.05300140    0.75000000    1.75000000
   16.78166580  115.45300293    0.75000000    1.75000000
   16.78499985  114.75299835    0.75000000    1.75000000
   16.78833199  113.11599731    0.75000000    1.75000000
   16.79138756  113.15599823    0.75000000    1.75000000
   16.79472160  113.54100037    0.75000000    1.75000000
   16.79777718  113.73400116    0.75000000    1.75000000
   16.80111122  112.07099915    0.75000000    1.75000000
   16.80444336  115.06199646    0.75000000    1.75000000
   16.80694389  113.94300079    0.75000000    1.75000000
   16.80777740  119.50099945    0.75000000    1.75000000
   16.81110954  116.11499786    0.75000000    1.75000000
   16.81722260  116.11499786    0.75000000    1.75000000
   16.82139015  116.07800293    0.75000000    1.75000000
   16.82472229  113.77600098    0.75000000    1.75000000
   16.82777786  113.46800232    0.75000000    1.75000000
   16.83111191  112.04699707    0.75000000    1.75000000
   16.83416748  119.07299805    0.75000000    1.75000000
   16.83750153  112.53199768    0.75000000    1.75000000
   16.84027863  112.43599701    0.75000000    1.75000000
   16.84111214  115.58999634    0.75000000    1.75000000
   16.84444427  116.30599976    0.75000000    1.75000000
   16.84749985  117.31800079    0.75000000    1.75000000
   16.85083389  119.70400238    0.75000000    1.75000000
   16.85416794  114.86900330    0.75000000    1.75000000
   16.86000061  114.86900330    0.75000000    1.75000000
   16.86416626  113.64399719    0.75000000    1.75000000
   16.86750031  112.42900085    0.75000000    1.75000000
   16.87055588  117.18800354    0.75000000    1.75000000
   16.87361145  115.48699951    0.75000000    1.75000000
   16.87416649  115.86599731    0.75000000    1.75000000
   16.87750053  114.94400024    0.75000000    1.75000000
   16.88055611  112.96299744    0.75000000    1.75000000
   16.88388824  111.75099945    0.75000000    1.75000000
   16.88722229  113.19300079    0.75000000    1.75000000
   16.89027786  110.61900330    0.75000000    1.75000000
   16.89361191  113.89199829    0.75000000    1.75000000
   16.89694405  117.76200104    0.75000000    1.75000000
   16.90305519  117.76200104    0.75000000    1.75000000
   16.90694427  112.04499817    0.75000000    1.75000000
   16.91027832  116.56199646    0.75000000    1.75000000
   16.91361046  110.22599792    0.75000000    1.75000000
   16.91666603  109.79199982    0.75000000    1.75000000
   16.92000008  118.51999664    0.75000000    1.75000000
   16.92333221  113.26200104    0.75000000    1.75000000
   16.92638779  114.21600342    0.75000000    1.75000000
   16.92972183  110.78900146    0.75000000    1.75000000
   16.93277740  115.06400299    0.75000000    1.75000000
   16.93610954  111.19400024    0.75000000    1.75000000
   16.93944359  109.87000275    0.75000000    1.75000000
   16.94027710  110.33599854    0.75000000    1.75000000
   16.94583321  110.33599854    0.75000000    1.75000000
   16.95000076  115.70999908    0.75000000    1.75000000
   16.95305634  109.03900146    0.75000000    1.75000000
   16.95639038  108.95899963    0.75000000    1.75000000
   16.97389030  115.82800293    0.75000000    1.75000000
   16.97638893  109.70099640    0.75000000    1.75000000
   16.97944450  116.18000031    0.75000000    1.75000000
   16.98277855  112.54699707    0.75000000    1.75000000
   16.98861122  112.54699707    0.75000000    1.75000000
   16.99277878  118.62899780    0.75000000    1.75000000
   16.99611092  111.86100006    0.75000000    1.75000000
   16.99944496  117.80799866    0.75000000    1.75000000
   17.00250053  132.50300598    0.75000000    1.75000000
   17.00583267  134.81199646    0.75000000    1.75000000
   17.00722313  136.93400574    0.75000000    1.75000000
   17.00944519  167.55700684    0.75000000    1.75000000
   17.01277733  160.48599243    0.75000000    1.75000000
   17.01583290  134.18699646    0.75000000    1.75000000
   17.01916695  121.47399902    0.75000000    1.75000000
   17.02249908  142.69400024    0.75000000    1.75000000
   17.02555466  117.07299805    0.75000000    1.75000000
   17.03166580  117.07299805    0.75000000    1.75000000
   17.03583336  155.75300598    0.75000000    1.75000000
   17.03888893   -1.00000000    0.75000000    1.75000000
   17.04249954   -1.00000000    0.75000000    1.75000000
   17.04583359   -1.00000000    0.75000000    1.75000000
   17.04888916   -1.00000000    0.75000000    1.75000000
   17.05222130   -1.00000000    0.75000000    1.75000000
   17.05555534   -1.00000000    0.75000000    1.75000000
   17.05861092   -1.00000000    0.75000000    1.75000000
   17.06194305   -1.00000000    0.75000000    1.75000000
   17.06499863   -1.00000000    0.75000000    1.75000000
   17.06833458   -1.00000000    0.75000000    1.75000000
   17.07861137   -1.00000000    0.75000000    1.75000000
   17.08166695   -1.00000000    0.75000000    1.75000000
   17.08500099   -1.00000000    0.75000000    1.75000000
   17.08833313   -1.00000000    0.75000000    1.75000000
   17.09138870   -1.00000000    0.75000000    1.75000000
   17.09472275   -1.00000000    0.75000000    1.75000000
   17.09805679   -1.00000000    0.75000000    1.75000000
   17.10111237   -1.00000000    0.75000000    1.75000000
   17.10444450   -1.00000000    0.75000000    1.75000000
   17.10805511   -1.00000000    0.75000000    1.75000000
