    HOUR (UT)   FLARE FACTOR    SKY TESTER    SUN TESTER
   11.47444439   -1.00000000   -1.00000000   -1.00000000
   11.49416733  167.29699707    4.90999985    2.34999990
   11.49972248  155.67599487    4.90999985    2.36999989
   11.50333309  172.60800171    4.90999985    2.34999990
   11.50666714  170.53500366    4.90999985    2.36999989
   11.50972176  181.54699707    4.90999985    2.34999990
   11.51305580  175.79899597    4.90999985    2.34999990
   11.51638889  167.48899841    4.90999985    2.34999990
   11.51944447  155.90699768    4.90999985    2.34999990
   11.52277756  157.89599609    4.90999985    2.34999990
   11.52583313  162.94099426    4.90999985    2.34999990
   11.52750015  168.10400391    4.90999985    2.34999990
   11.52972221  165.66600037    4.90999985    2.34999990
   11.53277779  163.45599365    4.90999985    2.36999989
   11.53611183  168.36999512    4.90999985    2.36999989
   11.53944492  149.55099487    4.90999985    2.36999989
   11.54250050  154.55400085    4.90999985    2.36999989
   11.54583359  149.04499817    4.90999985    2.39000010
   11.54916668  134.97599792    4.90999985    2.28999996
   11.55222225  224.63099670    4.90999985    2.09999990
   11.55555534  163.06599426    4.90999985    2.03999996
   11.55861092  171.72300720    4.73999977    2.28999996
   11.56083393  141.88000488    4.46999979    2.36999989
   11.56250000  150.48199463    4.34999990    2.36999989
   11.56555557  143.66499329    4.01999998    2.36999989
   11.56888866  144.84300232    3.45000005    2.34999990
   11.57222176  153.33999634    2.93000007    2.36999989
   11.57527733  150.60499573    2.51999998    2.34999990
   11.57861137  155.40199280    2.17000008    2.36999989
   11.58194447  152.41700745    1.78999996    2.36999989
   11.58500004  153.40299988    1.66999996    2.36999989
   11.58833313  157.00900269    1.05999994    2.36999989
   11.59138870  165.49800110    0.75000000    2.36999989
   11.59416676  169.87899780    0.56999999    2.36999989
   11.59527779  158.32600403    0.56999999    2.36999989
   11.59833336  168.03500366    0.55000001    2.36999989
   11.60166740  161.13400269    0.56999999    2.36999989
   11.60500050  160.08399963    0.58999997    2.36999989
   11.60805607  176.45300293    0.63000000    2.36999989
   11.61138916  148.18699646    0.67000002    2.36999989
   11.61472225  164.01699829    0.69000000    2.36999989
   11.61777782  153.54100037    0.76999998    2.36999989
   11.62111092  142.64999390    0.81999999    2.36999989
   11.62416649  151.63299561    0.83999997    2.36999989
   11.62750053  154.25799561    1.30999994    2.36999989
   11.62805557  146.16200256    1.30999994    2.36999989
   11.63111115  167.08799744    1.55999994    2.36999989
   11.63444424  153.77900696    1.71000004    2.36999989
   11.63777733  151.68800354    1.73000002    2.36999989
   11.64083290  152.52099609    1.75000000    2.36999989
   11.64416695  147.87800598    1.76999998    2.39000010
   11.64750004  155.56300354    1.73000002    2.39000010
   11.65055561  155.31799316    1.71000004    2.39000010
   11.65388870  154.73899841    1.61000001    2.39000010
   11.65694427  177.30599976    1.71000004    2.34999990
   11.66027737  149.99099731    2.17000008    2.36999989
   11.66138840  148.87800598    2.28999996    2.36999989
   11.66388893  157.56900024    2.53999996    2.39000010
   11.66722298  149.78100586    2.78999996    2.39000010
   11.67055607  144.71000671    2.98000002    2.39000010
   11.67361164  152.71800232    3.16000009    2.40000010
   11.67694473  140.09500122    3.59999990    2.42000008
   11.68027782  152.73399353    3.70000005    2.39000010
   11.68333340  195.25000000    3.61999989    2.19000006
   11.68666649  207.77299500    3.46000004    2.09999990
   11.68972206  166.61900330    3.30999994    2.19000006
   11.69305515  149.99200439    3.09999990    2.30999994
   11.69472218  149.25399780    2.94000006    2.36999989
   11.69666672  139.59199524    2.78999996    2.39000010
   11.69999981  155.15199280    2.55999994    2.40000010
   11.70333290  153.89300537    2.26999998    2.36999989
   11.70638847  148.88900757    2.09999990    2.34999990
   11.70972157  153.69799805    1.71000004    2.36999989
   11.71277714  144.36300659    1.41999996    2.39000010
   11.71611118  134.72799683    1.21000004    2.40000010
   11.71944427  140.33999634    1.13000000    2.40000010
   11.72249985  136.00900269    1.13000000    2.40000010
   11.72583294  136.49699402    1.13000000    2.40000010
   11.72861099  131.50300598    0.00000000    0.00000000
   11.73027706  143.81399536    0.00000000    0.00000000
   11.73388958  144.14399719    0.00000000    0.00000000
   11.73777771  147.69099426    0.00000000    0.00000000
   11.74166679  144.05499268    0.00000000    0.00000000
   11.74555588  136.49699402    0.00000000    0.00000000
   11.74944496  140.01899719    0.00000000    0.00000000
   11.75333309  135.95599365    0.00000000    0.00000000
   11.75666714  150.84399414    1.13000000    2.40000010
   11.75972176  140.59300232    1.13000000    2.40000010
   11.76194477  139.37100220    1.13000000    2.40000010
   11.76416683  142.71299744    1.13000000    2.40000010
   11.76749992  142.61599731    1.13000000    2.40000010
   11.77055550  136.70899963    1.13000000    2.40000010
   11.77388859  136.26800537    1.13000000    2.40000010
   11.77722168  147.15699768    1.13000000    2.40000010
   11.78027725  146.20700073    1.09000003    2.40000010
   11.78361130  136.98800659    1.05999994    2.40000010
   11.78666687  147.39700317    0.44000000    2.44000006
   11.79000092  143.95100403    0.44000000    2.44000006
   11.79333401  143.74800110    0.44000000    2.44000006
   11.79472256  147.14900208    0.44000000    2.44000006
   11.79666710  143.14100647    0.44000000    2.44000006
   11.80000019  147.90199280    0.44000000    2.44000006
   11.80333328  139.10299683    0.44000000    2.44000006
   11.80638885  138.50000000    0.44000000    2.44000006
   11.80972195  142.84800720    0.44000000    2.44000006
   11.81305599  147.90800476    0.44000000    2.44000006
   11.81611156  144.61300659    0.44000000    2.44000006
   11.81944466  149.17399597    0.44000000    2.46000004
   11.82250023  154.29499817    0.44000000    2.44000006
   11.82583332  154.67100525    0.44000000    2.44000006
   11.82805538  144.46600342    0.44000000    2.44000006
   11.82944393  155.02900696    0.44000000    2.46000004
   11.83277798  143.51899719    0.44000000    2.44000006
   11.83611107  147.33399963    0.44000000    2.46000004
   11.83916664  151.11700439    0.44000000    2.46000004
   11.84249973  153.00000000    0.44000000    2.46000004
   11.84583282  150.63699341    0.44000000    2.46000004
   11.84888840  159.82600403    0.44000000    2.46000004
   11.85222244  166.44000244    0.44000000    2.46000004
   11.85527802  165.27499390    0.44000000    2.46000004
   11.85861111  164.44900513    0.44000000    2.46000004
   11.86138916  150.77999878    0.44000000    2.48000002
   11.86222267  163.27200317    0.44000000    2.46000004
   11.86555576  163.91299438    0.44000000    2.48000002
   11.86888885  150.52999878    0.44000000    2.48000002
   11.87194443  154.60000610    0.44000000    2.46000004
   11.87527752  163.86199951    0.44000000    2.48000002
   11.87861156  161.32200623    0.44000000    2.48000002
   11.88166714  155.66299438    0.44000000    2.48000002
   11.88500023  164.94299316    0.44000000    2.48000002
   11.88805580  156.73300171    0.44000000    2.48000002
   11.89138889  151.96299744    0.44000000    2.48000002
   11.89472198  153.92500305    0.44000000    2.48000002
   11.89499950  156.96800232    0.44000000    2.48000002
   11.89833355  149.46499634    0.41999999    2.48000002
   11.90166664  161.91799927    0.41999999    2.48000002
   11.90472221  156.15499878    0.41999999    2.48000002
   11.90805531  139.01499939    0.41999999    2.48000002
   11.91138840  159.60499573    0.41999999    2.48000002
   11.91444397  149.51300049    0.41999999    2.48000002
   11.91777802  160.37300110    0.41999999    2.48000002
   11.92083359  161.01699829    0.41999999    2.48000002
   11.92416668  149.70899963    0.41999999    2.48000002
   11.92750072  156.08000183    0.41999999    2.48000002
   11.92805576  153.94799805    0.41999999    2.48000002
   11.93083382  141.91600037    0.41999999    2.48000002
   11.93416691  145.50799561    0.41999999    2.50000000
   11.93750000  146.91799927    0.41999999    2.50000000
   11.94055557  152.08799744    0.41999999    2.48000002
   11.94388866  145.68499756    0.40000001    2.50000000
   11.94722271  148.71600342    0.40000001    2.50000000
   11.95027733  138.88000488    0.40000001    2.50000000
   11.95361137  145.42799377    0.40000001    2.48000002
   11.95666695  153.91400146    0.40000001    2.50000000
   11.96000004  145.79699707    0.40000001    2.50000000
   11.96138859  146.88499451    0.40000001    2.50000000
   11.96388912  151.37199402    0.40000001    2.50000000
   11.96694374  152.67599487    0.40000001    2.50000000
   11.97027779  152.95100403    0.40000001    2.51999998
   11.97361088  150.43099976    0.40000001    2.50000000
   11.97666645  158.31500244    0.40000001    2.50000000
   11.97999954  146.95899963    0.40000001    2.50000000
   11.98305511  140.74400330    0.40000001    2.50000000
   11.98638916  147.06700134    0.40000001    2.51999998
   11.98972225  146.55900574    0.40000001    2.50000000
   11.99277782  153.40400696    0.40000001    2.50000000
   11.99472237  150.08900452    0.40000001    2.50000000
   11.99666691  145.25500488    0.40000001    2.50000000
   11.99972248  149.57699585    0.40000001    2.51999998
   12.00305557  147.32699585    0.40000001    2.51999998
   12.00611115  183.11399841    0.40000001    2.51999998
   12.00944424  232.16200256    0.40000001    2.51999998
   12.01277733  275.29699707    0.40000001    2.51999998
   12.01583290  249.04699707    0.40000001    2.51999998
   12.01916599  257.32299805    0.40000001    2.51999998
   12.02250004  296.14999390    0.40000001    2.51999998
   12.02555561  179.84599304    0.40000001    2.51999998
   12.02805519  215.13999939    0.40000001    2.51999998
   12.02944374  231.65100098    0.40000001    2.51999998
   12.03249931  218.50599670    0.40000001    2.51999998
   12.03583336  209.41400146    0.40000001    2.53999996
   12.03888893  198.14199829    0.40000001    2.51999998
   12.04222298  207.63299561    0.40000001    2.51999998
   12.04555607  191.24899292    0.40000001    2.51999998
   12.04861164  190.22399902    0.40000001    2.51999998
   12.05194473  210.96200562    0.40000001    2.53999996
   12.05527782  191.36199951    0.40000001    2.53999996
   12.05833340  193.46800232    0.40000001    2.53999996
   12.06138897  172.18400574    0.40000001    2.53999996
   12.06222248  186.07400513    0.40000001    2.53999996
   12.06527805  177.24200439    0.40000001    2.53999996
   12.06861115  180.33999634    0.40000001    2.53999996
   12.07166672  177.72099304    0.40000001    2.53999996
   12.07499981  191.07699585    0.40000001    2.53999996
   12.07833290  189.05799866    0.40000001    2.53999996
   12.08138847  187.50000000    0.40000001    2.53999996
   12.08472157  192.64700317    0.40000001    2.53999996
   12.08805561  212.18099976    0.40000001    2.53999996
   12.09111118  189.63200378    0.38000000    2.53999996
   12.09444427  191.51400757    0.40000001    2.53999996
   12.09499931  171.69200134    0.40000001    2.53999996
   12.09805489  177.82699585    0.40000001    2.53999996
   12.10138893  154.77799988    0.38000000    2.53999996
   12.10444450  183.52000427    0.38000000    2.53999996
   12.10777855  159.76300049    0.38000000    2.53999996
   12.11111164  165.37699890    0.38000000    2.55999994
   12.11416721  171.91400146    0.38000000    2.53999996
   12.11750031  150.44200134    0.38000000    2.55999994
   12.12083340  144.38900757    0.38000000    2.55999994
   12.12388897  149.74200439    0.38000000    2.55999994
   12.12722206  149.92100525    0.38000000    2.55999994
   12.12833309  146.79800415    0.38000000    2.55999994
   12.13055611  156.38000488    0.38000000    2.55999994
   12.13388920  159.66700745    0.38000000    2.55999994
   12.13722229  138.97700500    0.38000000    2.55999994
   12.14027786  151.86799622    0.38000000    2.55999994
   12.14361095  145.52999878    0.38000000    2.55999994
   12.14694405  138.52099609    0.38000000    2.55999994
   12.14999962  146.46699524    0.38000000    2.55999994
   12.15333271  140.45799255    0.38000000    2.55999994
   12.15638828  129.23199463    0.38000000    2.55999994
   12.15972137  141.43800354    0.38000000    2.55999994
   12.16166592  135.61599731    0.38000000    2.55999994
   12.16333294  133.93299866    0.38000000    2.55999994
   12.16666698  134.02400208    0.38000000    2.55999994
   12.17000008  137.31900024    0.38000000    2.55999994
   12.17305565  136.38900757    0.38000000    2.55999994
   12.17638874  138.88900757    0.38000000    2.55999994
   12.17944431  137.70899963    0.38000000    2.57999992
   12.18277836  137.93299866    0.38000000    2.57999992
   12.18611145  133.94900513    0.38000000    2.57999992
   12.18916702  136.52799988    0.38000000    2.55999994
   12.19250011  136.51100159    0.38000000    2.55999994
   12.19499969  132.58299255    0.38000000    2.57999992
   12.19611073  139.12100220    0.38000000    2.57999992
   12.19944477  131.56300354    0.38000000    2.55999994
   12.20277786  135.14300537    0.38000000    2.55999994
   12.20583344  131.93099976    0.38000000    2.55999994
   12.20916653  136.23899841    0.38000000    2.57999992
   12.21249962  131.76400757    0.38000000    2.57999992
   12.21583271  130.93899536    0.38000000    2.57999992
   12.21888828  140.12199402    0.36000001    2.57999992
   12.22222137  134.00799561    0.36000001    2.57999992
   12.22527695  129.83099365    0.36000001    2.57999992
   12.22833252  139.21200562    0.36000001    2.57999992
   12.22888851  129.32200623    0.36000001    2.57999992
   12.23222160  135.57000732    0.38000000    2.57999992
   12.23527813  136.53300476    0.36000001    2.57999992
   12.23861122  135.54600525    0.36000001    2.57999992
   12.24194431  143.13900757    0.36000001    2.57999992
   12.24499989  129.94900513    0.36000001    2.57999992
   12.24833393  135.71600342    0.36000001    2.59999990
   12.25166702  140.05099487    0.36000001    2.59999990
   12.25472260  139.47300720    0.36000001    2.59999990
   12.25805569  134.84599304    0.36000001    2.59999990
   12.26111126  139.10499573    0.36000001    2.59999990
   12.26166630  144.16499329    0.36000001    2.59999990
   12.26472187  140.60200500    0.36000001    2.59999990
   12.26777744  137.44200134    0.36000001    2.59999990
   12.27111053  139.44999695    0.36000001    2.59999990
   12.27444458  135.35699463    0.36000001    2.59999990
   12.27750015  139.04600525    0.36000001    2.59999990
   12.28083324  135.83900452    0.36000001    2.59999990
   12.28416729  138.83099365    0.36000001    2.59999990
   12.28722286  135.00199890    0.36000001    2.59999990
   12.29055595  140.69700623    0.36000001    2.59999990
   12.29361153  141.94400024    0.36000001    2.59999990
   12.29500008  140.69799805    0.36000001    2.59999990
   12.29750061  138.00999451    0.36000001    2.59999990
   12.30083370  136.92799377    0.36000001    2.59999990
   12.30388927  140.84700012    0.36000001    2.59999990
   12.30722237  138.45599365    0.36000001    2.59999990
   12.31027794  142.83399963    0.36000001    2.59999990
   12.31361103  146.78700256    0.36000001    2.59999990
   12.31694412  132.87699890    0.36000001    2.59999990
   12.31999969  142.91299438    0.36000001    2.61999989
   12.32333374  137.48599243    0.36000001    2.59999990
   12.32666683  138.17199707    0.36000001    2.59999990
   12.32833290  137.07899475    0.36000001    2.59999990
   12.33027744  137.37100220    0.36000001    2.59999990
   12.33333302  143.74499512    0.36000001    2.59999990
   12.33666611  138.42999268    0.36000001    2.59999990
   12.34000015  137.88200378    0.36000001    2.59999990
   12.34305477  141.97599792    0.34000000    2.59999990
   12.34638882  140.80400085    0.36000001    2.59999990
   12.34972191  147.17300415    0.36000001    2.59999990
   12.35277843  138.05000305    0.36000001    2.61999989
   12.35611153  136.30000305    0.36000001    2.61999989
   12.35944462  144.01499939    0.36000001    2.61999989
   12.36166668  140.20399475    0.36000001    2.61999989
   12.36305618  144.49200439    0.36000001    2.61999989
   12.36638927  142.46600342    0.36000001    2.61999989
   12.36944485  139.15800476    0.36000001    2.61999989
   12.37277794  135.75700378    0.36000001    2.61999989
   12.37583351  136.25700378    0.36000001    2.61999989
   12.37916660  142.19400024    0.36000001    2.61999989
   12.38249969  146.18600464    0.36000001    2.61999989
   12.38555527  137.57000732    0.36000001    2.61999989
   12.38888836  140.40899658    0.34000000    2.61999989
   12.39222240  139.12199402    0.36000001    2.61999989
   12.39499950  143.53700256    0.36000001    2.61999989
   12.39583302  142.66299438    0.36000001    2.61999989
   12.39916611  135.57600403    0.34000000    2.61999989
   12.40222168  140.12899780    0.34000000    2.61999989
   12.40555477  135.67399597    0.34000000    2.64000010
   12.40861034  138.70300293    0.34000000    2.61999989
   12.41194439  141.26499939    0.34000000    2.64000010
   12.41527748  137.60400391    0.34000000    2.64000010
   12.41833401  135.71699524    0.34000000    2.64000010
   12.42166710  142.64799500    0.34000000    2.64000010
   12.42500019  139.22799683    0.34000000    2.64000010
   12.42805576  138.02900696    0.34000000    2.64000010
   12.42861176  145.88900757    0.34000000    2.64000010
   12.43194485  140.52499390    0.34000000    2.64000010
   12.43500042  141.61799622    0.34000000    2.64000010
   12.43833351  137.58999634    0.34000000    2.64000010
   12.44138908  143.00999451    0.34000000    2.64000010
   12.44472218  144.58500671    0.34000000    2.64000010
   12.44805527  141.65299988    0.34000000    2.64000010
   12.45111084  141.34199524    0.34000000    2.64000010
   12.45444393  145.51300049    0.34000000    2.64000010
   12.45777798  139.75900269    0.34000000    2.64000010
   12.46083355  142.84800720    0.34000000    2.64000010
   12.46194458  137.07099915    0.34000000    2.64000010
   12.46444416  137.45399475    0.34000000    2.64000010
   12.46749973  133.97300720    0.34000000    2.64000010
   12.47083282  189.22999573    0.34000000    2.64000010
   12.47388840  234.40400696    0.34000000    2.64000010
   12.47722149  210.57000732    0.34000000    2.64000010
   12.48055553  227.32000732    0.34000000    2.64000010
   12.48361111  267.95700073    0.34000000    2.64000010
   12.48694515  237.30299377    0.34000000    2.64000010
   12.49027824  230.69799805    0.34000000    2.66000009
   12.49333382  230.90199280    0.34000000    2.66000009
   12.51083374  222.63000488    0.34000000    2.64000010
   12.51333332  233.82000732    0.34000000    2.64000010
   12.61972237   -1.00000000   -1.00000000   -1.00000000
   12.71722221   -1.00000000   -1.00000000   -1.00000000
   12.82222176   -1.00000000   -1.00000000   -1.00000000
   12.85972214   89.97709656    0.31999999    2.71000004
   12.86305618  147.69299316    0.31999999    2.71000004
   12.86638927  135.21200562    0.31999999    2.71000004
   12.86944485  142.88099670    0.31999999    2.71000004
   12.87277794  144.75999451    0.31999999    2.71000004
   12.87583351  159.99099731    0.31999999    2.71000004
   12.88000011  159.99099731    0.31999999    2.71000004
   12.88416672  150.83099365    0.31999999    2.71000004
   12.88749981  140.67399597    0.31999999    2.71000004
   12.89055538  144.18200684    0.31999999    2.71000004
   12.89305496  151.06500244    0.31999999    2.71000004
   12.89444447  148.62199402    0.31999999    2.71000004
   12.89750004  151.29499817    0.31999999    2.71000004
   12.90083313  157.92799377    0.31999999    2.71000004
   12.90416622  141.02999878    0.31999999    2.71000004
   12.90722179  154.62899780    0.31999999    2.71000004
   12.91055489  145.62100220    0.31999999    2.71000004
   12.91388893  142.94900513    0.31999999    2.71000004
   12.91722298  144.75900269    0.31999999    2.73000002
   12.92277813  144.75900269    0.31999999    2.71000004
   12.92722225  149.31100464    0.31999999    2.71000004
   12.93055630  136.51199341    0.31999999    2.71000004
   12.93361092  142.86399841    0.31999999    2.71000004
   12.93694496  144.48300171    0.31999999    2.71000004
   12.94000053  140.53999329    0.31999999    2.71000004
   12.94333363  136.84199524    0.31999999    2.73000002
   12.94666672  139.92199707    0.31999999    2.73000002
   12.94999981  137.31399536    0.31999999    2.71000004
   12.95305538  135.99099731    0.31999999    2.71000004
   12.95638847  133.05200195    0.31999999    2.73000002
   12.95972157  138.23100281    0.31999999    2.71000004
   12.96000004  138.41499329    0.31999999    2.71000004
   12.96583271  138.41499329    0.31999999    2.71000004
   12.96999931  126.33999634    0.31999999    2.73000002
   12.97305489  139.31300354    0.31999999    2.73000002
   12.97638798  135.97500610    0.31999999    2.73000002
   12.97944355  148.36500549    0.31999999    2.73000002
   12.98277760  142.68299866    0.31999999    2.71000004
   12.98611164  145.82400513    0.31999999    2.73000002
   12.98916721  147.35899353    0.31999999    2.73000002
   12.99250031  137.02200317    0.31999999    2.73000002
   12.99333382  137.34500122    0.31999999    2.73000002
   12.99611092  134.77999878    0.31999999    2.73000002
   12.99944496  135.75700378    0.31999999    2.73000002
   13.00249958  150.94500732    0.31999999    2.73000002
   13.00861073  150.94500732    0.31999999    2.73000002
   13.01277733  149.38800049    0.34000000    2.73000002
   13.01583290  150.27900696    0.34000000    2.75000000
   13.01916599  144.77699280    0.34000000    2.73000002
   13.02250004  142.09199524    0.34000000    2.73000002
   13.02555561  137.20300293    0.34000000    2.73000002
   13.02666664  136.91799927    0.34000000    2.73000002
   13.02916622  135.66400146    0.34000000    2.73000002
   13.03249931  134.38299561    0.34000000    2.71000004
   13.03555584  159.88499451    0.34000000    2.73000002
   13.03888893  144.89300537    0.34000000    2.73000002
   13.04222298  171.81599426    0.34000000    2.73000002
   13.04527855  145.44299316    0.34000000    2.73000002
   13.05138874  145.44299316    0.34000000    2.73000002
   13.05555534  148.58200073    0.34000000    2.75000000
   13.05888939  128.45100403    0.36000001    2.75000000
   13.06027794  134.10000610    0.36000001    2.75000000
   13.06222248  154.77299500    0.36000001    2.73000002
   13.06555557  138.15699768    0.36000001    2.75000000
   13.06888866  154.75599670    0.36000001    2.73000002
   13.07194424  165.70199585    0.38000000    2.75000000
   13.07527733  139.43800354    0.38000000    2.73000002
   13.07833290  131.59100342    0.38000000    2.73000002
   13.08166695  145.33099365    0.38000000    2.75000000
   13.08500004  140.84599304    0.38000000    2.75000000
   13.08805561  136.52799988    0.38000000    2.75000000
   13.09416676  136.52799988    0.38000000    2.75000000
   13.09833336  138.60299683    0.40000001    2.73000002
   13.10166740  142.81100464    0.40000001    2.73000002
   13.10500050  134.28300476    0.38000000    2.75000000
   13.10805607  147.33900452    0.38000000    2.75000000
   13.11138916  139.63299561    0.40000001    2.75000000
   13.11472225  146.13900757    0.40000001    2.75000000
   13.11777782  128.74899292    0.40000001    2.75000000
   13.12138939  130.88299561    0.40000001    2.75000000
   13.12444496  133.27699280    0.40000001    2.75000000
   13.12666702  132.08099365    0.40000001    2.75000000
   13.12805557  129.09500122    0.40000001    2.73000002
   13.13138866  131.95700073    0.40000001    2.73000002
   13.13722229  131.95700073    0.40000001    2.75000000
   13.14138889  125.31600189    0.40000001    2.75000000
   13.14444447  131.01199341    0.40000001    2.76999998
   13.14777756  139.62100220    0.40000001    2.75000000
   13.15083313  131.42900085    0.40000001    2.75000000
   13.15416622  127.91400146    0.40000001    2.75000000
   13.15749931  132.95100403    0.41999999    2.75000000
   13.16027737  130.36300659    0.41999999    2.75000000
   13.16083336  131.66900635    0.41999999    2.75000000
   13.16416645  126.25599670    0.44000000    2.75000000
   13.16722298  134.16999817    0.44000000    2.75000000
   13.17055607  136.44999695    0.44000000    2.75000000
   13.17388916  133.86599731    0.44000000    2.75000000
   13.18000031  133.86599731    0.44000000    2.75000000
   13.18416691  128.33999634    0.44000000    2.75000000
   13.18722248  131.21899414    0.44000000    2.75000000
   13.19055557  126.15000153    0.44000000    2.75000000
   13.19361115  125.02100372    0.44000000    2.75000000
   13.19416714  131.24800110    0.44000000    2.75000000
   13.19750023  127.41100311    0.44000000    2.76999998
   13.20083332  129.32499695    0.44000000    2.75000000
   13.20388889  132.08500671    0.44000000    2.75000000
   13.20722198  133.52000427    0.44000000    2.75000000
   13.21027756  141.54499817    0.41999999    2.75000000
   13.21361065  121.64700317    0.41999999    2.75000000
   13.21694374  136.76300049    0.40000001    2.75000000
   13.22277737  136.76300049    0.38000000    2.76999998
   13.22694397  129.47599792    0.38000000    2.75000000
   13.23027706  137.93299866    0.38000000    2.75000000
   13.23333359  134.81799316    0.38000000    2.75000000
   13.23666668  134.54699707    0.38000000    2.76999998
   13.24000072  134.31199646    0.38000000    2.76999998
   13.24305534  135.55299377    0.36000001    2.75000000
   13.24638939  124.95300293    0.36000001    2.76999998
   13.24944496  133.07299805    0.34000000    2.76999998
   13.25277805  135.54100037    0.31999999    2.76999998
   13.25611115  136.45100403    0.31999999    2.75000000
   13.25916672  132.21499634    0.31999999    2.76999998
   13.26027775  134.77200317    0.31999999    2.76999998
   13.26555538  134.77200317    0.31999999    2.75000000
   13.26972198  135.46499634    0.31999999    2.76999998
   13.27305508  136.99499512    0.31999999    2.76999998
   13.27638817  134.17100525    0.31999999    2.76999998
   13.27944374  136.35600281    0.31999999    2.75000000
   13.28277779  137.96400452    0.31999999    2.76999998
   13.28583336  138.27299500    0.31999999    2.75000000
   13.28916740  145.85000610    0.31999999    2.75000000
   13.29250050  136.57600403    0.31999999    2.75000000
   13.29361153  136.02099609    0.31999999    2.75000000
   13.29611111  133.77699280    0.31999999    2.75000000
   13.29944515  130.96499634    0.31999999    2.76999998
   13.30277824  135.30799866    0.31999999    2.76999998
   13.30861092  135.30799866    0.34000000    2.75000000
   13.31277752  134.34500122    0.31999999    2.76999998
   13.31583309  135.04200745    0.31999999    2.76999998
   13.31916618  132.82099915    0.31999999    2.76999998
   13.32222176  136.05200195    0.31999999    2.76999998
   13.32555580  132.90899658    0.34000000    2.78999996
   13.32694435  131.97000122    0.34000000    2.78999996
   13.32916641  131.18200684    0.34000000    2.76999998
   13.33249950  131.51400757    0.31999999    2.76999998
   13.33583260  129.91000366    0.31999999    2.76999998
   13.33888817  130.36399841    0.31999999    2.76999998
   13.34222221  133.91999817    0.31999999    2.76999998
   13.34527779  133.33599854    0.31999999    2.76999998
   13.35138893  133.33599854    0.31999999    2.76999998
   13.35555553  137.21899414    0.31999999    2.76999998
   13.35861111  127.46299744    0.31999999    2.76999998
   13.36027813  132.03599548    0.31999999    2.76999998
   13.36222267  121.88300323    0.31999999    2.78999996
   13.36555576  126.42600250    0.31999999    2.78999996
   13.36888885  127.30300140    0.31999999    2.76999998
   13.37194443  130.40699768    0.31999999    2.75000000
   13.37527752  132.63099670    0.31999999    2.75000000
   13.37861156  156.82299805    0.31999999    2.78999996
   13.38166714  157.16000366    0.31999999    2.78999996
   13.38500023  138.43299866    0.31999999    2.78999996
   13.38833332  156.24099731    0.31999999    2.78999996
   13.39416695  156.24099731    0.31999999    2.76999998
   13.39833355  133.74400330    0.31999999    2.78999996
   13.40166664  173.35699463    0.31999999    2.76999998
   13.40472221  155.66700745    0.30000001    2.78999996
   13.40805531  148.40600586    0.31999999    2.76999998
   13.41138840  149.88099670    0.31999999    2.76999998
   13.41444397  160.93400574    0.31999999    2.76999998
   13.41777802  130.75799561    0.30000001    2.78999996
   13.42083359  145.07800293    0.30000001    2.78999996
   13.42416668  132.81599426    0.30000001    2.78999996
   13.42694473  148.88699341    0.30000001    2.78999996
   13.42777824  157.38600159    0.30000001    2.78999996
   13.43111134  128.94900513    0.30000001    2.78999996
   13.43694496  128.94900513    0.30000001    2.78999996
   13.44138908  121.86000061    0.30000001    2.78999996
   13.44444466  126.50399780    0.30000001    2.78999996
   13.44777775  136.22999573    0.30000001    2.78999996
   13.45111084  129.26800537    0.30000001    2.78999996
   13.45416641  133.74200439    0.30000001    2.78999996
   13.45749950  129.63499451    0.30000001    2.76999998
   13.46027756  136.10200500    0.30000001    2.78999996
   13.46083355  127.25299835    0.30000001    2.78999996
   13.46416664  134.43200684    0.30000001    2.78999996
   13.46749973  127.45800018    0.30000001    2.78999996
   13.47055531  130.22000122    0.30000001    2.78999996
   13.47388840  137.69400024    0.30000001    2.78999996
   13.47999954  137.69400024    0.30000001    2.78999996
   13.48388958  130.23699951    0.30000001    2.78999996
   13.48722267  125.38899994    0.30000001    2.78999996
   13.49055576  124.15100098    0.30000001    2.78999996
   13.49361134  128.87800598    0.30000001    2.78999996
   13.49388885  126.94799805    0.30000001    2.78999996
   13.49722290  128.74899292    0.30000001    2.78999996
   13.50055599  127.67800140    0.30000001    2.78999996
   13.50361156  128.87300110    0.30000001    2.78999996
   13.50694466  127.45200348    0.30000001    2.78999996
   13.51027775  126.90899658    0.30000001    2.78999996
   13.51333332  124.11599731    0.30000001    2.78999996
   13.51666641  123.41200256    0.30000001    2.78999996
   13.52277756  123.41200256    0.30000001    2.78999996
   13.52694416  138.11900330    0.30000001    2.78999996
   13.52722168  131.98399353    0.30000001    2.78999996
   13.53055573  130.58099365    0.30000001    2.78999996
   13.53388977  134.41799927    0.30000001    2.80999994
   13.53722286  130.33999634    0.30000001    2.78999996
   13.54027843  128.29600525    0.30000001    2.78999996
   13.54361153  131.04100037    0.30000001    2.78999996
   13.54694462  137.36900330    0.30000001    2.78999996
   13.55000019  131.39999390    0.30000001    2.78999996
   13.55333328  127.47699738    0.30000001    2.78999996
   13.55638885  134.90199280    0.30000001    2.78999996
   13.55972195  130.93299866    0.30000001    2.78999996
   13.56027794  130.78799438    0.30000001    2.78999996
   13.56555557  130.78799438    0.30000001    2.80999994
   13.56972218  130.39999390    0.30000001    2.80999994
   13.57305527  120.94699860    0.30000001    2.78999996
   13.57611084  132.57200623    0.30000001    2.80999994
   13.57944393  123.17199707    0.30000001    2.80999994
   13.58249950  134.55099487    0.30000001    2.78999996
   13.58583260  129.43899536    0.30000001    2.78999996
   13.58916664  127.82700348    0.30000001    2.78999996
   13.59222221  130.00399780    0.30000001    2.78999996
   13.59361076  127.12000275    0.30000001    2.78999996
   13.59583282  129.00700378    0.30000001    2.80999994
   13.59916592  125.20999908    0.30000001    2.78999996
   13.60249996  124.65799713    0.30000001    2.80999994
   13.60833359  124.65799713    0.30000001    2.78999996
   13.61250019  120.59300232    0.30000001    2.78999996
   13.61583328  121.87200165    0.30000001    2.78999996
   13.61888885  125.26399994    0.30000001    2.78999996
   13.62222195  125.40699768    0.30000001    2.78999996
   13.62555599  116.78099823    0.31999999    2.78999996
   13.62694454  118.39499664    0.31999999    2.78999996
   13.62916660  116.46399689    0.34000000    2.80999994
   13.63222218  127.48200226    0.36000001    2.80999994
   13.63555527  124.81999969    0.40000001    2.80999994
   13.63861084  126.08899689    0.41999999    2.78999996
   13.64194393  121.24700165    0.41999999    2.78999996
   13.64527798  123.16799927    0.46000001    2.78999996
   13.65138817  123.16799927    0.47999999    2.78999996
   13.65555477  126.58499908    0.50000000    2.78999996
   13.65861034  126.66400146    0.50000000    2.78999996
   13.66027737  124.32199860    0.47999999    2.78999996
   13.66249943  132.47099304    0.47999999    2.78999996
   13.66583252  123.49900055    0.47999999    2.78999996
   13.66888905  122.60199738    0.47999999    2.78999996
   13.67222214  122.47299957    0.47999999    2.80999994
   13.67555618  123.53900146    0.47999999    2.80999994
   13.67861176  112.69799805    0.50000000    2.80999994
   13.68194485  125.73799896    0.50000000    2.80999994
   13.68500042  121.84500122    0.50000000    2.80999994
   13.68833351  117.25499725    0.47999999    2.80999994
   13.69416714  117.25499725    0.47999999    2.78999996
   13.69833374  128.68899536    0.46000001    2.78999996
   13.70166683  118.14600372    0.46000001    2.78999996
   13.70472240  124.62000275    0.44000000    2.80999994
   13.70805550  126.00599670    0.41999999    2.80999994
   13.71138859  128.25599670    0.41999999    2.80999994
   13.71444416  131.69999695    0.41999999    2.80999994
   13.71777725  120.52700043    0.40000001    2.80999994
   13.72083282  124.54900360    0.38000000    2.80999994
   13.72416592  120.05200195    0.38000000    2.80999994
   13.72694397  121.79399872    0.36000001    2.80999994
   13.72777748  122.26699829    0.36000001    2.80999994
   13.73083305  120.65000153    0.34000000    2.80999994
   13.73694515  120.65000153    0.34000000    2.80999994
   13.74111176  119.22699738    0.34000000    2.82999992
   13.74444485  123.73400116    0.31999999    2.78999996
   13.74750042  119.97299957    0.31999999    2.78999996
   13.75083351  119.52700043    0.31999999    2.80999994
   13.75416660  126.10399628    0.31999999    2.80999994
   13.75722218  122.82900238    0.31999999    2.80999994
   13.76027775  137.37199402    0.31999999    2.80999994
   13.76111126  163.23599243    0.31999999    2.80999994
   13.76416683  194.63499451    0.31999999    2.80999994
   13.76749992  205.84700012    0.31999999    2.82999992
   13.77055550  224.89399719    0.31999999    2.82999992
   13.77388859  178.81300354    0.31999999    2.82999992
   13.77972221  178.81300354    0.31999999    2.80999994
   13.78388977  175.47200012    0.31999999    2.82999992
   13.78722286  170.36099243    0.31999999    2.80999994
   13.79055595  164.02799988    0.31999999    2.80999994
   13.79361153  158.82000732    0.31999999    2.80999994
   13.79416752  141.41400146    0.31999999    2.80999994
   13.79722309  168.48199463    0.34000000    2.80999994
   13.80055618  123.94100189    0.34000000    2.82999992
   13.80361176  149.21499634    0.34000000    2.80999994
   13.80694485  132.80299377    0.34000000    2.80999994
   13.81027794  129.28999329    0.34000000    2.82999992
   13.81333351  176.97300720    0.34000000    2.82999992
   13.81666660  154.51800537    0.34000000    2.80999994
   13.82277775  154.51800537    0.36000001    2.82999992
   13.82694435  153.56199646    0.36000001    2.82999992
   13.82722187  161.13400269    0.36000001    2.82999992
   13.83055592  146.86599731    0.38000000    2.82999992
   13.83388901  127.62799835    0.38000000    2.80999994
   13.83694458  159.28399658    0.38000000    2.80999994
   13.84027767  138.66099548    0.40000001    2.82999992
   13.84333324  139.96899414    0.38000000    2.80999994
   13.84666634  142.66700745    0.40000001    2.82999992
   13.85000038  157.13900757    0.40000001    2.80999994
   13.85305595  129.42900085    0.40000001    2.82999992
   13.85638905  120.22100067    0.40000001    2.80999994
   13.85972214  128.49699402    0.40000001    2.80999994
   13.87694454  128.49000549    0.36000001    2.82999992
   13.88111115  128.49000549    0.36000001    2.80999994
   13.88527775  125.88300323    0.36000001    2.80999994
   13.88861084  115.08100128    0.38000000    2.80999994
   13.89166641  139.25300598    0.38000000    2.82999992
   13.89499950  122.85600281    0.40000001    2.82999992
   13.89833355  119.02100372    0.40000001    2.82999992
   13.90138817  113.65299988    0.40000001    2.82999992
   13.90472221  122.07800293    0.40000001    2.80999994
   13.90777779  116.16400146    0.40000001    2.80999994
   13.91027737  119.14199829    0.40000001    2.82999992
   13.91166592  119.16799927    0.40000001    2.80999994
   13.91472149  116.17299652    0.38000000    2.82999992
   13.91805553  124.69499969    0.40000001    2.82999992
   13.92388916  124.69499969    0.38000000    2.82999992
   13.92805576  120.00499725    0.36000001    2.82999992
   13.93138885  120.23799896    0.36000001    2.82999992
   13.93472195  121.18900299    0.36000001    2.82999992
   13.93777752  120.02100372    0.36000001    2.82999992
   13.94111156  116.76200104    0.36000001    2.82999992
   13.94361115  118.82700348    0.36000001    2.82999992
   13.94472218  118.51899719    0.34000000    2.80999994
   13.94777775  120.40299988    0.34000000    2.82999992
   13.95111084  120.75199890    0.34000000    2.82999992
   13.95444393  122.12400055    0.34000000    2.82999992
   13.95749950  127.85600281    0.34000000    2.82999992
   13.96083355  122.04499817    0.31999999    2.82999992
   13.96694374  122.04499817    0.30000001    2.82999992
   13.97111034  117.15599823    0.30000001    2.82999992
   13.97416592  125.15599823    0.30000001    2.82999992
   13.97694397  121.42800140    0.30000001    2.82999992
   13.97805500  125.01100159    0.30000001    2.82999992
   13.98111057  125.62100220    0.30000001    2.82999992
   13.98444462  119.62400055    0.30000001    2.82999992
   13.98777771  124.91899872    0.30000001    2.82999992
   13.99083328  136.16299438    0.30000001    2.82999992
   13.99416733  138.24200439    0.30000001    2.82999992
   13.99722290  132.03500366    0.30000001    2.82999992
   14.00055599  133.57800293    0.30000001    2.82999992
   14.00388908  134.30299377    0.31999999    2.82999992
   14.00972176  134.30299377    0.31999999    2.82999992
   14.01388931  123.42299652    0.31999999    2.82999992
   14.01722240  120.80000305    0.31999999    2.82999992
   14.02027798  121.66699982    0.31999999    2.82999992
   14.02361107  122.82800293    0.31999999    2.82999992
   14.02666664  118.65799713    0.31999999    2.82999992
   14.02999973  124.23500061    0.31999999    2.82999992
   14.03333378  117.87300110    0.31999999    2.82999992
   14.03638935  124.88099670    0.31999999    2.82999992
   14.03972244  123.15200043    0.30000001    2.82999992
   14.04305553  123.36900330    0.31999999    2.82999992
   14.04472256  128.71400452    0.30000001    2.82999992
   14.04666710  120.76599884    0.30000001    2.82999992
   14.05249977  120.76599884    0.30000001    2.82999992
   14.05666733  120.99500275    0.31999999    2.82999992
   14.06000042  117.08499908    0.31999999    2.82999992
   14.06305599  118.62599945    0.31999999    2.82999992
   14.06638908  120.07299805    0.31999999    2.82999992
   14.06972218  123.27600098    0.31999999    2.82999992
   14.07333374  122.67099762    0.31999999    2.82999992
   14.07638836  120.63500214    0.31999999    2.82999992
   14.07805538  121.96399689    0.34000000    2.82999992
   14.07999992  121.67800140    0.34000000    2.82999992
   14.08333302  126.76399994    0.34000000    2.82999992
   14.08638859  117.51999664    0.34000000    2.84999990
   14.08972168  124.49800110    0.34000000    2.84999990
   14.09527779  124.49800110    0.34000000    2.84999990
   14.09944439  116.74099731    0.34000000    2.82999992
   14.10277843  120.45600128    0.34000000    2.84999990
   14.10611153  117.37300110    0.34000000    2.84999990
   14.10916710  117.26499939    0.34000000    2.82999992
   14.11166668  119.73899841    0.34000000    2.82999992
   14.11277771  117.65399933    0.34000000    2.84999990
   14.11611176  116.19499969    0.34000000    2.82999992
   14.11944485  121.92199707    0.34000000    2.82999992
   14.12250042  114.54100037    0.34000000    2.84999990
   14.12583351  111.75399780    0.34000000    2.82999992
   14.12916660  124.62699890    0.36000001    2.82999992
   14.13222218  124.37699890    0.36000001    2.82999992
   14.13833332  124.37699890    0.34000000    2.82999992
   14.14249992  112.74500275    0.34000000    2.82999992
   14.14499950  134.43499756    0.34000000    2.82999992
   14.14583302  139.53599548    0.34000000    2.82999992
   14.14916611  181.94400024    0.34000000    2.82999992
   14.15249920  125.50299835    0.34000000    2.82999992
   14.15555477  127.25700378    0.34000000    2.82999992
   14.15888882  123.46499634    0.34000000    2.82999992
   14.16194439  124.52600098    0.34000000    2.86999989
   14.16527748  119.80100250    0.34000000    2.82999992
   14.16861153  117.31099701    0.36000001    2.82999992
   14.17166710  117.72000122    0.36000001    2.84999990
   14.17527771  118.60099792    0.36000001    2.84999990
   14.18111134  118.60099792    0.38000000    2.82999992
   14.18527794  119.43499756    0.38000000    2.84999990
   14.18861103  118.41200256    0.38000000    2.84999990
   14.19166660  122.45099640    0.40000001    2.84999990
   14.19499969  117.84999847    0.38000000    2.84999990
   14.19805527  120.50499725    0.38000000    2.84999990
   14.20138836  117.38700104    0.38000000    2.84999990
   14.20472240  123.40200043    0.38000000    2.82999992
   14.20777798  121.57099915    0.38000000    2.84999990
   14.21111107  125.07099915    0.38000000    2.84999990
   14.21194458  117.06099701    0.38000000    2.84999990
   14.21472168  122.97899628    0.38000000    2.84999990
   14.21805477  115.61599731    0.38000000    2.82999992
   14.22388840  115.61599731    0.38000000    2.82999992
   14.22805500  120.37400055    0.38000000    2.82999992
   14.23138809  114.90499878    0.38000000    2.82999992
   14.23444462  132.13699341    0.38000000    2.84999990
   14.23777771  137.37800598    0.38000000    2.84999990
   14.24111176  122.49099731    0.36000001    2.86999989
   14.24416733  121.54599762    0.36000001    2.84999990
   14.24527836  136.89599609    0.36000001    2.84999990
   14.24777794  136.40800476    0.34000000    2.84999990
   14.25111103  114.21700287    0.36000001    2.84999990
   14.25416660  120.27200317    0.36000001    2.84999990
   14.25749969  115.98400116    0.36000001    2.82999992
   14.26055527  132.81700134    0.36000001    2.84999990
   14.26694393  132.81700134    0.36000001    2.84999990
   14.27083302  118.28099823    0.36000001    2.84999990
   14.27416611  126.95400238    0.34000000    2.84999990
   14.27750015  117.95500183    0.31999999    2.84999990
   14.27888870  119.41500092    0.31999999    2.84999990
   14.28111076  119.09500122    0.31999999    2.84999990
   14.28416729  119.25099945    0.31999999    2.84999990
   14.28750038  122.25299835    0.31999999    2.86999989
   14.29055595  116.13099670    0.31999999    2.86999989
   14.29388905  117.27700043    0.31999999    2.84999990
   14.29722309  118.16699982    0.31999999    2.84999990
   14.30055618  124.53199768    0.31999999    2.84999990
   14.30361176  120.00199890    0.31999999    2.84999990
   14.30972195  120.00199890    0.31999999    2.84999990
   14.31388950  117.50700378    0.34000000    2.84999990
   14.31694412  119.77200317    0.34000000    2.84999990
   14.32027817  111.83899689    0.34000000    2.84999990
   14.32333374  119.45999908    0.36000001    2.84999990
   14.32666683  121.60399628    0.31999999    2.86999989
   14.32999992  117.13200378    0.31999999    2.84999990
   14.33305550  113.84899902    0.31999999    2.86999989
   14.33638859  119.82800293    0.31999999    2.84999990
   14.33972168  120.26200104    0.30000001    2.86999989
   14.34277725  118.20600128    0.30000001    2.84999990
   14.34555531  118.98000336    0.30000001    2.84999990
   14.34666634  117.21499634    0.30000001    2.84999990
   14.35277843  117.21499634    0.30000001    2.84999990
   14.35666752  124.43800354    0.28000000    2.84999990
   14.36000061  117.57499695    0.28000000    2.84999990
   14.36333370  127.84600067    0.28000000    2.84999990
   14.36638927  117.84500122    0.28000000    2.86999989
   14.36972237  119.61900330    0.28000000    2.86999989
   14.37277794  115.97499847    0.28000000    2.86999989
   14.37611103  118.79799652    0.28000000    2.86999989
   14.37888908  122.93199921    0.30000001    2.86999989
   14.37972260  121.97799683    0.30000001    2.86999989
   14.38277817  124.26799774    0.28000000    2.86999989
   14.38611126  115.43499756    0.28000000    2.86999989
   14.38944435  129.16999817    0.28000000    2.84999990
   14.39527798  129.16999817    0.36000001    2.84999990
   14.39944458  151.01600647    0.34000000    2.86999989
   14.40277767  145.22500610    0.30000001    2.84999990
   14.40583324  146.17100525    0.30000001    2.84999990
   14.40916634  146.28900146    0.30000001    2.86999989
   14.41222191  142.37300110    0.30000001    2.84999990
   14.41277695  137.74699402    0.30000001    2.84999990
   14.41583252  139.28300476    0.30000001    2.86999989
   14.41916656  145.59500122    0.30000001    2.86999989
   14.42222214  139.65400696    0.30000001    2.84999990
   14.42555618  148.73699951    0.30000001    2.86999989
   14.42888927  155.23899841    0.30000001    2.89000010
   14.43194485  142.03599548    0.30000001    2.84999990
   14.43805599  142.03599548    0.30000001    2.86999989
   14.44222260  153.69400024    0.30000001    2.86999989
   14.44555569  148.58999634    0.30000001    2.86999989
   14.44611073  152.53199768    0.30000001    2.86999989
   14.44916630  160.55400085    0.30000001    2.86999989
   14.45249939  149.19799805    0.30000001    2.86999989
   14.45583344  161.16799927    0.30000001    2.84999990
   14.45888901  152.03399658    0.30000001    2.86999989
   14.46222210  153.53999329    0.30000001    2.86999989
   14.46555519  139.50399780    0.30000001    2.86999989
   14.46861076  135.46499634    0.30000001    2.86999989
   14.47194386  143.18600464    0.30000001    2.84999990
   14.47499943  130.01199341    0.31999999    2.86999989
   14.48111057  130.01199341    0.31999999    2.86999989
   14.48527813  137.88299561    0.31999999    2.86999989
   14.48833370  134.60899353    0.34000000    2.84999990
   14.49166679  127.76599884    0.36000001    2.86999989
   14.49472237  121.33699799    0.36000001    2.86999989
   14.49805546  116.96099854    0.36000001    2.86999989
   14.50138855  123.65499878    0.31999999    2.86999989
   14.50444412  124.41200256    0.31999999    2.86999989
   14.50777817  118.28500366    0.30000001    2.86999989
   14.51111126  123.31199646    0.30000001    2.84999990
   14.51222229  113.92600250    0.30000001    2.84999990
   14.51472187  119.07099915    0.31999999    2.86999989
   14.51777744  119.35900116    0.31999999    2.86999989
   14.52388859  119.35900116    0.31999999    2.86999989
   14.52805519  120.30699921    0.31999999    2.86999989
   14.53111076  121.31800079    0.31999999    2.86999989
   14.53444481  116.51499939    0.31999999    2.86999989
   14.53777790  115.61000061    0.30000001    2.86999989
   14.54083347  120.46700287    0.30000001    2.86999989
   14.54416752  119.86399841    0.30000001    2.86999989
   14.54555607  122.49500275    0.30000001    2.86999989
   14.54777813  121.18599701    0.30000001    2.86999989
   14.55083370  113.53299713    0.30000001    2.86999989
   14.55416679  117.70200348    0.30000001    2.86999989
   14.55749989  114.59999847    0.30000001    2.86999989
   14.56055546  116.85900116    0.31999999    2.86999989
   14.56666660  116.85900116    0.34000000    2.86999989
   14.57083321  113.78399658    0.31999999    2.84999990
   14.57416630  117.69699860    0.31999999    2.86999989
   14.57722187  116.20099640    0.38000000    2.86999989
   14.57916641  116.97200012    0.51999998    2.86999989
   14.58111095  117.94200134    0.51999998    2.86999989
   14.58416653  117.84200287    0.44000000    2.86999989
   14.58749962  120.07499695    0.40000001    2.86999989
   14.59083271  117.39099884    0.34000000    2.86999989
   14.59388828  116.63099670    0.34000000    2.86999989
   14.59722233  117.63899994    0.41999999    2.86999989
   14.60027790  114.51799774    0.41999999    2.86999989
   14.60361195  119.83999634    0.46000001    2.86999989
   14.60944462  119.83999634    0.50000000    2.86999989
   14.61361122  123.91500092    0.36000001    2.86999989
   14.61694431  122.34799957    0.30000001    2.86999989
   14.62027836  123.08000183    0.30000001    2.86999989
   14.62333393  124.57399750    0.30000001    2.86999989
   14.62666702  125.13099670    0.28000000    2.86999989
   14.63000011  117.48899841    0.28000000    2.86999989
   14.63305569  121.72000122    0.28000000    2.86999989
   14.63638878  117.35199738    0.28000000    2.86999989
   14.63944435  120.62200165    0.28000000    2.86999989
   14.64277744  119.88600159    0.30000001    2.86999989
   14.64583302  119.83899689    0.30000001    2.89000010
   14.64638901  118.22000122    0.30000001    2.89000010
   14.65249920  118.22000122    0.28000000    2.86999989
   14.65666676  122.48899841    0.28000000    2.86999989
   14.65972137  117.10600281    0.28000000    2.86999989
   14.66305542  116.82800293    0.28000000    2.86999989
   14.66611099  118.72799683    0.28000000    2.86999989
   14.66944504  118.63999939    0.28000000    2.86999989
   14.67277813  120.68000031    0.28000000    2.86999989
   14.67583370  121.17099762    0.28000000    2.86999989
   14.67916679  133.53999329    0.28000000    2.86999989
   14.67972279  133.24099731    0.28000000    2.86999989
   14.68277836  135.37500000    0.28000000    2.86999989
   14.68611145  122.08100128    0.28000000    2.86999989
   14.68916702  119.93099976    0.28000000    2.89000010
   14.69527817  119.93099976    0.28000000    2.86999989
   14.69944477  124.07099915    0.28000000    2.86999989
   14.70277786  116.05000305    0.28000000    2.86999989
   14.70583344  119.31700134    0.28000000    2.86999989
   14.70916653  134.10000610    0.28000000    2.86999989
   14.71222210  162.15699768    0.28000000    2.89000010
   14.71277714  137.09100342    0.28000000    2.86999989
   14.71611118  173.86399841    0.28000000    2.86999989
   14.71944427  138.90299988    0.28000000    2.86999989
   14.72249985  125.46099854    0.28000000    2.89000010
   14.72583294  120.80300140    0.28000000    2.86999989
   14.72916603  121.02600098    0.28000000    2.86999989
   14.73222160  129.71499634    0.28000000    2.86999989
   14.73805618  129.71499634    0.28000000    2.89000010
   14.74222279  135.80799866    0.28000000    2.86999989
   14.74555588  129.60299683    0.28000000    2.86999989
   14.74611092  128.32400513    0.28000000    2.86999989
   14.74916649  135.02900696    0.28000000    2.86999989
   14.75222206  135.40499878    0.30000001    2.86999989
   14.75555515  134.44400024    0.30000001    2.86999989
   14.75888920  136.14500427    0.30000001    2.86999989
   14.76194477  146.56900024    0.28000000    2.86999989
   14.76527786  148.17199707    0.30000001    2.86999989
   14.76833344  151.80200195    0.30000001    2.86999989
   14.77166653  158.11199951    0.30000001    2.86999989
   14.77499962  142.44200134    0.28000000    2.86999989
   14.78083324  142.44200134    0.28000000    2.86999989
   14.78500080  136.43499756    0.30000001    2.86999989
   14.78833389  129.23899841    0.28000000    2.86999989
   14.79138947  158.45100403    0.28000000    2.89000010
   14.79472256  136.74699402    0.28000000    2.86999989
   14.79805565  135.63800049    0.30000001    2.86999989
   14.80138874  137.11099243    0.30000001    2.86999989
   14.80444431  153.60299683    0.28000000    2.86999989
   14.80777836  145.60000610    0.28000000    2.86999989
   14.81083393  140.54200745    0.28000000    2.86999989
   14.81277752  164.37199402    0.34000000    2.86999989
   14.81472206  143.44000244    0.31999999    2.89000010
   14.81777763  150.61300659    0.30000001    2.86999989
   14.82388878  150.61300659    0.30000001    2.86999989
   14.82777786  141.08099365    0.30000001    2.89000010
   14.83111095  138.82800293    0.30000001    2.89000010
   14.83444405  129.37399292    0.30000001    2.86999989
   14.83749962  134.50000000    0.30000001    2.86999989
   14.84083271  140.84899902    0.30000001    2.86999989
   14.84416676  134.28999329    0.30000001    2.86999989
   14.84611034  121.15200043    0.30000001    2.86999989
   14.84777737  136.10800171    0.30000001    2.86999989
   14.85083389  126.28600311    0.30000001    2.86999989
   14.85416698  135.60400391    0.30000001    2.86999989
   14.85750008  134.76899719    0.30000001    2.86999989
   14.86055565  148.64999390    0.30000001    2.86999989
   14.86666679  148.64999390    0.28000000    2.89000010
   14.87083340  113.11499786    0.28000000    2.86999989
   14.87388897  132.98399353    0.30000001    2.86999989
   14.87722206  127.84400177    0.30000001    2.86999989
   14.89416695  128.88900757    0.30000001    2.89000010
   14.89722252  133.70300293    0.31999999    2.89000010
   14.90055561  137.43499756    0.30000001    2.86999989
   14.90388870  142.77699280    0.30000001    2.86999989
   14.90972137  142.77699280    0.30000001    2.89000010
   14.91388893  152.75799561    0.30000001    2.86999989
   14.91694450  134.67300415    0.30000001    2.89000010
   14.92027855  142.19200134    0.30000001    2.89000010
   14.92333412  130.40499878    0.30000001    2.86999989
   14.92666721  148.00500488    0.30000001    2.89000010
   14.92750072  159.31500244    0.30000001    2.89000010
   14.93027782  142.73199463    0.30000001    2.86999989
   14.93333340  151.97799683    0.30000001    2.86999989
   14.93666649  147.07200623    0.30000001    2.86999989
   14.94000053  170.66700745    0.30000001    2.89000010
   14.94305515  157.97700500    0.30000001    2.89000010
   14.94638920  141.66700745    0.30000001    2.86999989
   14.95249939  141.66700745    0.30000001    2.86999989
   14.95666695  144.15100098    0.30000001    2.89000010
   14.95972157  138.34199524    0.30000001    2.86999989
   14.96083355  145.07499695    0.30000001    2.86999989
   14.96361065  154.47900391    0.30000001    2.89000010
   14.96666622  145.08399963    0.30000001    2.86999989
   14.96999931  153.68099976    0.30000001    2.89000010
   14.97333336  153.33000183    0.31999999    2.86999989
   14.97638798  133.74699402    0.31999999    2.86999989
   14.97972202  144.45399475    0.31999999    2.86999989
   14.98305511  144.16499329    0.31999999    2.86999989
   14.98611164  131.08700562    0.31999999    2.86999989
   14.98944473  145.07000732    0.31999999    2.86999989
   14.99527836  145.07000732    0.31999999    2.89000010
   14.99944496  170.46099854    0.31999999    2.86999989
   15.00277805  146.00300598    0.31999999    2.86999989
   15.00583363  131.71699524    0.36000001    2.89000010
   15.00916672  150.05299377    0.31999999    2.89000010
   15.01249981  135.61399841    0.30000001    2.86999989
   15.01555538  163.42900085    0.31999999    2.86999989
   15.01888847  143.58200073    0.31999999    2.86999989
   15.02194405  147.34700012    0.31999999    2.89000010
   15.02527714  154.16999817    0.31999999    2.89000010
   15.02750015  146.06799316    0.31999999    2.86999989
   15.02888870  144.59199524    0.31999999    2.86999989
   15.03194427  141.34300232    0.30000001    2.89000010
   15.03805637  141.34300232    0.31999999    2.89000010
   15.04222298  155.61799622    0.31999999    2.89000010
   15.04555607  139.88299561    0.31999999    2.89000010
   15.04888916  144.08900452    0.31999999    2.86999989
   15.05194473  154.36000061    0.31999999    2.89000010
   15.05527782  138.02000427    0.31999999    2.89000010
   15.05833340  144.33999634    0.31999999    2.89000010
   15.06083393  159.18299866    0.31999999    2.86999989
   15.06222248  148.74600220    0.31999999    2.86999989
   15.06527805  140.88299561    0.31999999    2.86999989
   15.06861115  141.04200745    0.31999999    2.86999989
   15.07194424  139.02000427    0.31999999    2.89000010
   15.07499981  125.68199921    0.30000001    2.86999989
   15.08111095  125.68199921    0.30000001    2.86999989
   15.08527756  133.78199768    0.31999999    2.86999989
   15.08833313  140.16299438    0.30000001    2.86999989
   15.09166622  126.95099640    0.31999999    2.86999989
   15.09416676  134.11199951    0.31999999    2.86999989
   15.09527779  139.84700012    0.30000001    2.86999989
   15.09833336  137.73899841    0.30000001    2.89000010
   15.10166740  142.13400269    0.30000001    2.86999989
   15.10500050  155.69999695    0.30000001    2.89000010
   15.10805607  152.38200378    0.30000001    2.89000010
   15.11138916  149.24699402    0.30000001    2.89000010
   15.11444473  134.61099243    0.31999999    2.89000010
   15.11777782  129.99299622    0.36000001    2.89000010
   15.12388897  129.99299622    0.31999999    2.86999989
   15.12805557  130.68200684    0.31999999    2.89000010
   15.13111115  143.43800354    0.30000001    2.86999989
   15.13444424  122.59999847    0.30000001    2.89000010
   15.13777733  121.60099792    0.30000001    2.89000010
   15.14083290  127.19899750    0.31999999    2.86999989
   15.14416695  126.38200378    0.31999999    2.86999989
   15.14750004  123.64399719    0.30000001    2.89000010
   15.15055561  137.71699524    0.30000001    2.89000010
   15.15388870  118.56600189    0.31999999    2.86999989
   15.15694427  130.18800354    0.31999999    2.89000010
   15.16027737  130.05200195    0.30000001    2.86999989
   15.16083336  126.29399872    0.30000001    2.86999989
   15.16694450  126.29399872    0.30000001    2.89000010
   15.17111111  113.90899658    0.30000001    2.89000010
   15.17416668  124.93399811    0.31999999    2.89000010
   15.17750072  130.82899475    0.31999999    2.86999989
   15.18055630  129.72399902    0.31999999    2.89000010
   15.18388939  125.63500214    0.31999999    2.89000010
   15.18722248  137.74899292    0.31999999    2.86999989
   15.19027805  122.45899963    0.31999999    2.86999989
   15.19361115  126.01999664    0.31999999    2.89000010
   15.19416714  133.69400024    0.31999999    2.89000010
   15.19722271  125.43599701    0.30000001    2.89000010
   15.20055580  134.69000244    0.30000001    2.86999989
   15.20361137  135.15600586    0.30000001    2.86999989
   15.20944405  135.15600586    0.28000000    2.89000010
   15.21361065  122.67700195    0.28000000    2.86999989
   15.21694374  118.54399872    0.28000000    2.89000010
   15.21999931  136.87800598    0.28000000    2.89000010
   15.22333336  116.92299652    0.28000000    2.86999989
   15.22666645  121.83899689    0.28000000    2.89000010
   15.22749996  119.37300110    0.28000000    2.89000010
   15.23027706  133.42799377    0.28000000    2.89000010
   15.23361111  125.19100189    0.28000000    2.86999989
   15.23666668  195.52799988    0.28000000    2.89000010
   15.24000072  120.21600342    0.28000000    2.86999989
   15.24333382  131.62699890    0.28000000    2.86999989
   15.24638939  129.07000732    0.28000000    2.86999989
   15.25249958  129.07000732    0.28000000    2.89000010
   15.25638866  114.85299683    0.30000001    2.89000010
   15.25972176  129.32200623    0.30000001    2.89000010
   15.26083374  134.49800110    0.30000001    2.86999989
   15.26333332  137.33200073    0.30000001    2.86999989
   15.26666641  140.41400146    0.31999999    2.89000010
   15.26972198  116.82299805    0.31999999    2.89000010
   15.27305508  129.96699524    0.31999999    2.89000010
   15.27611065  120.76399994    0.31999999    2.86999989
   15.27944374  122.71700287    0.31999999    2.89000010
   15.28277779  123.65200043    0.31999999    2.89000010
   15.28583336  121.47899628    0.31999999    2.86999989
   15.28916740  118.93800354    0.31999999    2.86999989
   15.29527855  118.93800354    0.34000000    2.89000010
   15.29944515  127.33100128    0.34000000    2.89000010
   15.30249977  124.21099854    0.31999999    2.89000010
   15.30583382  121.23500061    0.31999999    2.89000010
   15.30916691  121.94100189    0.31999999    2.86999989
   15.31222248  113.95700073    0.31999999    2.89000010
   15.31555557  119.38200378    0.31999999    2.89000010
   15.31888866  130.40100098    0.30000001    2.89000010
   15.32222176  125.88500214    0.30000001    2.89000010
   15.32527733  135.20799255    0.30000001    2.89000010
   15.32750034  195.47399902    0.30000001    2.89000010
   15.32888889  176.80000305    0.31999999    2.89000010
   15.33194447  162.89199829    0.31999999    2.89000010
   15.33805561  162.89199829    0.30000001    2.89000010
   15.34222221  213.11599731    0.30000001    2.89000010
   15.34555531  190.43299866    0.30000001    2.89000010
   15.34861088  192.23500061    0.31999999    2.89000010
   15.35194492  185.80999756    0.31999999    2.89000010
   15.35527802  194.67399597    0.31999999    2.89000010
   15.35833359  189.12100220    0.34000000    2.89000010
   15.36083412  173.04400635    0.38000000    2.89000010
   15.36194515  157.71600342    0.38000000    2.89000010
   15.36500072  185.87199402    0.36000001    2.86999989
   15.36833382  147.53500366    0.36000001    2.89000010
   15.37166691  164.42700195    0.36000001    2.89000010
   15.37472248  156.02400208    0.36000001    2.86999989
   15.38083363  156.02400208    0.36000001    2.89000010
   15.38500023  170.33599854    0.34000000    2.89000010
   15.38833332  195.53999329    0.34000000    2.89000010
   15.39166641  171.52499390    0.34000000    2.89000010
   15.39416695  171.91600037    0.34000000    2.89000010
   15.39527798  167.84500122    0.34000000    2.89000010
   15.39861107  165.46200562    0.34000000    2.89000010
   15.40166664  180.24800110    0.34000000    2.89000010
   15.40499973  137.35299683    0.34000000    2.89000010
   15.40805531  140.51400757    0.34000000    2.86999989
   15.41138840  154.96299744    0.34000000    2.89000010
   15.41472149  141.41700745    0.34000000    2.89000010
   15.41777802  155.71699524    0.34000000    2.89000010
   15.42388916  155.71699524    0.34000000    2.89000010
   15.42805576  160.23500061    0.34000000    2.91000009
   15.43111134  149.33700562    0.34000000    2.89000010
   15.43444443  146.59800720    0.34000000    2.89000010
   15.43750000  133.09899902    0.36000001    2.89000010
   15.44083309  147.08900452    0.36000001    2.86999989
   15.44416714  137.48300171    0.38000000    2.89000010
   15.44722271  148.02299500    0.38000000    2.89000010
   15.45055580  141.80499268    0.36000001    2.89000010
   15.45388889  145.26199341    0.36000001    2.89000010
   15.45694447  152.48699951    0.38000000    2.89000010
   15.46027756  141.85400391    0.38000000    2.89000010
   15.46083355  130.42100525    0.36000001    2.89000010
   15.46666622  130.42100525    0.34000000    2.89000010
   15.47083282  161.63299561    0.36000001    2.89000010
   15.47388840  145.59700012    0.34000000    2.89000010
   15.47722149  152.93800354    0.34000000    2.89000010
   15.48055553  159.46600342    0.34000000    2.89000010
   15.48388958  139.48300171    0.31999999    2.89000010
   15.48694515  131.69999695    0.31999999    2.86999989
   15.49027824  138.03500366    0.31999999    2.89000010
   15.49333382  136.35499573    0.31999999    2.91000009
   15.49416733  129.46400452    0.31999999    2.91000009
   15.49694443  146.22399902    0.31999999    2.89000010
   15.50027752  151.46099854    0.31999999    2.86999989
   15.50333309  150.04899597    0.31999999    2.86999989
   15.50944424  150.04899597    0.31999999    2.89000010
   15.51361084  129.06799316    0.31999999    2.89000010
   15.51694393  144.00000000    0.31999999    2.89000010
   15.51999950  134.23800659    0.31999999    2.91000009
   15.52333355  124.16699982    0.34000000    2.89000010
   15.52666664  130.13600159    0.40000001    2.89000010
   15.52750015  125.13200378    0.40000001    2.89000010
   15.53027725  120.69000244    0.44000000    2.89000010
   15.53361130  122.78299713    0.44000000    2.89000010
   15.53666687  125.20999908    0.41999999    2.89000010
   15.54000092  128.11099243    0.46000001    2.89000010
   15.54333401  125.98100281    0.47999999    2.89000010
   15.54638958  124.63300323    0.41999999    2.91000009
   15.55222225  124.63300323    0.41999999    2.89000010
   15.55666733  119.79299927    0.51999998    2.89000010
   15.55972195  125.62599945    0.40000001    2.89000010
   15.56083393  124.52899933    0.40000001    2.89000010
   15.56333351  124.28099823    0.38000000    2.91000009
   15.56666660  127.41999817    0.38000000    2.91000009
   15.56999969  120.06099701    0.38000000    2.91000009
   15.57305527  119.71900177    0.46000001    2.91000009
   15.57638836  119.97299957    0.40000001    2.89000010
   15.57972240  113.84500122    0.40000001    2.89000010
   15.58277798  116.19899750    0.38000000    2.89000010
   15.58611107  116.45600128    0.40000001    2.89000010
   15.58916664  114.87699890    0.38000000    2.89000010
   15.59527779  114.87699890    0.38000000    2.89000010
   15.59944439  122.76499939    0.38000000    2.89000010
   15.60277843  119.94999695    0.40000001    2.89000010
   15.60583401  118.53399658    0.38000000    2.89000010
   15.60916710  115.88400269    0.38000000    2.89000010
   15.61250019  114.95400238    0.41999999    2.89000010
   15.61555576  120.58100128    0.34000000    2.91000009
   15.61888885  122.77700043    0.31999999    2.91000009
   15.62222195  119.08000183    0.31999999    2.89000010
   15.62555599  115.80300140    0.31999999    2.89000010
   15.62750053  120.03900146    0.31999999    2.91000009
   15.62916660  115.91000366    0.31999999    2.91000009
   15.63249969  124.54799652    0.31999999    2.91000009
   15.63805580  124.54799652    0.31999999    2.89000010
   15.64222240  123.02100372    0.31999999    2.91000009
   15.64527798  113.81999969    0.31999999    2.89000010
   15.64861107  118.99700165    0.31999999    2.89000010
   15.65194416  117.74800110    0.31999999    2.89000010
   15.65527725  115.77600098    0.31999999    2.91000009
   15.65833282  117.17900085    0.31999999    2.89000010
   15.66083336  114.29299927    0.31999999    2.89000010
   15.66194439  113.35399628    0.31999999    2.91000009
   15.66527748  117.02500153    0.31999999    2.91000009
   15.66833401  129.07600403    0.34000000    2.89000010
   15.67166710  129.76400757    0.34000000    2.91000009
   15.67472267  142.05599976    0.34000000    2.91000009
   15.68083382  142.05599976    0.34000000    2.91000009
   15.68500042  148.27699280    0.36000001    2.91000009
   15.68833351  134.73800659    0.36000001    2.91000009
   15.69138908  137.70599365    0.38000000    2.91000009
   15.69416714  132.93299866    0.38000000    2.91000009
   15.69499969  137.19700623    0.38000000    2.91000009
   15.69833374  132.52999878    0.34000000    2.91000009
   15.70138836  139.75900269    0.34000000    2.91000009
   15.70472240  136.70500183    0.34000000    2.91000009
   15.70805550  138.65499878    0.31999999    2.91000009
   15.71111107  134.85600281    0.31999999    2.91000009
   15.71444416  122.96099854    0.30000001    2.91000009
   15.71749973  133.51300049    0.31999999    2.91000009
   15.72361088  133.51300049    0.31999999    2.89000010
   15.72777748  119.14199829    0.31999999    2.91000009
   15.73111057  127.18299866    0.31999999    2.91000009
   15.73444462  127.72200012    0.31999999    2.89000010
   15.73750019  133.07400513    0.31999999    2.89000010
   15.74083328  134.42599487    0.31999999    2.89000010
   15.74388885  130.39100647    0.31999999    2.91000009
   15.74722290  124.67700195    0.31999999    2.89000010
   15.75055599  133.13699341    0.31999999    2.91000009
   15.75361156  130.11900330    0.31999999    2.91000009
   15.75694466  128.51600647    0.34000000    2.89000010
   15.76027775  127.06500244    0.34000000    2.89000010
   15.76083374  131.85699463    0.34000000    2.89000010
   15.76666641  131.85699463    0.36000001    2.89000010
   15.77083302  124.73300171    0.36000001    2.89000010
   15.77388859  124.91000366    0.34000000    2.91000009
   15.77722168  121.43599701    0.34000000    2.91000009
   15.78027725  124.87400055    0.34000000    2.91000009
   15.78361130  124.31800079    0.34000000    2.91000009
   15.78694534  118.63400269    0.34000000    2.91000009
   15.79000092  121.48400116    0.36000001    2.89000010
   15.79333401  128.74299622    0.36000001    2.89000010
   15.79416752  118.56199646    0.36000001    2.89000010
   15.79694462  126.68299866    0.36000001    2.89000010
   15.80027771  122.03700256    0.34000000    2.91000009
   15.80333328  119.70700073    0.34000000    2.91000009
   15.80944443  119.70700073    0.31999999    2.91000009
   15.81361103  118.31199646    0.31999999    2.91000009
   15.81694412  118.91100311    0.31999999    2.91000009
   15.81999969  119.87599945    0.34000000    2.91000009
   15.82333374  124.39399719    0.38000000    2.91000009
   15.82666683  119.65299988    0.36000001    2.91000009
   15.82750034  120.30400085    0.36000001    2.91000009
   15.83027744  119.15799713    0.34000000    2.91000009
   15.83361053  128.85299683    0.34000000    2.91000009
   15.83666611  121.83599854    0.38000000    2.91000009
   15.84000015  125.84999847    0.36000001    2.91000009
   15.84333324  137.94000244    0.36000001    2.91000009
   15.84638882  122.98999786    0.38000000    2.91000009
   15.85222244  122.98999786    0.36000001    2.91000009
   15.85638905  145.35299683    0.36000001    2.91000009
   15.85972214  139.97200012    0.34000000    2.91000009
   15.86083412  175.95799255    0.34000000    2.91000009
   15.86333370  139.87399292    0.34000000    2.91000009
   15.86666679  136.90699768    0.36000001    2.91000009
   15.86972237  135.00000000    0.36000001    2.91000009
   15.87305546  125.84600067    0.36000001    2.91000009
   15.87638855  117.95200348    0.38000000    2.91000009
   15.87944412  154.67999268    0.36000001    2.91000009
   15.88277817  119.49800110    0.34000000    2.91000009
   15.88583279  133.33099365    0.34000000    2.91000009
   15.88916683  151.44200134    0.31999999    2.91000009
   15.91138840  127.18299866    0.31999999    2.91000009
   15.91194439  137.48800659    0.31999999    2.91000009
   15.91527748  133.75999451    0.34000000    2.91000009
   15.91833401  126.26399994    0.36000001    2.91000009
   15.92166710  130.46600342    0.36000001    2.91000009
   15.92500019  155.19099426    0.36000001    2.91000009
   15.92777824  181.78199768    0.36000001    2.91000009
   15.92861176  172.58299255    0.38000000    2.91000009
   15.93194485  169.80799866    0.38000000    2.91000009
   15.93805599  169.80799866    0.38000000    2.91000009
   15.94222260  186.06599426    0.41999999    2.91000009
   15.94527817  145.24600220    0.40000001    2.91000009
   15.94861126  154.42300415    0.40000001    2.91000009
   15.95194435  162.18099976    0.40000001    2.91000009
   15.95499992  169.55900574    0.40000001    2.91000009
   15.95833302  159.37899780    0.40000001    2.91000009
   15.96111107  171.06799316    0.40000001    2.91000009
   15.96194458  161.01199341    0.40000001    2.91000009
   15.96527767  165.94700623    0.40000001    2.89000010
   15.96833324  171.55999756    0.40000001    2.89000010
   15.97166634  159.50399780    0.40000001    2.91000009
   15.97499943  152.97300720    0.40000001    2.91000009
   15.98083305  152.97300720    0.40000001    2.89000010
   15.98500061  155.13299561    0.46000001    2.91000009
   15.98833370  189.92700195    0.44000000    2.89000010
   15.99138927  153.04299927    0.50000000    2.89000010
   15.99444485  188.65600586    0.56999999    2.91000009
   15.99499989  177.43400574    0.56999999    2.91000009
   15.99833393  183.14199829    0.56999999    2.89000010
   16.00166702  198.45700073    0.56999999    2.91000009
   16.00472260  187.33200073    0.47999999    2.91000009
   16.00805473  165.39700317    0.44000000    2.91000009
   16.01138878  173.33299255    0.44000000    2.91000009
   16.01444435  174.66000366    0.56999999    2.91000009
   16.01777840  200.60699463    0.52999997    2.91000009
   16.02361107  200.60699463    0.55000001    2.91000009
   16.02777672  179.35299683    0.52999997    2.91000009
   16.03111076  152.47500610    0.52999997    2.91000009
   16.03444481  165.69599915    0.41999999    2.91000009
   16.03750038  173.98199463    0.55000001    2.91000009
   16.04083252  179.44400024    0.51999998    2.91000009
   16.04388809  161.81700134    0.44000000    2.91000009
   16.04722214  159.04100037    0.41999999    2.91000009
   16.05055428  185.04100037    0.36000001    2.91000009
   16.05360985  176.61399841    0.36000001    2.91000009
   16.05694389  153.06599426    0.36000001    2.91000009
   16.06027794  181.20599365    0.38000000    2.91000009
   16.06110954  171.62199402    0.38000000    2.91000009
   16.06666756  171.62199402    0.38000000    2.91000009
   16.07055664  160.13099670    0.38000000    2.93000007
   16.07389069  155.82499695    0.40000001    2.91000009
   16.07722282  169.71299744    0.52999997    2.91000009
   16.08027840  135.12399292    0.47999999    2.91000009
   16.08361244  144.58700562    0.41999999    2.91000009
   16.08694458  140.70500183    0.40000001    2.91000009
   16.09000015  163.50500488    0.40000001    2.91000009
   16.09333420  145.11700439    0.40000001    2.91000009
   16.09444427  131.84199524    0.41999999    2.91000009
   16.09694481  155.38600159    0.41999999    2.91000009
   16.10027885  152.84700012    0.40000001    2.91000009
   16.10361099  145.36300659    0.38000000    2.91000009
   16.10944557  145.36300659    0.38000000    2.91000009
   16.11361122  158.91299438    0.34000000    2.91000009
   16.11666679  155.42100525    0.31999999    2.91000009
   16.12000084  170.97799683    0.34000000    2.91000009
   16.12333298  159.38600159    0.34000000    2.91000009
   16.12638855  154.35699463    0.31999999    2.91000009
   16.12777710  154.74600220    0.31999999    2.91000009
   16.13000107  168.59500122    0.31999999    2.91000009
   16.13333321  175.93099976    0.34000000    2.91000009
   16.13638878  151.74299622    0.34000000    2.91000009
   16.13972282  168.93299866    0.34000000    2.93000007
   16.14305496  181.74400330    0.36000001    2.91000009
   16.14611053  171.02400208    0.38000000    2.91000009
   16.15222168  171.02400208    0.38000000    2.91000009
   16.15638924  177.38900757    0.34000000    2.91000009
   16.15972137  176.04400635    0.36000001    2.91000009
   16.16110992  174.96600342    0.36000001    2.91000009
   16.16305542  165.19500732    0.36000001    2.91000009
   16.16638756  168.91600037    0.34000000    2.93000007
   16.16972160  148.25799561    0.34000000    2.91000009
   16.17277718  148.54899597    0.34000000    2.93000007
   16.17611122  147.42700195    0.36000001    2.91000009
   16.17944336  148.47599792    0.36000001    2.91000009
   16.18249893  142.45700073    0.34000000    2.91000009
   16.18583298  148.08000183    0.34000000    2.91000009
   16.18888855  149.72900391    0.34000000    2.91000009
   16.19499969  149.72900391    0.34000000    2.91000009
   16.19916534  144.70199585    0.34000000    2.91000009
   16.20250130  150.32200623    0.34000000    2.91000009
   16.20555687  151.74899292    0.34000000    2.91000009
   16.20888901  148.63299561    0.34000000    2.91000009
   16.21222305  150.42500305    0.34000000    2.91000009
   16.21527863  146.19400024    0.34000000    2.91000009
   16.21861076  144.48899841    0.34000000    2.91000009
   16.22194481  146.19200134    0.34000000    2.91000009
   16.22500038  149.85400391    0.34000000    2.91000009
   16.22777748  141.88600159    0.34000000    2.91000009
   16.22861099  144.40299988    0.34000000    2.91000009
   16.23194504  150.37100220    0.34000000    2.91000009
   16.23805618  150.37100220    0.34000000    2.91000009
   16.24194527  146.01699829    0.34000000    2.91000009
   16.24527740  143.75500488    0.36000001    2.91000009
   16.24861145  146.37800598    0.38000000    2.91000009
   16.25166702  143.33599854    0.38000000    2.91000009
   16.25499916  136.60400391    0.38000000    2.91000009
   16.25833321  148.11099243    0.38000000    2.91000009
   16.26111031  135.83999634    0.38000000    2.91000009
   16.26166725  144.55299377    0.38000000    2.91000009
   16.26499939  140.36700439    0.38000000    2.91000009
   16.26833344  144.76699829    0.38000000    2.91000009
   16.27138901  147.22200012    0.38000000    2.91000009
   16.27472115  136.14500427    0.38000000    2.91000009
   16.28083229  136.14500427    0.38000000    2.91000009
   16.28499985  144.21899414    0.38000000    2.91000009
   16.28805542  142.91700745    0.38000000    2.91000009
   16.29138756  142.07499695    0.40000001    2.91000009
   16.29444313  134.04800415    0.40000001    2.91000009
   16.29500008  129.45500183    0.40000001    2.91000009
   16.29833221  143.41799927    0.38000000    2.91000009
   16.30166626  135.60600281    0.40000001    2.91000009
   16.30472183  141.16999817    0.40000001    2.91000009
   16.30805397  137.30099487    0.38000000    2.91000009
   16.31138802  136.36599731    0.38000000    2.91000009
   16.31444359  130.27999878    0.38000000    2.91000009
   16.31777954  137.25799561    0.38000000    2.91000009
   16.32361221  137.25799561    0.38000000    2.91000009
   16.32777786  130.08599854    0.38000000    2.91000009
   16.33111191  136.53199768    0.38000000    2.91000009
   16.33416748  128.73699951    0.38000000    2.91000009
   16.33750153  117.21800232    0.38000000    2.91000009
   16.34083366  137.79699707    0.40000001    2.91000009
   16.34388924  119.93099976    0.40000001    2.91000009
   16.34722328  113.26999664    0.40000001    2.91000009
   16.35055542  125.21099854    0.38000000    2.91000009
   16.35361099  119.64499664    0.38000000    2.91000009
   16.35694504  123.86499786    0.40000001    2.91000009
   16.36000061  128.63600159    0.40000001    2.91000009
   16.36111069  124.62300110    0.40000001    2.91000009
   16.36638832  124.62300110    0.40000001    2.91000009
   16.37055588  124.10299683    0.40000001    2.91000009
   16.37388992  121.63500214    0.41999999    2.91000009
   16.37694550  124.21900177    0.41999999    2.91000009
   16.38027763  119.66000366    0.44000000    2.91000009
   16.38361168  123.13899994    0.44000000    2.91000009
   16.38666725  123.50399780    0.44000000    2.91000009
   16.38999939  124.76100159    1.01999998    2.91000009
   16.39333344  115.85700226    1.11000001    2.91000009
   16.39444351  123.03500366    1.11000001    2.91000009
   16.39666748  117.59999847    0.92000002    2.91000009
   16.39999962  115.86299896    0.92000002    2.91000009
   16.40333366  124.61199951    1.00000000    2.91000009
   16.40944481  124.61199951    0.73000002    2.91000009
   16.41361046  115.01399994    0.55000001    2.91000009
   16.41666603  117.20700073    0.51999998    2.91000009
   16.42000008  125.27899933    0.47999999    2.91000009
   16.42305565  118.12799835    0.46000001    2.91000009
   16.42638779  117.87100220    0.44000000    2.91000009
   16.42777634  121.04799652    0.44000000    2.91000009
   16.43000031  118.37400055    0.44000000    2.91000009
   16.43333244  118.56600189    0.44000000    2.91000009
   16.43666649  119.61499786    0.41999999    2.91000009
   16.43972206  119.36900330    0.40000001    2.93000007
   16.44305420  119.03399658    0.40000001    2.91000009
   16.44610977  115.03600311    0.40000001    2.91000009
   16.45222282  115.03600311    0.40000001    2.91000009
   16.45639038  119.74199677    0.40000001    2.91000009
   16.45944595  116.73300171    0.40000001    2.91000009
   16.46111107  113.67299652    0.40000001    2.91000009
   16.46305656  114.86499786    0.40000001    2.91000009
   16.46666718  117.87200165    0.40000001    2.91000009
   16.46972275  119.33399963    0.40000001    2.91000009
   16.47305679  114.66600037    0.38000000    2.91000009
   16.47611237  118.10299683    0.40000001    2.91000009
   16.47944450  112.06600189    0.40000001    2.91000009
   16.48277855  113.33100128    0.40000001    2.91000009
   16.48583412  111.38099670    0.40000001    2.91000009
   16.48916626  115.94499969    0.38000000    2.91000009
   16.49500084  115.94499969    0.38000000    2.91000009
   16.49916649  114.49500275    0.38000000    2.91000009
   16.50250053  113.53700256    0.38000000    2.91000009
   16.50555611  121.74299622    0.38000000    2.91000009
   16.50888824  116.11799622    0.38000000    2.93000007
   16.51194382  120.64800262    0.38000000    2.91000009
   16.51527786  123.96499634    0.38000000    2.93000007
   16.51861000  120.31900024    0.38000000    2.91000009
   16.52166557  117.94300079    0.38000000    2.91000009
   16.52499962  118.68099976    0.38000000    2.91000009
   16.52777672  117.48500061    0.38000000    2.91000009
   16.52833366  120.47100067    0.38000000    2.91000009
   16.53166580  123.51599884    0.38000000    2.91000009
   16.53777695  123.51599884    0.38000000    2.91000009
   16.54194450  122.70300293    0.38000000    2.91000009
   16.54527664  117.14099884    0.38000000    2.91000009
   16.54833221  121.37799835    0.40000001    2.91000009
   16.55166626  120.60099792    0.40000001    2.91000009
   16.55499840  122.06999969    0.40000001    2.91000009
   16.55805397  118.23899841    0.40000001    2.91000009
   16.56110954  117.74600220    0.40000001    2.93000007
   16.56166649  121.19599915    0.40000001    2.93000007
   16.56499863  118.55300140    0.40000001    2.91000009
   16.56833458  119.81400299    0.40000001    2.91000009
   16.57139015  118.07399750    0.41999999    2.91000009
   16.57472229  112.62599945    0.41999999    2.91000009
   16.58083344  112.62599945    0.41999999    2.91000009
   16.58472252  115.85500336    0.41999999    2.91000009
   16.58805656  113.30200195    0.41999999    2.91000009
   16.59138870  119.83999634    0.41999999    2.91000009
   16.59444427  117.48600006    0.41999999    2.91000009
   16.59472275  115.72899628    0.41999999    2.91000009
   16.59805679  112.86599731    0.41999999    2.91000009
   16.60138893  118.27799988    0.41999999    2.91000009
   16.60444450  123.37599945    0.41999999    2.91000009
   16.60777855  117.46900177    0.41999999    2.93000007
   16.61111069  118.86599731    0.41999999    2.93000007
   16.61416626  122.12699890    0.44000000    2.91000009
   16.61750031  120.00800323    0.44000000    2.91000009
   16.62361145  120.00800323    0.44000000    2.91000009
   16.62777710  114.99299622    0.46000001    2.91000009
   16.62805557  118.57800293    0.46000001    2.91000009
   16.63138962  117.52700043    0.44000000    2.91000009
   16.63472176  119.27200317    0.44000000    2.91000009
   16.63777733  124.66100311    0.44000000    2.91000009
   16.64111137  117.26499939    0.46000001    2.93000007
   16.64444351  118.54199982    0.46000001    2.91000009
   16.64749908  111.09799957    0.46000001    2.91000009
   16.65083313  120.76999664    0.44000000    2.91000009
   16.65388870  124.15399933    0.44000000    2.91000009
   16.65722275  114.08100128    0.44000000    2.91000009
   16.66055489  115.49500275    0.44000000    2.91000009
   16.66110992  112.57499695    0.44000000    2.91000009
   16.66666603  112.57499695    0.44000000    2.93000007
   16.67055511  112.67099762    0.44000000    2.91000009
   16.67388916  112.59999847    0.44000000    2.91000009
   16.67722130  118.42800140    0.44000000    2.93000007
   16.68027687  119.88899994    0.44000000    2.91000009
   16.68361092  121.55200195    0.46000001    2.91000009
   16.68694305  116.26000214    0.46000001    2.91000009
   16.68999863  119.61100006    0.46000001    2.91000009
   16.69333267  121.01499939    0.46000001    2.91000009
   16.69444275  117.74700165    0.46000001    2.91000009
   16.69694328  118.59600067    0.46000001    2.91000009
   16.70000076  122.07299805    0.46000001    2.91000009
   16.70333481  116.34700012    0.46000001    2.91000009
   16.70916748  116.34700012    0.46000001    2.91000009
   16.71333504  118.31800079    0.46000001    2.91000009
   16.71666718  124.79199982    0.47999999    2.91000009
   16.71972275  116.02400208    0.47999999    2.91000009
   16.72305679  111.73500061    0.47999999    2.91000009
   16.72638893  114.81300354    0.47999999    2.91000009
   16.72777748  120.97599792    0.47999999    2.91000009
   16.73000145  118.90100098    0.47999999    2.91000009
   16.73305511  119.71299744    0.47999999    2.91000009
   16.73638916  114.71099854    0.47999999    2.91000009
   16.73944473  117.79100037    0.47999999    2.91000009
   16.74277878  118.85399628    0.47999999    2.91000009
   16.74611092  113.92299652    0.46000001    2.91000009
   16.75222206  113.92299652    0.46000001    2.91000009
   16.75611115  119.79499817    0.44000000    2.91000009
   16.75944519  119.99199677    0.44000000    2.91000009
   16.76111031  118.87799835    0.44000000    2.91000009
   16.76305580  113.66100311    0.44000000    2.91000009
   16.76611137  119.02500153    0.44000000    2.91000009
   16.76944351  117.55599976    0.44000000    2.91000009
   16.77277756  121.95500183    0.46000001    2.91000009
   16.77583313  117.68599701    0.46000001    2.91000009
   16.77916718  117.08100128    0.46000001    2.91000009
   16.78249931  118.91899872    0.44000000    2.91000009
   16.78555489  119.35099792    0.44000000    2.93000007
   16.78888893  122.16500092    0.44000000    2.91000009
   16.79500008  122.16500092    0.44000000    2.91000009
   16.79916573  118.52600098    0.44000000    2.91000009
   16.80222130  123.80300140    0.44000000    2.91000009
   16.80555534  122.89099884    0.44000000    2.93000007
   16.80888748  116.40499878    0.46000001    2.91000009
   16.81194305  117.04900360    0.46000001    2.91000009
   16.81527710  112.70099640    0.46000001    2.91000009
   16.81833458  112.53500366    0.46000001    2.91000009
   16.82166672  114.23799896    0.46000001    2.91000009
   16.82500076  113.12100220    0.46000001    2.91000009
   16.82777786  117.01799774    0.46000001    2.93000007
   16.82833481  114.10299683    0.46000001    2.93000007
   16.83166695  111.62200165    0.44000000    2.91000009
   16.83777809  111.62200165    0.46000001    2.91000009
   16.84194565  115.79299927    0.46000001    2.93000007
   16.84527779  116.94300079    0.46000001    2.93000007
   16.84833336  107.77899933    0.46000001    2.91000009
   16.85166740  114.32900238    0.46000001    2.91000009
   16.85472298  117.50599670    0.46000001    2.93000007
   16.85805511  116.42900085    0.46000001    2.93000007
   16.86111069  113.51000214    0.46000001    2.91000009
   16.86138916  116.97100067    0.46000001    2.91000009
   16.86472321  113.17400360    0.46000001    2.91000009
   16.86805534  116.93399811    0.46000001    2.91000009
   16.87111092  110.51599884    0.46000001    2.91000009
   16.87444496  115.73100281    0.47999999    2.91000009
   16.88055611  115.73100281    0.47999999    2.91000009
   16.88472176  120.01300049    0.47999999    2.91000009
   16.88805580  115.14199829    0.47999999    2.91000009
   16.89111137  121.23500061    0.47999999    2.91000009
   16.89444351  118.24299622    0.47999999    2.91000009
   16.89500046  120.19100189    0.47999999    2.91000009
   16.89805603  121.64299774    0.47999999    2.91000009
   16.90138817  113.27100372    0.47999999    2.91000009
   16.90472221  116.90799713    0.50000000    2.93000007
   16.90777779  113.62300110    0.50000000    2.93000007
   16.91110992  118.41699982    0.50000000    2.91000009
   16.93222237  118.41699982    0.50000000    2.93000007
   16.93638802  117.84700012    0.50000000    2.91000009
   16.93944359  118.58599854    0.50000000    2.91000009
   16.94277763  118.69499969    0.50000000    2.91000009
   16.94583321  115.85700226    0.50000000    2.91000009
   16.94916534  123.33100128    0.50000000    2.91000009
   16.95250130  118.83599854    0.47999999    2.91000009
   16.95555687  112.94200134    0.50000000    2.91000009
   16.95888901  126.38700104    0.50000000    2.91000009
   16.96222305  125.26799774    0.50000000    2.91000009
   16.96305656  120.88800049    0.50000000    2.91000009
   16.96555710  116.52999878    0.51999998    2.91000009
   16.96888924  112.72499847    0.51999998    2.91000009
   16.97472191  112.72499847    0.51999998    2.91000009
   16.97888947  119.66400146    0.51999998    2.91000009
   16.98222351  117.88899994    0.51999998    2.91000009
   16.98555565  114.71099854    0.51999998    2.93000007
   16.98861122  116.39900208    0.51999998    2.93000007
   16.99194527  112.55000305    0.51999998    2.93000007
   16.99527740  115.64099884    0.52999997    2.91000009
   16.99611092  116.14299774    0.52999997    2.91000009
   16.99861145  116.36000061    0.52999997    2.91000009
   17.00194359  121.09400177    0.55000001    2.91000009
   17.00499916  115.88999939    0.55000001    2.91000009
   17.00833321  121.95700073    0.55000001    2.91000009
   17.01166725  120.30100250    0.55000001    2.91000009
   17.01777840  120.30100250    0.55000001    2.91000009
   17.02194405  121.56600189    0.56999999    2.91000009
   17.02499962  122.52500153    0.55000001    2.91000009
   17.02833366  119.59200287    0.55000001    2.91000009
   17.02972221  121.51699829    0.55000001    2.91000009
   17.03194427  119.06400299    0.55000001    2.91000009
   17.03499985  116.22399902    0.56999999    2.91000009
   17.03833199  125.73799896    0.56999999    2.91000009
   17.04166603  118.81300354    0.58999997    2.91000009
   17.04472160  117.56600189    0.58999997    2.91000009
   17.04805565  117.27899933    0.56999999    2.91000009
   17.05138779  120.74199677    0.56999999    2.91000009
   17.05444336  119.98600006    0.55000001    2.91000009
   17.06055450  119.98600006    0.56999999    2.91000009
   17.06472206  197.92799377    0.56999999    2.91000009
   17.06805611  120.13300323    0.56999999    2.91000009
   17.07111168  116.37799835    0.56999999    2.91000009
   17.07444572  124.64700317    0.56999999    2.91000009
   17.07750130  120.81900024    0.55000001    2.91000009
   17.08083344  123.99199677    0.55000001    2.93000007
   17.08416748  121.72699738    0.56999999    2.91000009
   17.08722305  117.69799805    0.58999997    2.91000009
   17.09055710  125.09799957    0.58999997    2.91000009
   17.09388924  129.89399719    0.58999997    2.91000009
   17.09666824  125.12599945    0.56999999    2.91000009
   17.09749985  132.47399902    0.56999999    2.91000009
   17.10333443  132.47399902    0.56999999    2.91000009
   17.10750008  129.78999329    0.55000001    2.91000009
   17.11083412  131.07000732    0.55000001    2.91000009
   17.11388969  126.31300354    0.55000001    2.91000009
   17.11722183  125.91000366    0.55000001    2.91000009
   17.12055588  132.97900391    0.55000001    2.93000007
   17.12361145  122.67099762    0.55000001    2.91000009
   17.12694550  126.20600128    0.56999999    2.91000009
   17.12972260  125.93199921    0.56999999    2.91000009
   17.13055611  125.44699860    0.56999999    2.91000009
   17.13388824  124.62699890    0.56999999    2.91000009
   17.13694382  123.29299927    0.56999999    2.93000007
   17.14027786  122.76899719    0.58999997    2.91000009
   17.14611053  122.76899719    0.61000001    2.91000009
   17.15027809  131.05400085    0.61000001    2.93000007
   17.15361023  125.23500061    0.61000001    2.93000007
   17.15694427  127.58100128    0.61000001    2.91000009
   17.15999985  129.40400696    0.61000001    2.93000007
   17.16305542  122.33899689    0.61000001    2.91000009
   17.16361046  124.85199738    0.61000001    2.91000009
   17.16694450  122.69000244    0.61000001    2.93000007
   17.17000008  122.15200043    0.61000001    2.91000009
   17.17333221  116.26399994    0.58999997    2.91000009
   17.17666626  123.68599701    0.58999997    2.91000009
   17.18000031  122.08799744    0.58999997    2.91000009
   17.18305397  123.44899750    0.58999997    2.91000009
   17.18916512  123.44899750    0.58999997    2.91000009
   17.19333267  125.14900208    0.58999997    2.93000007
   17.19666672  117.96199799    0.58999997    2.93000007
   17.19694328  124.92199707    0.61000001    2.91000009
   17.20027924  123.92099762    0.58999997    2.91000009
   17.20333481  123.77899933    0.58999997    2.91000009
   17.20666695  125.19000244    0.58999997    2.91000009
   17.21000099  123.00000000    0.58999997    2.91000009
   17.21305656  126.14600372    0.58999997    2.91000009
   17.21638870  125.69799805    0.58999997    2.91000009
   17.21972275  126.41699982    0.58999997    2.91000009
   17.22277832  131.33599854    0.58999997    2.91000009
   17.22611237  131.88299561    0.56999999    2.93000007
   17.23194504  131.88299561    0.58999997    2.91000009
   17.23611069  125.21800232    0.61000001    2.91000009
   17.23916626  124.72499847    0.61000001    2.91000009
   17.24250031  124.88500214    0.61000001    2.91000009
   17.24583435  122.29799652    0.61000001    2.91000009
   17.24888992  122.41100311    0.61000001    2.91000009
   17.25222206  118.76599884    0.61000001    2.91000009
   17.25555611  118.27600098    0.58999997    2.91000009
   17.25861168  121.68900299    0.61000001    2.93000007
   17.26194382  115.11199951    0.63000000    2.91000009
   17.26305580  120.13800049    0.63000000    2.91000009
   17.26555634  121.12599945    0.63000000    2.91000009
   17.26888847  116.76200104    0.63000000    2.91000009
   17.27472115  116.76200104    0.69000000    2.91000009
   17.27888870  121.04199982    0.70999998    2.91000009
   17.28222275  118.94400024    0.73000002    2.93000007
   17.28527641  118.65100098    0.70999998    2.91000009
   17.28861046  119.51300049    0.76999998    2.91000009
   17.29194450  122.03500366    0.83999997    2.91000009
   17.29500008  125.39700317    0.69000000    2.91000009
   17.29638863  118.79599762    0.69000000    2.91000009
   17.29861069  125.73500061    0.55000001    2.91000009
   17.30194283  133.67700195    0.52999997    2.93000007
   17.30499840  123.64900208    0.51999998    2.91000009
   17.30833244  126.82700348    0.51999998    2.91000009
   17.31166649  119.39099884    0.52999997    2.93000007
   17.31750107  119.39099884    0.64999998    2.91000009
   17.32166672  136.94500732    0.69000000    2.91000009
   17.32500076  120.79199982    0.58999997    2.91000009
   17.32833481  137.30799866    0.69000000    2.93000007
   17.33000183  121.40899658    0.69000000    2.93000007
   17.33194542  133.86099243    0.67000002    2.93000007
   17.33500099  125.53199768    0.64999998    2.93000007
   17.33833313  135.60699463    0.69000000    2.91000009
   17.34166718  131.22999573    0.69000000    2.91000009
   17.34472275  117.42500305    0.83999997    2.91000009
   17.34805679  118.51399994    0.81999999    2.91000009
   17.35111237  119.40599823    0.83999997    2.91000009
   17.35444450  117.78800201    0.75000000    2.91000009
   17.36055565  117.78800201    0.61000001    2.91000009
   17.36472321  114.34100342    0.61000001    2.91000009
   17.36777878  118.94100189    0.61000001    2.91000009
   17.37111092  117.49600220    0.61000001    2.91000009
   17.37416649  123.17600250    0.94000000    2.91000009
   17.37750053  119.01100159    1.00000000    2.91000009
   17.38083267  115.84200287    1.00000000    2.91000009
   17.38388824  120.30699921    0.92000002    2.91000009
   17.38722229  135.58599854    0.88000000    2.91000009
   17.39055634  132.43499756    0.64999998    2.91000009
   17.39361191  127.21700287    0.63000000    2.91000009
   17.39666748  140.45300293    0.63000000    2.91000009
   17.39722252  143.26100159    0.63000000    2.91000009
   17.40333366  143.26100159    0.58999997    2.91000009
   17.40749931  122.52300262    0.61000001    2.91000009
   17.41055489  124.14900208    0.63000000    2.91000009
   17.41388893  129.01699829    0.64999998    2.91000009
   17.41722107  124.42700195    0.64999998    2.91000009
   17.42027664  120.66300201    0.64999998    2.91000009
   17.42361069  113.40799713    0.64999998    2.91000009
   17.42666626  115.29100037    0.64999998    2.93000007
   17.43000031  117.01599884    0.64999998    2.91000009
   17.43055534  119.79000092    0.64999998    2.91000009
   17.43361092  132.43400574    0.63000000    2.91000009
   17.43694305  116.20500183    0.63000000    2.91000009
   17.44027710  123.29499817    0.63000000    2.91000009
   17.44610977  123.29499817    0.63000000    2.91000009
   17.45027924  117.92800140    0.58999997    2.91000009
   17.45361137  120.66999817    0.58999997    2.91000009
   17.45666695  116.71800232    0.58999997    2.91000009
   17.46000099  114.68399811    0.61000001    2.91000009
   17.46305656  118.53600311    0.61000001    2.91000009
   17.46361160  124.64900208    0.61000001    2.91000009
   17.46694565  114.10900116    0.61000001    2.91000009
   17.47000122  116.90200043    0.61000001    2.91000009
   17.47333336  118.63500214    0.64999998    2.91000009
   17.47666740  119.61199951    0.63000000    2.91000009
   17.47972298  117.24400330    0.64999998    2.91000009
   17.48305511  116.19200134    0.64999998    2.91000009
   17.48888969  116.19200134    0.67000002    2.91000009
   17.49305534  116.23999786    0.67000002    2.91000009
   17.49638939  116.32199860    0.67000002    2.91000009
   17.49694443  118.69400024    0.67000002    2.91000009
   17.50000000  118.95099640    0.64999998    2.91000009
   17.50305557  118.88800049    0.64999998    2.91000009
   17.50638962  114.27300262    0.63000000    2.91000009
   17.50972176  114.60800171    0.63000000    2.91000009
   17.51277733  120.71499634    0.63000000    2.91000009
   17.51611137  114.49500275    0.63000000    2.91000009
   17.51944351  115.62999725    0.63000000    2.91000009
   17.52249908  117.26300049    0.61000001    2.91000009
   17.52583313  121.75900269    0.63000000    2.91000009
   17.53194427  121.75900269    0.67000002    2.91000009
   17.53610992  122.57700348    0.67000002    2.91000009
   17.53916550  124.76100159    0.61000001    2.89000010
   17.54249954  118.82299805    0.67000002    2.91000009
   17.54583359  114.14099884    0.61000001    2.91000009
   17.54888916  123.53700256    0.61000001    2.91000009
   17.55222130  117.45300293    0.63000000    2.91000009
   17.55555534  121.10299683    0.64999998    2.93000007
   17.55861092  118.71499634    0.67000002    2.91000009
   17.56194305  119.82800293    0.67000002    2.91000009
   17.56361008  119.33000183    0.64999998    2.91000009
   17.56555557  115.25299835    0.64999998    2.91000009
   17.56888962  118.69499969    0.67000002    2.91000009
   17.57472229  118.69499969    0.67000002    2.91000009
   17.57888985  115.88899994    0.80000001    2.91000009
   17.58194542  115.83100128    0.80000001    2.91000009
   17.58527756  115.24199677    0.79000002    2.91000009
   17.58861160  119.86599731    0.67000002    2.91000009
   17.59166718  115.05200195    0.70999998    2.91000009
   17.59500122  117.11699677    0.69000000    2.91000009
   17.59694481  119.32399750    0.69000000    2.91000009
   17.59861183  115.86100006    0.64999998    2.91000009
   17.60194397  116.36799622    0.67000002    2.91000009
   17.60499954  120.45899963    0.63000000    2.91000009
   17.60833359  114.38300323    0.63000000    2.91000009
   17.61166763  119.33899689    0.63000000    2.91000009
   17.61750031  119.33899689    0.61000001    2.91000009
   17.62166595  117.51799774    0.63000000    2.91000009
   17.62500000  118.59400177    0.63000000    2.91000009
   17.62805557  115.57399750    0.63000000    2.91000009
   17.63027763  114.65699768    0.63000000    2.91000009
   17.63166618  119.92800140    0.63000000    2.91000009
   17.63500023  124.73699951    0.63000000    2.91000009
   17.63805580  120.88800049    0.63000000    2.91000009
   17.64138794  118.23400116    0.64999998    2.91000009
   17.64472198  117.71299744    0.64999998    2.91000009
   17.64777756  118.79000092    0.64999998    2.91000009
   17.65111160  115.62599945    0.64999998    2.91000009
   17.65444374  114.35600281    0.64999998    2.91000009
   17.66027832  114.35600281    0.64999998    2.91000009
   17.66444397  119.06300354    0.69000000    2.91000009
   17.66777802  111.56600189    0.69000000    2.91000009
   17.67083359  110.67099762    0.69000000    2.91000009
   17.67416573  122.17700195    0.69000000    2.91000009
   17.67749977  119.76499939    0.69000000    2.91000009
   17.68055534  120.85700226    0.69000000    2.91000009
   17.68388748  112.93800354    0.69000000    2.91000009
   17.68722153  113.73100281    0.70999998    2.91000009
   17.69027710  117.62100220    0.69000000    2.91000009
   17.69361115  120.50399780    0.70999998    2.91000009
   17.69694328  113.74800110    0.70999998    2.91000009
   17.69722176  117.41600037    0.69000000    2.91000009
   17.70333481  117.41600037    0.69000000    2.91000009
   17.70722389  121.41200256    0.70999998    2.91000009
   17.71055603  116.50800323    0.70999998    2.91000009
   17.71389008  117.27700043    0.69000000    2.91000009
   17.71694565  117.01300049    0.73000002    2.91000009
   17.72027779  115.69200134    0.73000002    2.91000009
   17.72361183  116.80699921    0.79000002    2.91000009
   17.72666740  114.82199860    0.75000000    2.91000009
   17.73000145  120.47000122    0.75000000    2.91000009
   17.73055649  115.76599884    0.76999998    2.91000009
   17.73361206  119.94699860    0.75000000    2.91000009
   17.73694420  114.60800171    0.75000000    2.91000009
   17.73999977  113.70200348    0.80000001    2.91000009
   17.74611092  113.70200348    0.89999998    2.91000009
   17.75027847  114.00099945    0.89999998    2.91000009
   17.75333405  119.05100250    0.83999997    2.91000009
   17.75666618  109.21399689    0.75000000    2.91000009
   17.76000023  112.76599884    0.69000000    2.91000009
   17.76305580  121.30599976    0.67000002    2.91000009
   17.76388931  119.60099792    0.67000002    2.91000009
   17.76666641  119.60500336    0.67000002    2.91000009
   17.77000046  125.60900116    0.67000002    2.91000009
   17.77305603  122.56199646    0.67000002    2.91000009
   17.77638817  122.74600220    0.67000002    2.91000009
   17.77972221  115.36499786    0.67000002    2.91000009
   17.78277779  118.42500305    0.67000002    2.89000010
   17.78888893  118.42500305    0.69000000    2.91000009
   17.79305458  112.14499664    0.70999998    2.91000009
   17.79638863  116.18099976    0.70999998    2.91000009
   17.79722214  116.28399658    0.70999998    2.91000009
   17.79972076  113.11100006    0.70999998    2.91000009
   17.80305481  115.90399933    0.70999998    2.89000010
   17.80611038  119.56800079    0.73000002    2.91000009
   17.80944443  118.18699646    0.75000000    2.89000010
   17.81277657  116.56400299    0.80000001    2.91000009
   17.81583214  116.89499664    0.80000001    2.91000009
   17.81916809  114.49099731    0.79000002    2.91000009
   17.82222366  117.32099915    0.79000002    2.91000009
   17.82555580  122.58399963    0.75000000    2.91000009
   17.83166695  122.58399963    0.79000002    2.91000009
   17.83583450  117.67199707    0.76999998    2.91000009
   17.83916664  120.57800293    0.70999998    2.91000009
   17.84222221  118.95800018    0.70999998    2.91000009
   17.84555626  122.41600037    0.70999998    2.91000009
   17.84889030  121.58000183    0.70999998    2.91000009
   17.85194397  120.09100342    0.70999998    2.89000010
   17.85527802  114.80999756    0.70999998    2.89000010
   17.85861206  115.89399719    0.70999998    2.89000010
   17.86166763  121.80500031    0.70999998    2.91000009
   17.86388969  121.50000000    0.69000000    2.91000009
   17.86527824  118.21900177    0.69000000    2.91000009
   17.86861038  116.50700378    0.69000000    2.91000009
   17.87500000  116.50700378    0.67000002    2.91000009
   17.87916756  116.71700287    0.67000002    2.91000009
   17.88222313  117.64700317    0.67000002    2.91000009
   17.88555527  118.01000214    0.67000002    2.91000009
   17.88888931  117.84300232    0.67000002    2.91000009
   17.89194489  114.93000031    0.69000000    2.91000009
   17.89527702  116.92900085    0.69000000    2.91000009
   17.89749908  115.88600159    0.69000000    2.91000009
   17.89888954  114.94300079    0.69000000    2.91000009
   17.90222168  117.12899780    0.70999998    2.91000009
   17.90527725  119.89199829    0.70999998    2.91000009
   17.90861130  117.60500336    0.73000002    2.91000009
   17.91194344  111.88899994    0.73000002    2.91000009
   17.91749954  111.88899994    0.73000002    2.91000009
   17.92166519  120.03500366    0.70999998    2.91000009
   17.92472076  118.03900146    0.73000002    2.91000009
   17.92805481  120.89700317    0.76999998    2.91000009
   17.94555473  116.74600220    0.70999998    2.91000009
   17.94777679  115.59500122    0.70999998    2.91000009
   17.95111275  117.55999756    0.70999998    2.91000009
   17.95416832  117.17299652    0.70999998    2.91000009
   17.96055603  117.17299652    0.73000002    2.91000009
   17.96472359  117.75800323    0.73000002    2.91000009
   17.96777916  111.94499969    0.70999998    2.91000009
   17.97111130  114.96199799    0.70999998    2.91000009
   17.97416687  115.98400116    0.70999998    2.91000009
   17.97750092  196.14100647    0.69000000    2.91000009
   17.97888947  111.84300232    0.70999998    2.91000009
   17.98139000  114.34400177    0.70999998    2.91000009
   17.98444557  114.91000366    0.70999998    2.91000009
   17.98777771  114.11799622    0.70999998    2.91000009
   17.99111176  113.16200256    0.70999998    2.89000010
   17.99416733  116.26899719    0.73000002    2.89000010
   17.99749947  117.20600128    0.73000002    2.91000009
   18.00333405  117.20600128    0.73000002    2.91000009
   18.00749969  115.50399780    0.75000000    2.91000009
   18.01055527  121.05799866    0.73000002    2.91000009
   18.01222229  120.52999878    0.73000002    2.91000009
   18.01416588  119.04000092    0.75000000    2.91000009
   18.01749992  120.04699707    0.75000000    2.91000009
   18.02083397  117.37300110    0.76999998    2.89000010
   18.02388954  115.22299957    0.76999998    2.91000009
   18.02722168  112.80400085    0.76999998    2.91000009
   18.03027725  116.74199677    0.79000002    2.89000010
   18.03361130  115.98999786    0.80000001    2.91000009
   18.03694344  116.45300293    0.80000001    2.91000009
   18.03999901  115.30000305    0.80000001    2.91000009
   18.04611015  115.30000305    0.80000001    2.89000010
   18.05027771  116.57399750    0.80000001    2.89000010
   18.05360985  116.94100189    0.80000001    2.89000010
   18.05666542  115.02999878    0.80000001    2.91000009
   18.05999947  116.47200012    0.79000002    2.91000009
   18.06305504  115.14600372    0.79000002    2.91000009
   18.06638718  114.59600067    0.79000002    2.91000009
   18.06972313  118.48400116    0.79000002    2.89000010
   18.07277870  113.51699829    0.79000002    2.89000010
   18.07611275  112.70600128    0.79000002    2.89000010
   18.07888985  110.82099915    0.79000002    2.89000010
   18.07972336  117.80500031    0.79000002    2.89000010
   18.08305550  116.12999725    0.79000002    2.91000009
   18.08889008  116.12999725    0.81999999    2.91000009
   18.09305573  119.05300140    0.80000001    2.89000010
   18.09638977  115.09999847    0.79000002    2.91000009
   18.09944534  114.69100189    0.79000002    2.91000009
   18.10305595  114.86399841    0.79000002    2.91000009
   18.10611153  117.86100006    0.79000002    2.91000009
   18.10944557  115.16200256    0.79000002    2.91000009
   18.11222267  121.50199890    0.79000002    2.91000009
   18.11277771  123.16300201    0.79000002    2.91000009
   18.11611176  121.84200287    0.76999998    2.89000010
   18.11944389  120.86100006    0.76999998    2.89000010
   18.12249947  114.30799866    0.76999998    2.89000010
   18.12583351  113.21600342    0.79000002    2.89000010
   18.13194466  113.21600342    0.80000001    2.89000010
   18.13611031  112.11499786    0.80000001    2.91000009
   18.13916588  111.18699646    0.81999999    2.91000009
   18.14249992  112.80300140    0.81999999    2.91000009
   18.14555550  108.84799957    0.81999999    2.89000010
   18.14583397  113.64299774    0.81999999    2.89000010
   18.14916611  113.50199890    0.81999999    2.89000010
   18.15250015  107.63200378    0.81999999    2.89000010
   18.15583229  111.46099854    0.81999999    2.89000010
   18.15888786  110.83999634    0.81999999    2.89000010
   18.16222191  113.82599640    0.80000001    2.91000009
   18.16527748  112.60199738    0.80000001    2.91000009
   18.16860962  111.56199646    0.80000001    2.89000010
   18.17472076  111.56199646    0.79000002    2.89000010
   18.17888832  119.78900146    0.79000002    2.89000010
   18.17916679  118.69999695    0.79000002    2.89000010
   18.18249893  117.55400085    0.79000002    2.89000010
   18.18583298  122.42099762    0.80000001    2.89000010
   18.18888855  118.64800262    0.79000002    2.91000009
   18.19222069  116.23799896    0.79000002    2.91000009
   18.19555473  120.06300354    0.79000002    2.89000010
   18.19861031  116.37899780    0.76999998    2.91000009
   18.20194435  118.20899963    0.76999998    2.89000010
   18.20527840  114.44599915    0.76999998    2.91000009
   18.20861244  103.01599884    0.76999998    2.91000009
   18.21166801  118.32800293    0.79000002    2.89000010
   18.21222305  118.20800018    0.79000002    2.91000009
   18.21750069  118.20800018    0.79000002    2.89000010
   18.22166634  116.08899689    0.79000002    2.89000010
   18.22472191  108.56300354    0.79000002    2.91000009
   18.22805595  112.00099945    0.79000002    2.91000009
   18.23139000  112.37100220    0.79000002    2.91000009
   18.23444557  112.66500092    0.79000002    2.89000010
   18.23777771  118.59999847    0.79000002    2.91000009
   18.24111176  114.16600037    0.79000002    2.91000009
   18.24416733  118.66799927    0.79000002    2.89000010
   18.24555588  119.86699677    0.79000002    2.89000010
   18.24805641  119.20600128    0.79000002    2.91000009
   18.25111198  118.01499939    0.80000001    2.89000010
   18.25444412  117.17500305    0.80000001    2.89000010
   18.26027870  117.17500305    0.81999999    2.89000010
   18.26444435  118.03700256    0.83999997    2.89000010
   18.26777840  118.86100006    0.83999997    2.89000010
   18.27083397  117.21099854    0.86000001    2.89000010
   18.27416611  123.14099884    0.86000001    2.89000010
   18.27750015  116.51999664    0.83999997    2.89000010
   18.27888870  119.54900360    0.81999999    2.91000009
   18.28111076  119.00000000    0.81999999    2.89000010
   18.28416634  112.83799744    0.81999999    2.89000010
   18.28750038  114.41000366    0.81999999    2.89000010
   18.29083252  118.61799622    0.81999999    2.89000010
   18.29388809  115.70200348    0.81999999    2.89000010
   18.29722214  117.92500305    0.81999999    2.86999989
   18.30305481  117.92500305    0.81999999    2.89000010
   18.30722237  115.45700073    0.80000001    2.91000009
   18.31055450  112.89399719    0.80000001    2.89000010
   18.31222153  113.72100067    0.80000001    2.89000010
   18.31416512  116.33699799    0.79000002    2.89000010
   18.31750107  112.11000061    0.79000002    2.89000010
   18.32055664  116.50000000    0.79000002    2.89000010
   18.32389069  115.81199646    0.80000001    2.89000010
   18.32694626  121.51899719    0.79000002    2.89000010
   18.33027840  119.56199646    0.79000002    2.89000010
   18.33388901  119.76799774    0.79000002    2.89000010
   18.33694458  122.58899689    0.79000002    2.89000010
   18.34027863  117.60099792    0.79000002    2.86999989
   18.34611130  117.60099792    0.79000002    2.91000009
   18.35027885  117.52400208    0.79000002    2.89000010
   18.35333443  119.01699829    0.79000002    2.91000009
   18.35666656  115.73899841    0.79000002    2.89000010
   18.36000061  113.63600159    0.80000001    2.89000010
   18.36305618  114.85500336    0.81999999    2.89000010
   18.36638832  119.06999969    0.83999997    2.91000009
   18.36944389  116.84100342    0.83999997    2.91000009
   18.37277794  113.23600006    0.81999999    2.89000010
   18.37611198  112.15100098    0.80000001    2.89000010
   18.37888908  114.78500366    0.80000001    2.89000010
   18.37972260  114.32299805    0.80000001    2.89000010
   18.38277817  116.04799652    0.80000001    2.89000010
   18.38888931  116.04799652    0.80000001    2.89000010
   18.39305496  113.49700165    0.80000001    2.89000010
   18.39611053  116.47299957    0.80000001    2.89000010
   18.39944458  112.12300110    0.80000001    2.89000010
   18.40277672  113.69599915    0.81999999    2.91000009
   18.40583229  118.17800140    0.81999999    2.91000009
   18.40916634  117.76599884    0.81999999    2.89000010
   18.41222191  115.23699951    0.83999997    2.89000010
   18.41277695  117.12799835    0.83999997    2.89000010
   18.41583252  116.57099915    0.88000000    2.89000010
   18.41916656  116.95200348    0.89999998    2.89000010
   18.42249870  116.49400330    0.88000000    2.89000010
   18.42555428  119.52999878    0.88000000    2.89000010
   18.43166542  119.52999878    0.88000000    2.89000010
   18.43583298  122.51200104    0.88000000    2.89000010
   18.43916512  112.68299866    0.88000000    2.86999989
   18.44222069  116.05100250    0.89999998    2.89000010
   18.44555473  117.38800049    0.88000000    2.86999989
   18.44610977  119.53399658    0.88000000    2.86999989
   18.44916534  118.93800354    0.88000000    2.86999989
   18.45250130  112.59799957    0.88000000    2.89000010
   18.45583344  110.60299683    0.89999998    2.89000010
   18.45888901  112.32599640    0.89999998    2.89000010
   18.46222305  113.85800171    0.89999998    2.89000010
   18.46527863  117.37599945    0.88000000    2.89000010
   18.46861076  114.62699890    0.88000000    2.89000010
   18.47444534  114.62699890    0.86000001    2.89000010
   18.47861099  112.88500214    0.86000001    2.91000009
   18.47916794  107.62500000    0.86000001    2.91000009
   18.48250008  115.04499817    0.86000001    2.89000010
   18.48583412  112.62500000    0.88000000    2.89000010
   18.48888969  113.29799652    0.86000001    2.89000010
   18.49222183  117.79000092    0.86000001    2.89000010
   18.49527740  117.56099701    0.86000001    2.89000010
   18.49861145  117.34500122    0.86000001    2.86999989
   18.50194359  117.62500000    0.86000001    2.89000010
   18.50499916  113.29799652    0.86000001    2.86999989
   18.50833321  115.61799622    0.86000001    2.89000010
   18.51138878  116.85600281    0.86000001    2.89000010
   18.51250076  117.60700226    0.86000001    2.89000010
   18.51749992  117.60700226    0.86000001    2.89000010
   18.52166557   98.55069733    0.88000000    2.89000010
   18.52472115  106.65799713    0.88000000    2.89000010
   18.52805519  114.20500183    0.88000000    2.89000010
   18.53111076  116.17700195    0.88000000    2.89000010
   18.53444481  116.45800018    0.88000000    2.89000010
   18.53777695  117.44499969    0.89999998    2.89000010
   18.54083252  115.07599640    0.89999998    2.89000010
   18.54416656  112.82800293    0.89999998    2.89000010
   18.54583359  117.46499634    0.89999998    2.86999989
   18.54777718  116.89299774    0.89999998    2.86999989
   18.55083275  115.82900238    0.89999998    2.89000010
   18.55416679  114.92199707    0.89999998    2.86999989
   18.56027794  114.92199707    0.88000000    2.89000010
   18.56444359  108.87100220    0.88000000    2.86999989
   18.56750107  111.72299957    0.88000000    2.89000010
   18.57083511  113.78099823    0.88000000    2.89000010
   18.57416725  109.51899719    0.88000000    2.89000010
   18.57722282  112.52799988    0.86000001    2.89000010
   18.57916832  113.94200134    0.86000001    2.89000010
   18.58111191  116.72699738    0.86000001    2.86999989
   18.58416748  117.05899811    0.83999997    2.91000009
   18.58750153  117.65799713    0.83999997    2.91000009
   18.59083366  112.42600250    0.86000001    2.86999989
   18.59388924  114.75499725    0.86000001    2.86999989
   18.59722328  113.48699951    0.88000000    2.86999989
   18.60305595  113.48699951    0.89999998    2.89000010
   18.60722351  116.72699738    0.89999998    2.89000010
   18.61055565  110.90200043    0.89999998    2.91000009
   18.61250114  111.10800171    0.89999998    2.91000009
   18.61416626  119.72200012    0.89999998    2.91000009
   18.61722183  118.21499634    0.89999998    2.89000010
   18.62055588  117.57099915    0.92000002    2.86999989
   18.62388992  112.87100220    0.92000002    2.89000010
   18.62694550  117.64499664    0.92000002    2.89000010
   18.63027763  116.93399811    0.94000000    2.86999989
   18.63361168  115.93699646    0.95999998    2.86999989
   18.63666725  116.41400146    0.95999998    2.89000010
   18.63999939  115.27700043    0.98000002    2.89000010
   18.64583397  115.27700043    0.98000002    2.89000010
   18.64999962  114.24199677    0.98000002    2.86999989
   18.65333366  117.59600067    0.95999998    2.89000010
   18.65666580  115.06800079    0.95999998    2.89000010
   18.65972137  113.84400177    0.95999998    2.89000010
   18.66305542  121.15200043    0.95999998    2.89000010
   18.66611099  112.75700378    0.98000002    2.86999989
   18.66944313  115.74700165    0.95999998    2.89000010
   18.67277718  114.24500275    0.98000002    2.89000010
   18.67583275  111.86799622    0.98000002    2.89000010
   18.67916679  110.91500092    0.98000002    2.89000010
   18.67972183  113.58000183    0.98000002    2.89000010
   18.68277740  116.06800079    1.00000000    2.86999989
   18.68888855  116.06800079    1.01999998    2.86999989
   18.69305420  113.53199768    0.98000002    2.86999989
   18.69610977  114.98600006    0.95999998    2.86999989
   18.69944382  112.59999847    0.94000000    2.86999989
   18.70277786  119.70200348    0.94000000    2.89000010
   18.70583344  112.34600067    0.94000000    2.89000010
   18.70916748  121.95600128    0.94000000    2.86999989
   18.71222305  116.03800201    0.94000000    2.86999989
   18.71305656  117.16500092    0.94000000    2.86999989
   18.71583366  118.05699921    0.95999998    2.86999989
   18.71916771  115.74800110    0.95999998    2.86999989
   18.72222328  118.62899780    0.95999998    2.86999989
   18.72555542  113.32099915    0.98000002    2.89000010
   18.73166656  113.32099915    0.98000002    2.89000010
   18.73583412  123.95800018    0.98000002    2.86999989
   18.73888969  119.30100250    0.98000002    2.89000010
   18.74222183  115.20600128    0.98000002    2.89000010
   18.74555588  118.98200226    1.00000000    2.89000010
   18.74638939  118.30500031    1.00000000    2.89000010
   18.74888992  114.12100220    1.00000000    2.89000010
   18.75222206  114.07199860    1.00000000    2.86999989
   18.75555611  112.11599731    1.00000000    2.86999989
   18.75861168  111.80000305    1.00000000    2.86999989
   18.76194382  112.04199982    1.00000000    2.86999989
   18.76499939  113.29199982    1.01999998    2.86999989
   18.76833344  115.22100067    1.05999994    2.86999989
   18.77444458  115.22100067    1.03999996    2.86999989
   18.77861023  111.59799957    1.03999996    2.86999989
   18.77972221  121.30799866    1.00000000    2.86999989
   18.78222275  118.43299866    1.00000000    2.86999989
   18.78555489  114.70099640    0.95999998    2.86999989
   18.78888893  114.16899872    0.94000000    2.89000010
   18.79194450  119.65299988    0.94000000    2.86999989
   18.79527664  116.26999664    0.95999998    2.86999989
   18.79833221  121.75900269    0.95999998    2.89000010
   18.80166626  116.26999664    0.95999998    2.89000010
   18.80499840  115.75599670    0.95999998    2.86999989
   18.80805397  117.83999634    0.94000000    2.86999989
   18.81138802  118.08200073    0.94000000    2.89000010
   18.81305504  114.53099823    0.94000000    2.89000010
   18.81722260  114.53099823    0.94000000    2.86999989
   18.82139015  114.04399872    0.94000000    2.89000010
   18.82472229  116.75099945    0.95999998    2.86999989
   18.82777786  110.33300018    0.95999998    2.86999989
   18.83111191  115.06999969    0.95999998    2.86999989
   18.83444595  109.81099701    0.98000002    2.86999989
   18.83777809  113.95600128    0.95999998    2.86999989
   18.84083366  109.55300140    0.98000002    2.86999989
   18.84416771  111.14800262    1.00000000    2.86999989
   18.84638977  116.01000214    1.00000000    2.86999989
   18.84777832  116.46199799    1.00000000    2.86999989
   18.85111237  112.89700317    0.98000002    2.89000010
   18.85444450  112.33799744    0.98000002    2.89000010
   18.86027908  112.33799744    0.98000002    2.86999989
   18.86416626  118.50399780    1.00000000    2.86999989
   18.86750031  116.25000000    1.00000000    2.86999989
   18.87083435  114.34300232    1.01999998    2.86999989
   18.87388992  113.00199890    1.01999998    2.86999989
   18.87722206  109.80699921    1.01999998    2.86999989
   18.87972260  113.95500183    1.01999998    2.86999989
   18.88083267  117.16699982    1.01999998    2.86999989
   18.88416672  116.48200226    1.03999996    2.86999989
   18.88750076  117.92600250    1.05999994    2.86999989
   18.89055634  114.47699738    1.05999994    2.86999989
   18.89388847  115.80500031    1.05999994    2.86999989
   18.89694405  109.86499786    1.07000005    2.86999989
   18.90305519  109.86499786    1.09000003    2.86999989
   18.90722275  112.69400024    1.11000001    2.86999989
   18.91027832  118.11499786    1.11000001    2.86999989
   18.91305542  110.26899719    1.11000001    2.86999989
   18.91388893  115.37400055    1.13000000    2.86999989
   18.91722107  113.24299622    1.13000000    2.86999989
   18.92055511  113.20400238    1.13000000    2.86999989
   18.92361069  118.03399658    1.11000001    2.86999989
   18.92694473  115.22799683    1.13000000    2.86999989
   18.93027687  115.92600250    1.14999998    2.86999989
   18.93333244  116.04000092    1.14999998    2.86999989
   18.93666649  113.86599731    1.16999996    2.86999989
   18.93999863  114.70700073    1.19000006    2.84999990
   18.94583321  114.70700073    1.19000006    2.86999989
   18.96416664  115.98899841    1.14999998    2.86999989
   18.96750069  108.06700134    1.14999998    2.86999989
   18.97083473  125.79699707    1.14999998    2.86999989
   18.97416687  112.88899994    1.14999998    2.84999990
   18.97722244  116.01699829    1.14999998    2.86999989
   18.98055649  109.86699677    1.13000000    2.86999989
   18.98388863  125.47499847    1.13000000    2.86999989
   18.98888969  125.47499847    1.13000000    2.84999990
   18.99305534  115.08399963    1.11000001    2.86999989
   18.99638939  118.69599915    1.13000000    2.84999990
   18.99722290  109.64700317    1.13000000    2.86999989
   19.00000000  118.02400208    1.13000000    2.86999989
   19.00305557  113.90200043    1.13000000    2.86999989
   19.00638962  118.62599945    1.13000000    2.84999990
   19.00972176  116.15200043    1.13000000    2.84999990
   19.01305580  119.16600037    1.13000000    2.86999989
   19.01611137  113.44599915    1.13000000    2.86999989
   19.01944351  117.34799957    1.14999998    2.84999990
   19.02277756  115.54299927    1.16999996    2.84999990
   19.02583313  115.58200073    1.14999998    2.84999990
   19.03166580  115.58200073    1.13000000    2.86999989
   19.03583336  118.02400208    1.13000000    2.84999990
   19.03916550  117.52500153    1.13000000    2.86999989
   19.04222107  116.68499756    1.14999998    2.86999989
   19.04555511  114.53800201    1.16999996    2.84999990
   19.04888916  110.73000336    1.16999996    2.86999989
   19.05222130  112.62799835    1.16999996    2.84999990
   19.05527687  115.22299957    1.21000004    2.84999990
   19.05861092  116.58200073    1.23000002    2.84999990
   19.06194305  113.28399658    1.23000002    2.84999990
   19.06388855  115.20899963    1.23000002    2.84999990
   19.06555557  115.17199707    1.23000002    2.84999990
   19.06861115  116.96499634    1.21000004    2.84999990
   19.07472229  116.96499634    1.23000002    2.86999989
   19.07861137  114.46600342    1.21000004    2.86999989
   19.08194542  118.79299927    1.21000004    2.84999990
   19.08527756  115.42900085    1.25000000    2.86999989
   19.08833313  115.07099915    1.25000000    2.86999989
   19.09166718  113.48200226    1.19000006    2.84999990
   19.09500122  114.63999939    1.21000004    2.86999989
   19.09722328  115.63500214    1.21000004    2.84999990
   19.09861183  119.41000366    1.21000004    2.84999990
   19.10166740  115.66699982    1.23000002    2.86999989
   19.10499954  110.44400024    1.25000000    2.84999990
   19.10833359  116.96600342    1.25000000    2.84999990
   19.11138916  116.76799774    1.23000002    2.86999989
   19.11750031  116.76799774    1.25000000    2.84999990
   19.12166595  111.04000092    1.21000004    2.86999989
   19.12472153  112.58499908    1.21000004    2.84999990
   19.12805557  115.34100342    1.16999996    2.86999989
   19.13055611  115.07399750    1.16999996    2.86999989
   19.13166618  114.57800293    1.16999996    2.86999989
   19.13472176  112.06900024    1.16999996    2.86999989
   19.13805580  111.93399811    1.16999996    2.84999990
   19.14138794  109.80500031    1.16999996    2.84999990
   19.14444351  113.95700073    1.21000004    2.86999989
   19.14777756  113.74299622    1.21000004    2.86999989
   19.15083313  112.05699921    1.21000004    2.84999990
   19.15416718  112.08100128    1.21000004    2.84999990
   19.16027832  112.08100128    1.21000004    2.84999990
   19.16444397  111.33399963    1.19000006    2.84999990
   19.16777802  115.24700165    1.21000004    2.86999989
   19.17083359  109.31400299    1.21000004    2.84999990
   19.17416573  110.82499695    1.23000002    2.84999990
   19.17722130  109.14900208    1.23000002    2.84999990
   19.18055534  111.62200165    1.28999996    2.84999990
   19.18388748  102.90899658    1.25000000    2.84999990
   19.18694305  114.61100006    1.25000000    2.86999989
   19.19027710  110.90599823    1.25000000    2.84999990
   19.19361115  110.16600037    4.90999985    2.93000007
   19.19666672  114.33300018    0.13000000    0.79000002
   19.19722176  115.77400208    0.13000000    0.79000002
   19.20305634  115.77400208    0.07000000    0.44000000
   19.20722389  110.70500183    0.07000000    0.44000000
   19.21055603  124.79599762    0.07000000    0.44000000
   19.21361160  120.51300049    0.07000000    0.44000000
   19.21694565  112.08000183    0.07000000    0.44000000
   19.22027779  112.93399811    0.07000000    0.44000000
   19.22333336  117.04199982    0.07000000    0.44000000
   19.22666740  127.60800171    0.07000000    0.44000000
   19.23000145  120.84300232    0.07000000    0.44000000
   19.23055649  126.73300171    0.07000000    0.44000000
   19.23361206  115.70899963    0.07000000    0.44000000
   19.23694420  114.13899994    0.07000000    0.44000000
   19.23999977  115.95600128    0.07000000    0.44000000
   19.24611092  115.95600128    0.07000000    0.44000000
   19.25000000  113.37500000    0.07000000    0.44000000
   19.25333405  109.46199799    0.07000000    0.44000000
   19.25666618  109.33999634    0.07000000    0.44000000
   19.25972176  111.76300049    0.07000000    0.44000000
   19.26305580  110.08300018    0.07000000    0.44000000
   19.26388931  104.53500366    0.07000000    0.44000000
   19.26666641  109.55699921    0.07000000    0.44000000
   19.27000046  112.05200195    0.07000000    0.44000000
   19.27305603  110.94499969    0.07000000    0.44000000
   19.27638817  111.27500153    0.07000000    0.44000000
   19.27972221  107.66899872    0.07000000    0.44000000
   19.28277779  108.57599640    0.07000000    0.44000000
   19.28888893  108.57599640    0.07000000    0.44000000
   19.29305458  114.09899902    0.07000000    0.44000000
   19.29611015  113.19599915    0.07000000    0.44000000
   19.29722214  112.22599792    0.07000000    0.44000000
   19.29972076  109.61499786    0.07000000    0.44000000
   19.30305481  112.57800293    0.07000000    0.44000000
   19.30611038  114.62200165    0.07000000    0.44000000
   19.30944443  113.74199677    0.07000000    0.44000000
   19.31250000  106.40000153    0.07000000    0.44000000
   19.31583214  110.49199677    0.07000000    0.44000000
   19.31916809  114.17400360    0.07000000    0.44000000
   19.32222366  110.07399750    0.07000000    0.44000000
   19.32555580  110.98899841    0.07000000    0.44000000
   19.33166695  110.98899841    0.07000000    0.44000000
   19.33583450  114.35199738    0.07000000    0.44000000
   19.33916664  107.18299866    0.07000000    0.44000000
   19.34222221  108.78700256    0.07000000    0.44000000
   19.34555626  111.92500305    0.07000000    0.44000000
   19.34861183  109.49700165    0.07000000    0.44000000
   19.35194397  115.86299896    0.07000000    0.44000000
   19.35527802  105.54100037    0.07000000    0.44000000
   19.35861206  112.65399933    0.07000000    0.44000000
   19.36166763  114.24500275    0.07000000    0.44000000
   19.36388969  112.22399902    0.07000000    0.44000000
   19.36527824  113.39600372    0.07000000    0.44000000
   19.36861038  187.16999817    0.07000000    0.44000000
   19.37444496  187.16999817    0.07000000    0.44000000
   19.37861061  112.66799927    0.07000000    0.44000000
   19.38194466  109.25399780    0.07000000    0.44000000
   19.38500023  114.11100006    0.07000000    0.44000000
   19.38833237  111.01699829    0.07000000    0.44000000
   19.39166641  108.89700317    0.07000000    0.44000000
   19.39472198  111.74800110    0.07000000    0.44000000
   19.39722252  112.48300171    0.07000000    0.44000000
   19.39833260  111.61799622    0.07000000    0.44000000
   19.40166664  111.63300323    0.07000000    0.44000000
   19.40472221  108.32099915    0.07000000    0.44000000
   19.40805435  108.23000336    0.07000000    0.44000000
   19.41138840  113.58200073    0.07000000    0.44000000
   19.41749954  113.58200073    0.07000000    0.44000000
   19.42138863  110.41699982    0.07000000    0.44000000
   19.42472076  107.81700134    0.07000000    0.44000000
   19.42805481  112.47799683    0.07000000    0.44000000
   19.43055534  114.80100250    0.07000000    0.44000000
   19.43166542  112.15299988    0.07000000    0.44000000
   19.43499947  111.31900024    0.07000000    0.44000000
   19.43805504  107.08300018    0.07000000    0.44000000
   19.44138718  106.42299652    0.07000000    0.44000000
   19.44472122  108.57099915    0.07000000    0.44000000
   19.44777679  108.41799927    0.07000000    0.44000000
   19.45111275  108.95700073    0.07000000    0.44000000
   19.45416832  108.52100372    0.07000000    0.44000000
   19.46027946  108.52100372    0.07000000    0.44000000
   19.46444511  112.78099823    0.07000000    0.44000000
   19.46750069  107.55799866    0.07000000    0.44000000
   19.47083473  114.77100372    0.07000000    0.44000000
   19.47416687  113.05200195    0.07000000    0.44000000
   19.47722244  112.53500366    0.07000000    0.44000000
   19.48055649  112.54900360    0.07000000    0.44000000
   19.48361206  114.50900269    0.07000000    0.44000000
   19.48694420  111.60099792    0.07000000    0.44000000
   19.49027824  109.55200195    0.07000000    0.44000000
   19.49333382  114.06999969    0.07000000    0.44000000
   19.49666786  113.78500366    0.07000000    0.44000000
   19.49722290  111.90699768    0.07000000    0.44000000
   19.50305557  111.90699768    0.07000000    0.44000000
   19.50722313  109.05699921    0.07000000    0.44000000
   19.51055527  109.19200134    0.07000000    0.44000000
   19.51361084  112.01599884    0.07000000    0.44000000
   19.51694489  112.56999969    0.07000000    0.44000000
   19.52027702  111.44699860    0.07000000    0.44000000
   19.52333260  112.60500336    0.07000000    0.44000000
   19.52666664  110.02500153    0.07000000    0.44000000
   19.53000069  112.29699707    0.07000000    0.44000000
   19.53055573  112.48500061    0.07000000    0.44000000
   19.53333282  114.89099884    0.07000000    0.44000000
   19.53666687  108.79499817    0.07000000    0.44000000
   19.53972244  111.07599640    0.07000000    0.44000000
   19.54583359  111.07599640    0.07000000    0.44000000
   19.54999924  107.61399841    0.07000000    0.44000000
   19.55333328  108.39900208    0.07000000    0.44000000
   19.55638885  112.49800110    0.07000000    0.44000000
   19.55972099  110.46199799    0.07000000    0.44000000
   19.56305504  109.99299622    0.07000000    0.44000000
   19.56388855  107.89299774    0.07000000    0.44000000
   19.56666756  112.05599976    0.07000000    0.44000000
   19.57000160  111.34700012    0.07000000    0.44000000
   19.57305717  112.03099823    0.07000000    0.44000000
   19.57638931  110.08399963    0.07000000    0.44000000
   19.57972336  106.52999878    0.07000000    0.44000000
   19.58277893  112.42400360    0.07000000    0.44000000
   19.58889008  112.42400360    0.07000000    0.44000000
   19.59277916  117.36900330    0.07000000    0.44000000
   19.59611130  112.57199860    0.07000000    0.44000000
   19.59722328  111.42600250    0.07000000    0.44000000
   19.59972191  110.71099854    0.07000000    0.44000000
   19.60305595  113.49299622    0.07000000    0.44000000
   19.60611153  113.46399689    0.07000000    0.44000000
   19.60944557  116.85800171    0.07000000    0.44000000
   19.61277771  111.19999695    0.07000000    0.44000000
   19.61583328  115.85199738    0.07000000    0.44000000
   19.61916733  109.12000275    0.07000000    0.44000000
   19.62222290  112.45999908    0.07000000    0.44000000
   19.62555504  108.18000031    0.07000000    0.44000000
   19.63166618  108.18000031    0.07000000    0.44000000
   19.63583374  109.29599762    0.07000000    0.44000000
   19.63888931  111.33599854    0.07000000    0.44000000
   19.64222145  112.30899811    0.07000000    0.44000000
   19.64555550  116.44400024    0.07000000    0.44000000
   19.64861107  111.21499634    0.07000000    0.44000000
   19.65194321  112.71299744    0.07000000    0.44000000
   19.65499878  116.51999664    0.07000000    0.44000000
   19.65833282  114.06999969    0.07000000    0.44000000
   19.66166687  114.16500092    0.07000000    0.44000000
   19.66416550  112.33599854    0.07000000    0.44000000
   19.66527748  108.08699799    0.07000000    0.44000000
   19.66860962  117.54000092    0.07000000    0.44000000
   19.67444420  117.54000092    0.07000000    0.44000000
   19.67860985  114.97100067    0.07000000    0.44000000
   19.68194389  114.26999664    0.07000000    0.44000000
   19.68499947  113.74500275    0.07000000    0.44000000
   19.68833160  112.43900299    0.07000000    0.44000000
   19.69166565  109.80799866    0.07000000    0.44000000
   19.69472122  111.67400360    0.07000000    0.44000000
   19.69749832  109.12899780    0.07000000    0.44000000
   19.69833183  116.61100006    0.07000000    0.44000000
   19.70166779  109.11799622    0.07000000    0.44000000
   19.70472336  111.91899872    0.07000000    0.44000000
   19.70805550  113.29499817    0.07000000    0.44000000
   19.71138954  111.75900269    0.07000000    0.44000000
   19.71722221  111.75900269    0.07000000    0.44000000
   19.72138977  111.20700073    0.07000000    0.44000000
   19.72472191  111.71900177    0.07000000    0.44000000
   19.72777748  111.05000305    0.07000000    0.44000000
   19.73083305  110.46600342    0.07000000    0.44000000
   19.73139000  110.03399658    0.07000000    0.44000000
   19.73472214  110.59200287    0.07000000    0.44000000
   19.73777771  110.40799713    0.07000000    0.44000000
   19.74111176  113.13099670    0.07000000    0.44000000
   19.74444389  110.68599701    0.07000000    0.44000000
   19.74749947  113.65299988    0.07000000    0.44000000
   19.75083351  116.82499695    0.07000000    0.44000000
   19.75416756  117.17099762    0.07000000    0.44000000
   19.76027870  117.17099762    0.07000000    0.44000000
   19.76416588  113.86699677    0.07000000    0.44000000
   19.76749992  117.26799774    0.07000000    0.44000000
   19.77083397  117.52300262    0.07000000    0.44000000
   19.77388954  111.71900177    0.07000000    0.44000000
   19.77722168  111.36499786    0.07000000    0.44000000
   19.78055573  115.12599945    0.07000000    0.44000000
   19.78361130  114.02400208    0.07000000    0.44000000
   19.78694344  118.32399750    0.07000000    0.44000000
   19.78999901  117.87200165    0.07000000    0.44000000
   19.79333305  109.08499908    0.07000000    0.44000000
   19.79666710  109.63600159    0.07000000    0.44000000
   19.79749870  113.38800049    0.07000000    0.44000000
   19.80305481  113.38800049    0.07000000    0.44000000
   19.80722237  117.01300049    0.07000000    0.44000000
   19.81027794  115.19100189    0.07000000    0.44000000
   19.81361008  113.00000000    0.07000000    0.44000000
   19.81694603  111.77700043    0.07000000    0.44000000
   19.82000160  113.21800232    0.07000000    0.44000000
   19.82333374  120.21299744    0.07000000    0.44000000
   19.82638931  111.94200134    0.07000000    0.44000000
   19.82972336  109.56199646    0.07000000    0.44000000
   19.83083344  116.23100281    0.07000000    0.44000000
   19.83333397  114.20999908    0.07000000    0.44000000
   19.83666801  108.48999786    0.07000000    0.44000000
   19.83972359  109.90399933    0.07000000    0.44000000
   19.84583473  109.90399933    0.07000000    0.44000000
   19.85000038  113.30999756    0.07000000    0.44000000
   19.85333443  108.89800262    0.07000000    0.44000000
   19.85666656  110.65100098    0.07000000    0.44000000
   19.85972214  112.04399872    0.07000000    0.44000000
   19.86305618  115.31900024    0.07000000    0.44000000
   19.86416626  114.77600098    0.07000000    0.44000000
   19.86638832  102.93499756    0.07000000    0.44000000
   19.86972237  111.38300323    0.07000000    0.44000000
   19.87277794  114.75599670    0.07000000    0.44000000
   19.87611198  110.90699768    0.07000000    0.44000000
   19.87944412  113.58499908    0.07000000    0.44000000
   19.88249969  113.10299683    0.07000000    0.44000000
   19.88861084  113.10299683    0.07000000    0.44000000
   19.89277840  118.20999908    0.07000000    0.44000000
   19.89611053  117.83499908    0.07000000    0.44000000
   19.89749908  110.86699677    0.07000000    0.44000000
   19.89972115  115.39700317    0.07000000    0.44000000
   19.90305519  114.72100067    0.07000000    0.44000000
   19.90611076  111.02300262    0.07000000    0.44000000
   19.90944481  109.63400269    0.07000000    0.44000000
   19.91277695  113.74800110    0.07000000    0.44000000
   19.91583252  116.56099701    0.07000000    0.44000000
   19.91916656  112.34999847    0.07000000    0.44000000
   19.92249870  116.63300323    0.07000000    0.44000000
   19.92555428  118.02100372    0.07000000    0.44000000
   19.93166542  118.02100372    0.07000000    0.44000000
   19.93555450  116.67099762    0.07000000    0.44000000
   19.93888855  114.44499969    0.07000000    0.44000000
   19.94222069  110.77500153    0.07000000    0.44000000
   19.94527626  112.30100250    0.07000000    0.44000000
   19.94861031  109.84899902    0.07000000    0.44000000
   19.95194435  114.64299774    0.07000000    0.44000000
   19.95499992  111.70700073    0.07000000    0.44000000
   19.95833397  109.75399780    0.07000000    0.44000000
   19.96138954  112.43800354    0.07000000    0.44000000
   19.96416664  115.96499634    0.07000000    0.44000000
   19.98472214  115.96499634    0.07000000    0.44000000
   19.98888969  109.60700226    0.07000000    0.44000000
   19.99222183  111.99299622    0.07000000    0.44000000
   19.99527740  110.25299835    0.07000000    0.44000000
   19.99749947  114.32599640    0.07000000    0.44000000
   19.99888992  115.59899902    0.07000000    0.44000000
   20.00222206  119.95099640    0.07000000    0.44000000
   20.00555611  105.29000092    0.07000000    0.44000000
   20.00861168  116.62400055    0.07000000    0.44000000
   20.01194382  117.23799896    0.07000000    0.44000000
   20.01499939  111.57599640    0.07000000    0.44000000
   20.01833344  114.49600220    0.07000000    0.44000000
   20.02166557  105.81700134    0.07000000    0.44000000
   20.02750015  105.81700134    0.07000000    0.44000000
   20.03166580  115.03299713    0.07000000    0.44000000
   20.03472137  111.97699738    0.07000000    0.44000000
   20.03805542  112.82399750    0.07000000    0.44000000
   20.04138756  109.25299835    0.07000000    0.44000000
   20.04444313  115.41600037    0.07000000    0.44000000
   20.04777718  111.29499817    0.07000000    0.44000000
   20.05111122  115.54000092    0.07000000    0.44000000
   20.05416679  114.96499634    0.07000000    0.44000000
   20.05749893  116.68399811    0.07000000    0.44000000
   20.06055450  114.45899963    0.07000000    0.44000000
