    HOUR (UT)   FLARE FACTOR    SKY TESTER    SUN TESTER
   12.22666645   -1.00000000   -1.00000000   -1.00000000
   12.26916599  149.75500488    1.85000002    1.86000001
   12.27222157  150.50900269    1.85000002    1.88000000
   12.27555561  156.47000122    1.85000002    1.88000000
   12.27888870  166.98899841    1.85000002    1.88000000
   12.28194427  159.55599976    1.83000004    1.88000000
   12.28666687  159.55599976    1.86000001    1.88000000
   12.29083347  179.67799377    1.86000001    1.88000000
   12.29416752  171.41099548    1.85000002    1.89999998
   12.29611111  172.20899963    1.85000002    1.89999998
   12.29777813  174.38000488    1.85000002    1.89999998
   12.30083370  171.61300659    1.83000004    1.89999998
   12.30416679  164.58000183    1.83000004    1.89999998
   12.30749989  170.45899963    1.85000002    1.89999998
   12.31055546  179.29200745    1.85000002    1.89999998
   12.31388950  177.18800354    1.80999994    1.91999996
   12.31722260  181.78799438    1.83000004    1.89999998
   12.32027817  168.84599304    1.80999994    1.91999996
   12.32361126  175.00500488    1.78999996    1.89999998
   12.32944393  175.00500488    1.76999998    1.91999996
   12.33361053  185.71400452    1.76999998    1.94000006
   12.33694458  173.69900513    1.75000000    1.94000006
   12.34027767  166.84199524    1.75000000    1.94000006
   12.34333324  188.94900513    1.75000000    1.94000006
   12.34666634  177.82200623    1.75000000    1.94000006
   12.35000038  170.73599243    1.71000004    1.94000006
   12.35305595  180.05000305    1.71000004    1.94000006
   12.35638905  164.88999939    1.73000002    1.94000006
   12.35944462  178.20300293    1.73000002    1.94000006
   12.36277771  172.74499512    1.71000004    1.96000004
   12.36333370  194.87100220    1.71000004    1.96000004
   12.36638927  168.88200378    1.69000006    1.96000004
   12.37250042  168.88200378    1.69000006    1.96000004
   12.37666702  177.55299377    1.69000006    1.96000004
   12.37972260  168.94099426    1.69000006    1.96000004
   12.38305569  183.19099426    1.66999996    1.98000002
   12.38611126  165.69000244    1.66999996    1.98000002
   12.38944435  189.75599670    1.66999996    1.96000004
   12.39277744  191.85800171    1.66999996    1.98000002
   12.39583302  174.30799866    1.66999996    1.98000002
   12.39638901  172.85800171    1.64999998    1.98000002
   12.39972210  163.10899353    1.64999998    2.00000000
   12.40277767  166.16499329    1.64999998    1.98000002
   12.40611076  172.83900452    1.64999998    1.98000002
   12.40944386  180.27400208    1.63000000    2.00000000
   12.41527748  180.27400208    1.63000000    2.00000000
   12.41944504  180.49600220    1.63000000    2.00000000
   12.42250061  173.95799255    1.61000001    2.00000000
   12.42583370  179.14799500    1.61000001    2.00000000
   12.42916679  173.74099731    1.61000001    2.00000000
   12.42972279  176.25199890    1.61000001    2.00000000
   12.43277836  182.01100159    1.63000000    1.98000002
   12.43583298  158.13400269    1.61000001    2.00000000
   12.43916702  162.72599792    1.61000001    2.00000000
   12.44250011  177.98800659    1.61000001    2.01999998
   12.44555569  179.71099854    1.61000001    2.00000000
   12.44888878  179.15199280    1.60000002    2.01999998
   12.45222187  169.41200256    1.60000002    2.01999998
   12.45805550  169.41200256    1.60000002    2.01999998
   12.46222210  170.43800354    1.60000002    2.03999996
   12.46305561  159.00100708    1.61000001    2.01999998
   12.46583271  170.64599609    1.61000001    2.01999998
   12.46888828  195.50199890    1.58000004    2.01999998
   12.47222137  177.06100464    1.58000004    2.03999996
   12.47555542  170.50100708    1.58000004    2.03999996
   12.47861099  190.77200317    1.58000004    2.03999996
   12.48194408  168.77600098    1.58000004    2.03999996
   12.48500061  161.81799316    1.58000004    2.03999996
   12.48833370  169.80400085    1.58000004    2.05999994
   12.49166679  163.36099243    1.55999994    2.03999996
   12.49472237  184.91299438    1.55999994    2.03999996
   12.49638939  173.23300171    1.55999994    2.05999994
   12.50083351  173.23300171    1.55999994    2.05999994
   12.50500011  169.94999695    1.53999996    2.05999994
   12.50833321  168.18800354    1.55999994    2.05999994
   12.51166630  172.32200623    1.55999994    2.05999994
   12.51472187  166.26400757    1.53999996    2.05999994
   12.51805496  149.91099548    1.53999996    2.05999994
   12.52138901  191.87800598    1.53999996    2.05999994
   12.52444458  170.57499695    1.53999996    2.05999994
   12.52777767  175.92700195    1.53999996    2.07999992
   12.52972221  169.24699402    1.53999996    2.07999992
   12.53138828  186.23599243    1.51999998    2.07999992
   12.53444481  183.91200256    1.51999998    2.07999992
   12.53777790  176.19500732    1.51999998    2.07999992
   12.54388905  176.19500732    1.53999996    2.07999992
   12.54805565  188.32299805    1.51999998    2.07999992
   12.55138874  167.66999817    1.51999998    2.07999992
   12.55444431  183.02299500    1.51999998    2.07999992
   12.55777836  154.25999451    1.50000000    2.07999992
   12.56111145  182.30499268    1.50000000    2.07999992
   12.56305599  182.75599670    1.50000000    2.09999990
   12.56472206  181.60899353    1.50000000    2.09999990
   12.56777763  165.77499390    1.50000000    2.07999992
   12.57111073  174.03700256    1.50000000    2.09999990
   12.57444477  168.37899780    1.48000002    2.09999990
   12.57777786  184.91299438    1.48000002    2.09999990
   12.58083344  193.04699707    1.48000002    2.09999990
   12.58666611  193.04699707    1.48000002    2.09999990
   12.59083271  183.51600647    1.48000002    2.09999990
   12.59388828  174.75700378    1.48000002    2.09999990
   12.59638882  211.03199768    1.48000002    2.11999989
   12.59777737  210.21099854    1.48000002    2.11999989
   12.60111141  197.36599731    1.48000002    2.11999989
   12.60416698  191.05900574    1.48000002    2.11999989
   12.60750008  213.49899292    1.48000002    2.11999989
   12.61055565  222.89900208    1.48000002    2.11999989
   12.61388969  245.10000610    1.48000002    2.11999989
   12.61722279  255.08700562    1.46000004    2.11999989
   12.62027836  236.97300720    1.48000002    2.11999989
   12.62361145  258.10101318    1.48000002    2.11999989
   12.62944412  258.10101318    1.48000002    2.13000011
   12.63361073  296.48901367    1.48000002    2.11999989
   12.63694477  214.38999939    1.48000002    2.13000011
   12.64000034  309.15899658    1.46000004    2.13000011
   12.64194393  281.56799316    1.46000004    2.13000011
   12.64333344  237.10000610    1.48000002    2.13000011
   12.64472198  212.25000000    1.48000002    2.13000011
   12.64472198  255.08700562    1.46000004    2.11999989
   12.64499950  236.97300720    1.48000002    2.11999989
   12.64499950  258.10101318    1.48000002    2.11999989
   12.64499950  296.48901367    1.48000002    2.11999989
   12.64499950  214.38999939    1.48000002    2.13000011
   12.64499950  309.15899658    1.46000004    2.13000011
   12.64527798  213.49899292    1.48000002    2.11999989
   12.64527798  222.89900208    1.48000002    2.11999989
   12.64527798  245.10000610    1.48000002    2.11999989
   12.64583302  280.33599854    1.48000002    2.13000011
   12.64916611  247.85699463    1.44000006    2.13000011
   12.65222168  211.58299255    1.46000004    2.13000011
   12.65555477  246.26199341    1.46000004    2.13000011
   12.65888882  234.78900146    1.46000004    2.13000011
   12.66555500  234.78900146    1.46000004    2.15000010
   12.66972256  256.62100220    1.46000004    2.15000010
   12.67277813  271.36099243    1.46000004    2.15000010
   12.67611122  247.36799622    1.46000004    2.15000010
   12.67861176  231.00399780    1.46000004    2.15000010
   12.67972279  241.40699768    1.46000004    2.15000010
   12.68277836  291.87600708    1.46000004    2.15000010
   12.68611145  224.83799744    1.46000004    2.13000011
   12.68916702  232.66799927    1.48000002    2.15000010
   12.69250011  226.35499573    1.46000004    2.17000008
   12.69583321  223.23100281    1.46000004    2.17000008
   12.69888878  206.09899902    1.46000004    2.15000010
   12.70222187  203.84399414    1.46000004    2.15000010
   12.70833302  203.84399414    1.46000004    2.17000008
   12.71249962  239.77400208    1.46000004    2.17000008
   12.71583271  259.58801270    1.46000004    2.17000008
   12.71888828  232.16900635    1.46000004    2.17000008
   12.72222137  229.45399475    1.46000004    2.17000008
   12.72555542  201.89999390    1.46000004    2.17000008
   12.72861099  209.41600037    1.44000006    2.17000008
   12.73194408  211.94599915    1.44000006    2.17000008
   12.73500061  204.16900635    1.44000006    2.17000008
   12.73833370  178.65800476    1.41999996    2.17000008
   12.74166679  182.89599609    1.41999996    2.19000006
   12.74499989  186.85699463    1.41999996    2.19000006
   12.74527836  179.50700378    1.41999996    2.19000006
   12.75111103  179.50700378    1.41999996    2.19000006
   12.75527763  159.02099609    1.41999996    2.19000006
   12.75861073  167.75000000    1.41999996    2.19000006
   12.76194477  167.77099609    1.39999998    2.17000008
   12.76500034  154.54299927    1.39999998    2.19000006
   12.76833344  178.67599487    1.39999998    2.17000008
   12.77166653  144.60800171    1.38000000    2.19000006
   12.77499962  179.43200684    1.38000000    2.19000006
   12.77805519  169.20799255    1.38000000    2.21000004
   12.77861118  162.96400452    1.38000000    2.21000004
   12.78166676  171.56700134    1.36000001    2.19000006
   12.78500080  163.45100403    1.38000000    2.19000006
   12.78805637  184.83399963    1.38000000    2.19000006
   12.79416752  184.83399963    1.36000001    2.19000006
   12.79833412  179.44400024    1.34000003    2.19000006
   12.80138874  184.13900757    1.34000003    2.21000004
   12.80472279  190.48699951    1.36000001    2.21000004
   12.80777836  188.99099731    1.34000003    2.21000004
   12.81111145  163.36000061    1.34000003    2.21000004
   12.81194496  183.85699463    1.34000003    2.21000004
   12.81472206  192.74899292    1.34000003    2.21000004
   12.81805515  169.78599548    1.33000004    2.21000004
   12.82111073  180.26100159    1.34000003    2.21000004
   12.82444477  184.17900085    1.33000004    2.21000004
   12.82750034  180.01499939    1.33000004    2.21000004
   12.83083344  181.53399658    1.33000004    2.21000004
   12.83694458  181.53399658    1.33000004    2.25000000
   12.84111118  200.04100037    1.30999994    2.23000002
   12.84416676  192.77600098    1.33000004    2.23000002
   12.84527779  194.23800659    1.33000004    2.23000002
   12.84777737  187.39799500    1.33000004    2.23000002
   12.85111141  184.78599548    1.33000004    2.23000002
   12.85416698  171.98399353    1.33000004    2.23000002
   12.85750008  170.07400513    1.33000004    2.23000002
   12.86083412  185.19000244    1.30999994    2.23000002
   12.86388969  178.16299438    1.30999994    2.23000002
   12.86722279  202.94400024    1.30999994    2.23000002
   12.87027836  194.03999329    1.30999994    2.25000000
   12.87361145  179.70500183    1.30999994    2.25000000
   12.87972260  179.70500183    1.30999994    2.25000000
   12.88388920  158.40800476    1.30999994    2.23000002
   12.88722229  177.41499329    1.30999994    2.25000000
   12.89027786  168.70199585    1.30999994    2.25000000
   12.89361095  177.96899414    1.33000004    2.23000002
   12.89666653  177.60099792    1.33000004    2.23000002
   12.89999962  186.56799316    1.30999994    2.25000000
   12.90333271  181.77400208    1.30999994    2.25000000
   12.90638828  179.78599548    1.33000004    2.25000000
   12.90972137  180.45399475    1.33000004    2.25000000
   12.91194439  189.39700317    1.30999994    2.25000000
   12.91333294  160.42999268    1.30999994    2.25000000
   12.91666698  186.02499390    1.33000004    2.25000000
   12.92250061  186.02499390    1.30999994    2.26999998
   12.92666721  170.22399902    1.30999994    2.26999998
   12.93000031  188.13699341    1.28999996    2.26999998
   12.93305588  178.15800476    1.30999994    2.25000000
   12.93638897  187.55000305    1.30999994    2.25000000
   12.93972206  208.30299377    1.30999994    2.25000000
   12.94277763  191.11999512    1.30999994    2.26999998
   12.94555569  201.83599854    1.28999996    2.26999998
   12.94638920  177.85000610    1.28999996    2.26999998
   12.94972229  185.59100342    1.28999996    2.26999998
   12.95277786  176.66799927    1.28999996    2.25000000
   12.95611095  201.96099854    1.30999994    2.28999996
   12.95944405  191.72099304    1.30999994    2.28999996
   12.96555519  191.72099304    1.28999996    2.26999998
   12.96944427  180.56500244    1.28999996    2.26999998
   12.97277737  199.76499939    1.26999998    2.28999996
   12.97611046  204.99800110    1.26999998    2.28999996
   12.97861099  198.45399475    1.26999998    2.28999996
   12.97972202  187.14799500    1.26999998    2.28999996
   12.98305511  168.95399475    1.26999998    2.26999998
   12.98611164  189.98399353    1.26999998    2.26999998
   12.98944473  159.88099670    1.26999998    2.26999998
   12.99277782  171.68499756    1.28999996    2.28999996
   12.99583340  197.81799316    1.25000000    2.28999996
   12.99916649  188.84800720    1.26999998    2.28999996
   13.00222206  194.49299622    1.25000000    2.28999996
   13.00833321  194.49299622    1.26999998    2.28999996
   13.01249981  179.11700439    1.26999998    2.28999996
   13.01555538  179.62199402    1.25000000    2.28999996
   13.01888847  188.08200073    1.25000000    2.28999996
   13.02222157  176.56799316    1.25000000    2.30999994
   13.02527714  164.36999512    1.25000000    2.30999994
   13.02861118  180.06399536    1.25000000    2.30999994
   13.03166676  177.33000183    1.25000000    2.28999996
   13.03500080  184.91099548    1.25000000    2.28999996
   13.03833389  192.38099670    1.25000000    2.28999996
   13.04138947  185.65299988    1.26999998    2.30999994
   13.04472256  193.05700684    1.25000000    2.28999996
   13.04527855  173.53599548    1.25000000    2.28999996
   13.05111122  173.53599548    1.25000000    2.28999996
   13.05527782  183.17500305    1.25000000    2.30999994
   13.05861092  176.65299988    1.25000000    2.30999994
   13.06166649  185.85600281    1.25000000    2.30999994
   13.06500053  172.11300659    1.25000000    2.30999994
   13.06833363  182.99000549    1.25000000    2.30999994
   13.07138920  169.54299927    1.25000000    2.30999994
   13.07499981  173.96699524    1.25000000    2.32999992
   13.07805538  188.17300415    1.25000000    2.28999996
   13.07861137  166.74200439    1.25000000    2.28999996
   13.08166695  189.47300720    1.25000000    2.28999996
   13.08500004  166.67100525    1.25000000    2.30999994
   13.08805561  169.76800537    1.23000002    2.30999994
   13.09388828  169.76800537    1.25000000    2.32999992
   13.09805489  174.42500305    1.23000002    2.30999994
   13.10138893  167.19200134    1.25000000    2.32999992
   13.10444450  173.76300049    1.23000002    2.32999992
   13.10777855  186.60400391    1.23000002    2.32999992
   13.11111164  171.42199707    1.21000004    2.32999992
   13.11194515  180.06300354    1.21000004    2.32999992
   13.11472225  174.76899719    1.23000002    2.32999992
   13.11805534  180.54699707    1.23000002    2.32999992
   13.12111092  189.30799866    1.21000004    2.32999992
   13.12444496  186.29200745    1.21000004    2.30999994
   13.12777805  172.18400574    1.21000004    2.32999992
   13.13083363  189.08500671    1.21000004    2.32999992
   13.13694477  189.08500671    1.19000006    2.32999992
   13.14083290  159.69799805    1.19000006    2.32999992
   13.14416695  173.86799622    1.19000006    2.32999992
   13.14527798  182.16499329    1.19000006    2.32999992
   13.14777756  180.91499329    1.19000006    2.32999992
   13.15111065  177.91099548    1.19000006    2.34999990
   13.15416622  176.67700195    1.16999996    2.32999992
   13.15749931  171.27699280    1.19000006    2.34999990
   13.16083336  174.00300598    1.19000006    2.34999990
   13.16388893  159.64399719    1.16999996    2.34999990
   13.16722298  171.82200623    1.16999996    2.34999990
   13.17027855  177.69200134    1.16999996    2.34999990
   13.17361164  165.77799988    1.16999996    2.32999992
   13.17972279  165.77799988    1.16999996    2.34999990
   13.18388939  179.47799683    1.14999998    2.32999992
   13.18694496  177.51400757    1.14999998    2.34999990
   13.19027805  181.82000732    1.14999998    2.34999990
   13.19361115  171.52999878    1.14999998    2.34999990
   13.19666672  192.64500427    1.13000000    2.34999990
   13.19999981  180.10299683    1.14999998    2.34999990
   13.20333290  182.86399841    1.14999998    2.34999990
   13.20638847  182.69299316    1.14999998    2.34999990
   13.20972157  183.36700439    1.14999998    2.36999989
   13.21194458  180.29400635    1.13000000    2.34999990
   13.21333313  181.44299316    1.13000000    2.34999990
   13.21666622  157.93499756    1.13000000    2.34999990
   13.22249985  157.93499756    1.13000000    2.34999990
   13.22666645  180.76800537    1.13000000    2.36999989
   13.22999954  175.56399536    1.13000000    2.36999989
   13.23305511  180.28799438    1.13000000    2.36999989
   13.23638916  175.21800232    1.13000000    2.36999989
   13.23972225  164.44099426    1.13000000    2.36999989
   13.24277782  174.31799316    1.13000000    2.36999989
   13.24527836  170.03300476    1.13000000    2.36999989
   13.24638939  175.07699585    1.13000000    2.36999989
   13.24972248  165.11099243    1.13000000    2.36999989
   13.25277805  174.70300293    1.13000000    2.36999989
   13.25611115  171.40400696    1.13000000    2.36999989
   13.25944424  175.91000366    1.11000001    2.36999989
   13.26527786  175.91000366    1.13000000    2.36999989
   13.28388977  169.25999451    1.11000001    2.36999989
   13.28694534  182.05900574    1.11000001    2.36999989
   13.29027843  163.46200562    1.11000001    2.39000010
   13.29333401  156.02600098    1.11000001    2.39000010
   13.29666710  178.24899292    1.13000000    2.36999989
   13.30000019  172.29100037    1.13000000    2.36999989
   13.30305576  177.43400574    1.11000001    2.39000010
   13.30833340  177.43400574    1.11000001    2.39000010
   13.31250000  167.30499268    1.11000001    2.39000010
   13.31583309  166.97000122    1.11000001    2.39000010
   13.31666660  166.00000000    1.09000003    2.36999989
   13.31944466  161.18200684    1.09000003    2.36999989
   13.32277775  155.00100708    1.11000001    2.39000010
   13.32611084  174.67799377    1.09000003    2.39000010
   13.32916641  173.19500732    1.09000003    2.36999989
   13.33249950  163.26199341    1.09000003    2.39000010
   13.33555508  170.42700195    1.09000003    2.39000010
   13.33888817  162.64999390    1.09000003    2.39000010
   13.34222221  179.68600464    1.09000003    2.39000010
   13.34527779  168.58500671    1.09000003    2.39000010
   13.35138893  168.58500671    1.09000003    2.39000010
   13.35527802  167.25100708    1.09000003    2.39000010
   13.35861111  170.50500488    1.07000005    2.39000010
   13.36194515  170.31300354    1.07000005    2.39000010
   13.36500072  175.17500305    1.09000003    2.39000010
   13.36833382  179.69000244    1.07000005    2.39000010
   13.37166691  169.46400452    1.07000005    2.39000010
   13.37472248  175.59100342    1.09000003    2.39000010
   13.37805557  172.30900574    1.07000005    2.40000010
   13.38138866  178.54299927    1.07000005    2.40000010
   13.38333321  173.24099731    1.07000005    2.40000010
   13.38472176  175.53599548    1.07000005    2.40000010
   13.38805580  173.01199341    1.07000005    2.39000010
   13.39416695  173.01199341    1.07000005    2.39000010
   13.39833355  179.44799805    1.07000005    2.39000010
   13.40166664  167.41499329    1.07000005    2.40000010
   13.40472221  183.68099976    1.07000005    2.39000010
   13.40805531  182.03700256    1.05999994    2.39000010
   13.41138840  168.69999695    1.07000005    2.40000010
   13.41444397  168.13200378    1.07000005    2.40000010
   13.41666698  193.93099976    1.07000005    2.40000010
   13.41805553  185.66200256    1.07000005    2.40000010
   13.42138958  184.36999512    1.07000005    2.40000010
   13.42444515  169.75100708    1.07000005    2.39000010
   13.42777824  188.37899780    1.07000005    2.40000010
   13.43111134  196.08000183    1.05999994    2.40000010
   13.43694496  196.08000183    1.07000005    2.40000010
   13.44111156  187.34199524    1.07000005    2.40000010
   13.44444466  182.43899536    1.07000005    2.40000010
   13.44750023  164.51800537    1.07000005    2.40000010
   13.44999981  174.52799988    1.07000005    2.40000010
   13.45111084  187.26899719    1.05999994    2.40000010
   13.45444393  181.06599426    1.05999994    2.40000010
   13.45749950  171.24899292    1.07000005    2.42000008
   13.46083355  183.80799866    1.07000005    2.40000010
   13.46416664  180.31300354    1.05999994    2.42000008
   13.46722221  197.95199585    1.05999994    2.42000008
   13.47055531  174.05299377    1.05999994    2.40000010
   13.47361088  168.80200195    1.07000005    2.44000006
   13.47972202  168.80200195    1.07000005    2.40000010
   13.48388958  187.89999390    1.07000005    2.42000008
   13.48722267  181.85699463    1.07000005    2.42000008
   13.49055576  181.23599243    1.05999994    2.42000008
   13.49361134  190.17999268    1.05999994    2.42000008
   13.49694443  176.02900696    1.05999994    2.42000008
   13.50027752  174.66799927    1.07000005    2.42000008
   13.50333309  194.81799316    1.05999994    2.42000008
   13.50666714  174.59399414    1.07000005    2.42000008
   13.50972176  168.02099609    1.07000005    2.42000008
   13.51305580  170.83000183    1.05999994    2.42000008
   13.51638889  168.29299927    1.07000005    2.40000010
   13.51694393  168.28399658    1.07000005    2.40000010
   13.52277756  168.28399658    1.05999994    2.42000008
   13.52666664  165.45500183    1.07000005    2.42000008
   13.52999973  186.69900513    1.07000005    2.42000008
   13.53333378  153.83900452    1.05999994    2.42000008
   13.53638935  140.47000122    1.07000005    2.42000008
   13.53972244  163.97700500    1.05999994    2.44000006
   13.54305553  168.26199341    1.05999994    2.44000006
   13.54611111  150.60099792    1.05999994    2.44000006
   13.54944515  155.13999939    1.05999994    2.42000008
   13.55027771  160.29400635    1.05999994    2.42000008
   13.55305576  159.48599243    1.05999994    2.42000008
   13.55638885  164.66099548    1.05999994    2.42000008
   13.55944443  151.22500610    1.05999994    2.42000008
   13.56555557  151.22500610    1.05999994    2.42000008
   13.56972218  157.21899414    1.05999994    2.42000008
   13.57277775  161.00100708    1.05999994    2.44000006
   13.57611084  150.68299866    1.05999994    2.44000006
   13.57944393  162.28900146    1.05999994    2.44000006
   13.58249950  148.42999268    1.05999994    2.42000008
   13.58333302  152.53100586    1.05999994    2.42000008
   13.58611107  147.39199829    1.05999994    2.42000008
   13.58944416  180.21299744    1.05999994    2.42000008
   13.59249973  154.22500610    1.05999994    2.44000006
   13.59583282  162.25500488    1.05999994    2.42000008
   13.59916592  141.57000732    1.05999994    2.44000006
   13.60222244  156.36399841    1.05999994    2.44000006
   13.60833359  156.36399841    1.05999994    2.44000006
   13.61250019  154.53199768    1.03999996    2.44000006
   13.61583328  144.94299316    1.05999994    2.44000006
   13.61694431  168.12100220    1.05999994    2.44000006
   13.61916637  166.72900391    1.05999994    2.46000004
   13.62250042  181.47200012    1.05999994    2.44000006
   13.62555599  177.01199341    1.03999996    2.46000004
   13.62888908  165.91299438    1.05999994    2.46000004
   13.63222218  169.42799377    1.05999994    2.46000004
   13.63527775  165.17399597    1.05999994    2.42000008
   13.63861084  173.06599426    1.03999996    2.46000004
   13.64194393  172.26699829    1.03999996    2.46000004
   13.64499950  171.69500732    1.05999994    2.44000006
   13.65111065  171.69500732    1.05999994    2.44000006
   13.65527725  187.09199524    1.05999994    2.46000004
   13.65861034  171.91299438    1.03999996    2.46000004
   13.66166592  183.76400757    1.05999994    2.46000004
   13.66499996  188.63299561    1.05999994    2.46000004
   13.66833401  180.28599548    1.05999994    2.46000004
   13.67138958  174.13499451    1.03999996    2.46000004
   13.67472267  161.05799866    1.03999996    2.46000004
   13.67805576  181.77000427    1.03999996    2.46000004
   13.68111134  170.56500244    1.03999996    2.46000004
   13.68361092  164.86199951    1.01999998    2.46000004
   13.68472195  180.17900085    1.01999998    2.46000004
   13.68805599  170.64700317    1.03999996    2.46000004
   13.69416714  170.64700317    1.03999996    2.46000004
   13.69805527  172.05700684    1.03999996    2.46000004
   13.70138836  160.65199280    1.03999996    2.48000002
   13.70472240  166.11099243    1.01999998    2.46000004
   13.70777798  173.75999451    1.03999996    2.48000002
   13.71111107  177.67500305    1.03999996    2.44000006
   13.71444416  183.71499634    1.03999996    2.48000002
   13.71694374  178.09599304    1.01999998    2.46000004
   13.71777725  180.60699463    1.01999998    2.46000004
   13.72111034  169.43499756    1.01999998    2.46000004
   13.72416592  168.97200012    1.03999996    2.46000004
   13.72749996  165.64999390    1.03999996    2.46000004
   13.73083305  174.42599487    1.03999996    2.46000004
   13.73694515  174.42599487    1.01999998    2.46000004
   13.74111176  160.73100281    1.01999998    2.48000002
   13.74416733  156.22599792    1.01999998    2.48000002
   13.74750042  163.91900635    1.01999998    2.46000004
   13.75027752  175.67300415    1.01999998    2.46000004
   13.75111103  187.16299438    1.01999998    2.46000004
   13.75444412  177.64700317    1.01999998    2.46000004
   13.75749969  184.09899902    1.01999998    2.46000004
   13.76083374  149.74299622    1.01999998    2.46000004
   13.76416683  168.67199707    1.00000000    2.46000004
   13.76722240  182.85800171    1.00000000    2.46000004
   13.77055550  168.95399475    1.01999998    2.48000002
   13.77388859  154.50399780    1.01999998    2.48000002
   13.77972221  154.50399780    1.03999996    2.48000002
   13.78388977  170.39700317    1.01999998    2.48000002
   13.78722286  151.06599426    1.01999998    2.48000002
   13.79027843  168.84899902    1.01999998    2.46000004
   13.79361153  161.07000732    1.03999996    2.46000004
   13.79666710  171.09599304    1.01999998    2.46000004
   13.80000019  165.10099792    1.01999998    2.48000002
   13.80333328  159.25399780    1.01999998    2.48000002
   13.80638885  167.19700623    1.01999998    2.48000002
   13.80972195  154.45300293    1.01999998    2.48000002
   13.81305599  155.03599548    1.01999998    2.48000002
   13.81611156  160.36799622    1.01999998    2.48000002
   13.81694412  149.02999878    1.01999998    2.48000002
   13.82250023  149.02999878    1.01999998    2.48000002
   13.82666683  158.45199585    1.00000000    2.48000002
   13.82999992  144.77299500    1.00000000    2.50000000
   13.83305550  150.85899353    1.00000000    2.50000000
   13.83638859  155.68400574    1.00000000    2.46000004
   13.83972168  146.48100281    1.00000000    2.48000002
   13.84305477  153.71400452    1.00000000    2.48000002
   13.84611034  152.25100708    1.00000000    2.48000002
   13.84944439  150.13800049    0.98000002    2.48000002
   13.85027790  177.58000183    0.98000002    2.48000002
   13.85277843  150.33799744    1.00000000    2.48000002
   13.85611153  147.57099915    1.00000000    2.48000002
   13.85944462  158.47500610    0.98000002    2.48000002
   13.86555576  158.47500610    0.98000002    2.48000002
   13.86944485  145.72900391    0.98000002    2.50000000
   13.87277794  154.31500244    0.98000002    2.48000002
   13.87611103  165.72700500    0.98000002    2.48000002
   13.87916660  153.31599426    0.95999998    2.48000002
   13.88249969  161.43899536    0.98000002    2.48000002
   13.88361073  164.34800720    0.98000002    2.48000002
   13.88611126  160.49000549    0.98000002    2.48000002
   13.88944435  173.77799988    0.98000002    2.48000002
   13.89277744  180.55599976    0.98000002    2.48000002
   13.89583302  171.24299622    0.98000002    2.48000002
   13.89916611  181.50599670    0.95999998    2.48000002
   13.90222168  163.85200500    0.98000002    2.50000000
   13.90833282  163.85200500    0.95999998    2.50000000
   13.91249943  157.26100159    0.95999998    2.50000000
   13.91555500  159.80099487    0.95999998    2.48000002
   13.91694450  162.20300293    0.95999998    2.48000002
   13.91916656  164.17300415    0.95999998    2.48000002
   13.92250061  177.98800659    0.95999998    2.48000002
   13.92583370  161.50599670    0.95999998    2.48000002
   13.92888927  165.86799622    0.95999998    2.48000002
   13.93222237  165.28700256    0.94000000    2.50000000
   13.93527794  170.47099304    0.94000000    2.50000000
   13.93861103  157.89300537    0.95999998    2.48000002
   13.94194412  175.26199341    0.95999998    2.51999998
   13.94499969  187.31300354    0.94000000    2.50000000
   13.95111084  187.31300354    0.94000000    2.51999998
   13.95527744  166.80499268    0.95999998    2.50000000
   13.95833302  169.48899841    0.95999998    2.50000000
   13.96166611  173.48800659    0.95999998    2.50000000
   13.96500015  172.15499878    0.95999998    2.51999998
   13.96805477  158.50100708    0.94000000    2.51999998
   13.97138882  170.00999451    0.95999998    2.48000002
   13.97472191  161.79600525    0.95999998    2.48000002
   13.97777748  152.70700073    0.94000000    2.48000002
   13.98111057  169.56900024    0.94000000    2.50000000
   13.98361111  174.30299377    0.95999998    2.50000000
   13.98472214  160.55299377    0.95999998    2.50000000
   13.98805618  154.28599548    0.94000000    2.50000000
   13.99388885  154.28599548    0.95999998    2.50000000
   13.99805546  162.17100525    0.92000002    2.50000000
   14.00138855  155.18099976    0.94000000    2.50000000
   14.00472260  177.05799866    0.94000000    2.50000000
   14.00777817  172.84100342    0.92000002    2.51999998
   14.01111126  185.57499695    0.92000002    2.51999998
   14.01444435  172.07699585    0.92000002    2.50000000
   14.01694393  171.58700562    0.92000002    2.50000000
   14.01777744  160.57499695    0.92000002    2.50000000
   14.02111053  157.28100586    0.92000002    2.51999998
   14.02444458  164.96200562    0.92000002    2.51999998
   14.02750015  173.90800476    0.94000000    2.50000000
   14.03083324  167.40100098    0.92000002    2.50000000
   14.03666687  167.40100098    0.94000000    2.50000000
   14.04083347  168.45300293    0.92000002    2.51999998
   14.04416752  171.07499695    0.92000002    2.51999998
   14.04750061  161.26499939    0.92000002    2.51999998
   14.05027771  156.96899414    0.89999998    2.50000000
   14.05083370  131.56700134    0.89999998    2.50000000
   14.05416679  180.24099731    0.92000002    2.50000000
   14.05749989  174.86500549    0.92000002    2.51999998
   14.06055546  177.80900574    0.89999998    2.51999998
   14.06388950  151.00700378    0.89999998    2.51999998
   14.06694412  162.93600464    0.89999998    2.51999998
   14.07027817  157.79400635    0.89999998    2.50000000
   14.07361126  165.48899841    0.92000002    2.50000000
   14.07972240  165.48899841    0.89999998    2.51999998
   14.08388901  168.61199951    0.89999998    2.51999998
   14.08694458  167.68299866    0.89999998    2.51999998
   14.09027767  160.97500610    0.89999998    2.51999998
   14.09361076  157.05200195    0.89999998    2.51999998
   14.09666634  164.13600159    0.89999998    2.51999998
   14.10000038  159.62699890    0.88000000    2.51999998
   14.10305595  153.12199402    0.88000000    2.51999998
   14.10638905  163.85800171    0.88000000    2.51999998
   14.10972214  162.71000671    0.88000000    2.51999998
   14.11277771  171.42399597    0.88000000    2.51999998
   14.11611176  167.87399292    0.86000001    2.51999998
   14.11694431  182.05400085    0.86000001    2.51999998
   14.12250042  182.05400085    0.88000000    2.51999998
   14.12666702  157.84700012    0.86000001    2.51999998
   14.12972260  176.32299805    0.88000000    2.51999998
   14.13305569  169.99899292    0.86000001    2.53999996
   14.13638878  191.02000427    0.86000001    2.51999998
   14.13944435  150.90199280    0.86000001    2.51999998
   14.14277744  147.27999878    0.86000001    2.50000000
   14.14611053  160.81100464    0.88000000    2.51999998
   14.14916611  164.32099915    0.86000001    2.51999998
   14.15027714  166.99299622    0.86000001    2.51999998
   14.15277767  159.97300720    0.86000001    2.51999998
   14.15611076  146.37600708    0.86000001    2.51999998
   14.15944386  154.85400391    0.86000001    2.53999996
   14.16527748  154.85400391    0.88000000    2.51999998
   14.16944504  183.69500732    0.89999998    2.51999998
   14.17277813  150.13499451    0.89999998    2.51999998
   14.17611122  170.84899902    0.89999998    2.51999998
   14.17916679  171.51300049    0.89999998    2.51999998
   14.18249989  164.97399902    0.89999998    2.51999998
   14.18361092  149.33000183    0.89999998    2.51999998
   14.18611145  166.10400391    0.89999998    2.51999998
   14.18944454  145.76199341    0.89999998    2.53999996
   14.19277763  161.54600525    0.89999998    2.53999996
   14.19583321  170.20500183    0.88000000    2.51999998
   14.19916630  166.94900513    0.88000000    2.51999998
   14.20249939  165.56100464    0.88000000    2.51999998
   14.20805550  165.56100464    0.89999998    2.53999996
   14.21222210  173.48500061    0.88000000    2.53999996
   14.21555519  174.66900635    0.89999998    2.51999998
   14.21694374  176.95599365    0.89999998    2.51999998
   14.21944427  171.38200378    0.89999998    2.53999996
   14.22249985  154.04800415    0.89999998    2.53999996
   14.22583294  167.14199829    0.89999998    2.53999996
   14.22916603  163.96899414    0.89999998    2.53999996
   14.23222160  170.14799500    0.88000000    2.51999998
   14.23555565  156.92500305    0.88000000    2.53999996
   14.23888874  163.77600098    0.88000000    2.53999996
   14.24194431  164.20799255    0.88000000    2.53999996
   14.24527836  155.57699585    0.88000000    2.53999996
   14.25111103  155.57699585    0.86000001    2.50000000
   14.25527763  169.32699585    0.86000001    2.53999996
   14.25833321  159.78300476    0.88000000    2.53999996
   14.26166630  163.92599487    0.86000001    2.53999996
   14.26500034  163.66200256    0.86000001    2.53999996
   14.26805496  153.61199951    0.88000000    2.51999998
   14.27138901  158.76800537    0.88000000    2.51999998
   14.27472210  174.72399902    0.86000001    2.53999996
   14.27777767  148.51800537    0.88000000    2.53999996
   14.28111076  160.25000000    0.88000000    2.53999996
   14.28361130  164.76499939    0.88000000    2.53999996
   14.30416679  164.76499939    0.89999998    2.53999996
   14.30833340  158.40899658    0.86000001    2.55999994
   14.31138897  151.54899597    0.86000001    2.55999994
   14.31472206  156.64399719    0.86000001    2.53999996
   14.31694412  159.98899841    0.86000001    2.53999996
   14.31833363  151.42500305    0.86000001    2.53999996
   14.32166672  160.29400635    0.86000001    2.53999996
   14.32499981  169.20100403    0.86000001    2.53999996
   14.32805538  171.73300171    0.83999997    2.53999996
   14.33138847  163.63000488    0.86000001    2.53999996
   14.33472157  157.63800049    0.86000001    2.53999996
   14.33777714  169.23899841    0.86000001    2.53999996
   14.34111118  144.05900574    0.86000001    2.55999994
   14.34722233  144.05900574    0.81999999    2.55999994
   14.35111141  149.71200562    0.83999997    2.53999996
   14.35444450  151.09599304    0.83999997    2.53999996
   14.35777855  153.04899597    0.83999997    2.53999996
   14.36083412  144.16299438    0.83999997    2.53999996
   14.36416721  164.31500244    0.81999999    2.53999996
   14.36722279  168.77900696    0.83999997    2.53999996
   14.37055588  147.79800415    0.81999999    2.55999994
   14.37388897  151.94799805    0.81999999    2.55999994
   14.37694454  139.85699463    0.81999999    2.53999996
   14.38027763  149.89100647    0.81999999    2.53999996
   14.38361073  135.58000183    0.81999999    2.53999996
   14.38388920  142.89999390    0.81999999    2.53999996
   14.38972187  142.89999390    0.80000001    2.55999994
   14.39388847  162.86199951    0.81999999    2.55999994
   14.39722252  148.34100342    0.80000001    2.55999994
   14.40027714  151.94400024    0.80000001    2.53999996
   14.40361118  135.70399475    0.80000001    2.55999994
   14.40666676  137.40400696    0.80000001    2.55999994
   14.40999985  143.17300415    0.80000001    2.55999994
   14.41333294  160.52400208    0.80000001    2.53999996
   14.41638851  141.25199890    0.80000001    2.55999994
   14.41722298  149.66499329    0.80000001    2.55999994
   14.42000008  148.03799438    0.80000001    2.53999996
   14.42333412  142.62699890    0.79000002    2.53999996
   14.42638874  153.56500244    0.79000002    2.55999994
   14.43249989  153.56500244    0.79000002    2.55999994
   14.43666649  143.90600586    0.79000002    2.55999994
   14.44000053  138.32699585    0.79000002    2.55999994
   14.44305515  145.39900208    0.79000002    2.55999994
   14.44638920  130.83599854    0.76999998    2.55999994
   14.44972229  125.40899658    0.76999998    2.55999994
   14.45055580  127.62000275    0.76999998    2.55999994
   14.45333290  143.12600708    0.79000002    2.53999996
   14.45666695  146.83799744    0.76999998    2.55999994
   14.45972157  133.49200439    0.76999998    2.55999994
   14.46305561  145.21800232    0.76999998    2.53999996
   14.46611118  145.65600586    0.75000000    2.55999994
   14.46944427  122.49199677    0.76999998    2.55999994
   14.47555542  122.49199677    0.75000000    2.55999994
   14.47944355  132.93200684    0.75000000    2.55999994
   14.48277760  142.30999756    0.75000000    2.55999994
   14.48416710  153.91299438    0.76999998    2.55999994
   14.48638916  144.94400024    0.76999998    2.55999994
   14.48972225  139.04400635    0.76999998    2.55999994
   14.49277782  141.97000122    0.75000000    2.55999994
   14.49611092  146.68099976    0.75000000    2.55999994
   14.49944496  147.70599365    0.73000002    2.55999994
   14.50249958  139.23899841    0.75000000    2.55999994
   14.50583363  151.29800415    0.73000002    2.55999994
   14.50916672  139.98300171    0.73000002    2.55999994
   14.51222229  140.08700562    0.73000002    2.55999994
   14.51833344  140.08700562    0.75000000    2.55999994
   14.52250004  147.71699524    0.73000002    2.55999994
   14.52555561  126.71900177    0.75000000    2.55999994
   14.52888870  124.87000275    0.75000000    2.55999994
   14.53222179  134.72900391    0.75000000    2.55999994
   14.53527832  140.99299622    0.75000000    2.55999994
   14.53861141  139.46099854    0.76999998    2.55999994
   14.54194450  133.22399902    0.76999998    2.55999994
   14.54500008  133.01100159    0.75000000    2.55999994
   14.54833412  127.77500153    0.75000000    2.55999994
   14.55055618  125.86900330    0.76999998    2.55999994
   14.55194473  124.78500366    0.75000000    2.55999994
   14.55527782  134.65699768    0.75000000    2.55999994
   14.56111145  134.65699768    0.75000000    2.55999994
   14.56527805  130.52699280    0.75000000    2.55999994
   14.56861115  136.60600281    0.75000000    2.57999992
   14.57166672  129.11900330    0.75000000    2.55999994
   14.57499981  138.17700195    0.76999998    2.55999994
   14.57805538  137.89999390    0.79000002    2.53999996
   14.58138847  136.45199585    0.76999998    2.55999994
   14.58388901  130.51800537    0.76999998    2.55999994
   14.58500004  136.19999695    0.79000002    2.57999992
   14.58833313  126.95200348    0.79000002    2.57999992
   14.59138870  133.75399780    0.76999998    2.55999994
   14.59472179  134.94500732    0.75000000    2.55999994
   14.59805489  134.05099487    0.79000002    2.55999994
   14.60388947  134.05099487    0.79000002    2.55999994
   14.60805607  138.53700256    0.76999998    2.55999994
   14.61138916  133.91999817    0.79000002    2.57999992
   14.61444473  129.93600464    0.79000002    2.57999992
   14.61722279  122.58300018    0.79000002    2.57999992
   14.61805534  129.55400085    0.79000002    2.57999992
   14.62138939  134.26699829    0.80000001    2.55999994
   14.62472248  128.74600220    0.80000001    2.57999992
   14.62777805  128.74200439    0.80000001    2.55999994
   14.63111115  124.51100159    0.86000001    2.57999992
   14.63416672  122.14600372    0.86000001    2.57999992
   14.63749981  130.49299622    0.86000001    2.55999994
   14.64083290  134.11500549    0.86000001    2.57999992
   14.64694405  134.11500549    0.81999999    2.57999992
   14.65083313  126.20300293    0.81999999    2.57999992
   14.65416622  132.12699890    0.81999999    2.57999992
   14.65749931  134.02900696    0.79000002    2.55999994
   14.66055489  128.02400208    0.75000000    2.55999994
   14.66388893  127.28299713    0.76999998    2.57999992
   14.66722298  126.35500336    0.79000002    2.57999992
   14.67027855  127.35600281    0.76999998    2.57999992
   14.67361164  131.86099243    0.76999998    2.57999992
   14.67666721  123.33899689    0.76999998    2.57999992
   14.68000031  128.22200012    0.75000000    2.57999992
   14.68333340  127.47299957    0.76999998    2.57999992
   14.68388939  128.91099548    0.76999998    2.57999992
   14.68972206  128.91099548    0.76999998    2.57999992
   14.69388866  122.61499786    0.76999998    2.57999992
   14.69694424  137.35499573    0.76999998    2.57999992
   14.70027733  127.89199829    0.76999998    2.57999992
   14.70361137  134.93899536    0.76999998    2.57999992
   14.70666695  126.39299774    0.76999998    2.57999992
   14.71000004  129.26199341    0.75000000    2.55999994
   14.71305561  133.68899536    0.75000000    2.57999992
   14.71666622  127.73000336    0.73000002    2.57999992
   14.71749973  132.16499329    0.73000002    2.57999992
   14.71999931  129.45500183    0.73000002    2.57999992
   14.72333336  129.28100586    0.73000002    2.57999992
   14.72638798  129.20599365    0.73000002    2.57999992
   14.73249912  129.20599365    0.73000002    2.55999994
   14.73666668  131.05700684    0.76999998    2.57999992
   14.74000072  124.73400116    0.83999997    2.57999992
   14.74305534  126.19300079    0.94000000    2.57999992
   14.74638939  131.11099243    0.94000000    2.57999992
   14.74944496  130.08200073    0.86000001    2.57999992
   14.75083351  127.36900330    0.83999997    2.57999992
   14.75305557  126.91799927    0.83999997    2.57999992
   14.75638866  122.45800018    0.98000002    2.55999994
   14.75944424  124.96099854    0.89999998    2.57999992
   14.76277733  123.12300110    1.03999996    2.57999992
   14.76611137  125.74600220    0.92000002    2.59999990
   14.76916599  127.85700226    0.92000002    2.59999990
   14.77527714  127.85700226    0.86000001    2.57999992
   14.77944374  125.31900024    0.86000001    2.57999992
   14.78277779  129.47200012    0.95999998    2.59999990
   14.78416729  129.59500122    0.95999998    2.59999990
   14.78638935  131.97500610    1.09000003    2.57999992
   14.78972244  121.27799988    1.25000000    2.57999992
   14.79305553  126.52100372    1.09000003    2.57999992
   14.79611111  128.56100464    1.00000000    2.57999992
   14.79944515  138.18400574    1.00000000    2.57999992
   14.80249977  127.00099945    0.88000000    2.57999992
   14.80583382  130.52299500    0.89999998    2.57999992
   14.80916691  125.80899811    0.88000000    2.57999992
   14.81222248  126.36900330    0.79000002    2.57999992
   14.81833363  126.36900330    0.75000000    2.59999990
   14.82222176  127.53299713    0.76999998    2.57999992
   14.82555580  133.12899780    0.76999998    2.57999992
   14.82888889  137.68299866    0.75000000    2.57999992
   14.83194447  129.31599426    0.75000000    2.57999992
   14.83527756  132.42799377    0.76999998    2.57999992
   14.83861065  127.40499878    0.75000000    2.59999990
   14.84166622  131.99600220    0.75000000    2.57999992
   14.84499931  134.55499268    0.75000000    2.57999992
   14.84805489  129.64100647    0.75000000    2.59999990
   14.85083389  135.31399536    0.73000002    2.57999992
   14.85166740  131.96899414    0.73000002    2.57999992
   14.85500050  128.41200256    0.75000000    2.57999992
   14.86111164  128.41200256    0.75000000    2.57999992
   14.86527824  127.13899994    0.75000000    2.59999990
   14.86833382  131.14799500    0.73000002    2.59999990
   14.87166691  130.13299561    0.73000002    2.59999990
   14.87500000  141.85499573    0.73000002    2.59999990
   14.87805557  129.36700439    0.73000002    2.57999992
   14.88138866  134.40699768    0.73000002    2.59999990
   14.88416672  136.88200378    0.73000002    2.55999994
   14.88500023  131.60299683    0.73000002    2.55999994
   14.88833332  133.03199768    0.70999998    2.57999992
   14.89166641  129.83700562    0.73000002    2.59999990
   14.89499950  132.37399292    0.70999998    2.59999990
   14.89805508  133.83399963    0.70999998    2.57999992
   14.90388870  133.83399963    0.73000002    2.57999992
   14.90805531  126.19000244    0.73000002    2.59999990
   14.91138840  129.14799500    0.73000002    2.59999990
   14.91444397  131.37399292    0.73000002    2.59999990
   14.91750050  127.24700165    0.75000000    2.57999992
   14.91805553  130.74200439    0.75000000    2.57999992
   14.92138958  127.69699860    0.76999998    2.57999992
   14.92472267  129.53599548    0.76999998    2.57999992
   14.92777824  129.28799438    0.80000001    2.59999990
   14.93111134  135.17100525    0.81999999    2.59999990
   14.93444443  130.74699402    0.88000000    2.57999992
   14.93750000  132.63200378    0.81999999    2.59999990
   14.94083309  131.36900330    0.81999999    2.59999990
   14.94666672  131.36900330    0.76999998    2.57999992
   14.95083332  131.97599792    0.79000002    2.57999992
   14.95416641  130.04800415    0.79000002    2.57999992
   14.95749950  129.21200562    0.80000001    2.57999992
   14.96055508  134.29899597    0.86000001    2.59999990
   14.96388912  130.27999878    0.88000000    2.59999990
   14.96722221  127.70800018    0.86000001    2.59999990
   14.97027779  132.42799377    0.83999997    2.59999990
   14.97361088  134.81300354    0.83999997    2.59999990
   14.97694397  126.26599884    0.83999997    2.59999990
   14.97999954  130.49099731    0.86000001    2.59999990
   14.98333359  128.75500488    0.89999998    2.59999990
   14.98416710  128.09100342    0.89999998    2.57999992
   14.98972225  128.09100342    0.89999998    2.57999992
   14.99361134  126.96800232    0.89999998    2.57999992
   14.99694443  139.31100464    0.89999998    2.57999992
   15.00027752  135.66099548    0.92000002    2.57999992
   15.00333309  128.88999939    0.81999999    2.57999992
   15.00666714  126.18000031    0.81999999    2.59999990
   15.11083412   -1.00000000   -1.00000000   -1.00000000
   15.20888901   -1.00000000   -1.00000000   -1.00000000
   15.33666611   -1.00000000   -1.00000000   -1.00000000
   15.36972237  133.75500488    1.28999996    2.61999989
   15.37277794  133.95100403    1.28999996    2.61999989
   15.37611103  134.61999512    1.28999996    2.61999989
   15.37944412  131.28399658    1.25000000    2.61999989
   15.38249969  132.62100220    1.21000004    2.59999990
   15.38583279  133.41600037    1.19000006    2.59999990
   15.39000034  133.41600037    1.14999998    2.61999989
   15.39416695  132.40800476    1.19000006    2.59999990
   15.39722252  132.91700745    1.14999998    2.59999990
   15.40055561  139.55499268    1.11000001    2.61999989
   15.40305519  137.32299805    1.09000003    2.61999989
   15.40388870  138.84399414    1.09000003    2.59999990
   15.40722179  132.51800537    1.09000003    2.61999989
   15.41055489  126.01300049    1.09000003    2.61999989
   15.41361046  129.10600281    1.07000005    2.59999990
   15.41694450  127.96299744    1.05999994    2.59999990
   15.42000008  130.19900513    1.05999994    2.61999989
   15.42333412  129.07000732    1.05999994    2.59999990
   15.42666721  127.34400177    1.03999996    2.61999989
   15.43277836  127.34400177    1.01999998    2.61999989
   15.43694496  125.51899719    1.01999998    2.61999989
   15.44000053  129.88400269    1.00000000    2.61999989
   15.44333363  129.57899475    1.00000000    2.61999989
   15.44666672  131.08599854    1.00000000    2.59999990
   15.44999981  127.75599670    1.00000000    2.61999989
   15.45305538  128.93200684    1.00000000    2.61999989
   15.45638847  122.53900146    1.00000000    2.61999989
   15.45944405  127.16400146    0.98000002    2.59999990
   15.46277714  124.43699646    0.95999998    2.59999990
   15.46611118  125.09500122    0.89999998    2.64000010
   15.46916580  125.59600067    0.88000000    2.61999989
   15.46972179  123.89099884    0.88000000    2.61999989
   15.47555542  123.89099884    0.86000001    2.59999990
   15.47972202  119.00599670    0.88000000    2.61999989
   15.48305511  123.37400055    0.88000000    2.61999989
   15.48611164  130.89799500    0.83999997    2.59999990
   15.48944473  122.08599854    0.83999997    2.61999989
   15.49277782  129.53999329    0.83999997    2.61999989
   15.49583340  126.76000214    0.81999999    2.61999989
   15.49916649  125.12300110    0.81999999    2.61999989
   15.50222206  136.59700012    0.81999999    2.61999989
   15.50305557  128.98199463    0.81999999    2.61999989
   15.50611115  129.85000610    0.81999999    2.61999989
   15.50916672  127.65299988    0.80000001    2.61999989
   15.51249981  124.07499695    0.80000001    2.61999989
   15.51833344  124.07499695    0.80000001    2.61999989
   15.52277756  122.34500122    0.80000001    2.61999989
   15.52583313  120.31300354    0.80000001    2.61999989
   15.52916622  126.09400177    0.80000001    2.61999989
   15.53249931  124.71399689    0.80000001    2.61999989
   15.53583336  124.57299805    0.81999999    2.61999989
   15.53638935  125.13400269    0.81999999    2.61999989
   15.53944492  130.03199768    0.81999999    2.64000010
   15.54250050  127.55300140    0.81999999    2.61999989
   15.54583359  132.80299377    0.83999997    2.61999989
   15.54916668  126.96199799    0.83999997    2.61999989
   15.55222225  130.35899353    0.86000001    2.61999989
   15.55555534  123.35399628    0.86000001    2.61999989
   15.56138897  123.35399628    0.88000000    2.64000010
   15.56555557  124.48200226    0.88000000    2.61999989
   15.56861115  131.26400757    0.89999998    2.61999989
   15.56972218  129.77699280    0.89999998    2.61999989
   15.57222176  124.03900146    0.88000000    2.61999989
   15.57527733  127.61399841    0.88000000    2.61999989
   15.57861137  125.58799744    0.86000001    2.61999989
   15.58194447  128.47999573    0.83999997    2.61999989
   15.58500004  129.68299866    0.83999997    2.64000010
   15.58833313  130.46899414    0.81999999    2.61999989
   15.59166622  129.93499756    0.81999999    2.61999989
   15.59472179  121.69799805    0.81999999    2.61999989
   15.59805489  124.17400360    0.81999999    2.61999989
   15.60416698  124.17400360    0.83999997    2.61999989
   15.60833359  122.95300293    0.86000001    2.61999989
   15.61166668  126.91400146    0.86000001    2.61999989
   15.61472225  126.88300323    0.89999998    2.61999989
   15.61805534  121.65100098    0.88000000    2.61999989
   15.62138939  121.57099915    0.88000000    2.61999989
   15.62444496  122.49500275    0.89999998    2.61999989
   15.62777805  135.47599792    0.89999998    2.61999989
   15.63111115  124.18599701    0.88000000    2.61999989
   15.63416672  124.06700134    0.86000001    2.61999989
   15.63638878  126.53299713    0.86000001    2.61999989
   15.63777733  120.74900055    0.83999997    2.61999989
   15.64111137  122.62999725    0.83999997    2.61999989
   15.64694405  122.62999725    0.86000001    2.64000010
   15.65111065  121.39800262    0.86000001    2.64000010
   15.65444374  125.25099945    0.86000001    2.61999989
   15.65749931  117.94000244    0.81999999    2.61999989
   15.66083336  127.38200378    0.86000001    2.61999989
   15.66416645  126.13600159    0.83999997    2.61999989
   15.66722298  130.25000000    0.83999997    2.61999989
   15.66972256  123.46299744    0.81999999    2.61999989
   15.67083359  125.96800232    0.81999999    2.61999989
   15.67388916  126.81700134    0.83999997    2.64000010
   15.67722225  124.66500092    0.83999997    2.61999989
   15.68055630  124.66400146    0.81999999    2.64000010
   15.68361092  126.34300232    0.81999999    2.59999990
   15.68972206  126.34300232    0.83999997    2.61999989
   15.69388866  120.01300049    0.83999997    2.59999990
   15.69722271  127.93900299    0.83999997    2.61999989
   15.70055580  122.84999847    0.81999999    2.64000010
   15.70305538  134.12800598    0.80000001    2.61999989
   15.70416641  129.45199585    0.80000001    2.61999989
   15.70749950  119.16799927    0.79000002    2.64000010
   15.71055508  122.12999725    0.79000002    2.64000010
   15.71388912  123.45200348    0.79000002    2.64000010
   15.71694374  130.91499329    0.79000002    2.64000010
   15.72027779  116.33000183    0.79000002    2.64000010
   15.72361088  125.63500214    0.79000002    2.61999989
   15.72666645  124.63200378    0.76999998    2.59999990
   15.73277760  124.63200378    0.79000002    2.64000010
   15.73694515  123.01000214    0.80000001    2.64000010
   15.74000072  123.34300232    0.79000002    2.64000010
   15.74333382  125.57700348    0.80000001    2.61999989
   15.74638939  127.32399750    0.79000002    2.64000010
   15.74972248  135.12899780    0.80000001    2.64000010
   15.75305557  130.56900024    0.80000001    2.64000010
   15.75611115  126.91200256    0.81999999    2.61999989
   15.75944424  129.07299805    0.81999999    2.61999989
   15.76277733  127.36799622    0.80000001    2.64000010
   15.76583290  123.11199951    0.80000001    2.61999989
   15.76916599  127.63200378    0.81999999    2.61999989
   15.76972198  134.35499573    0.81999999    2.61999989
   15.77555561  134.35499573    0.81999999    2.61999989
   15.77972221  125.96099854    0.81999999    2.64000010
   15.78277779  123.93099976    0.83999997    2.64000010
   15.78611183  130.73699951    0.81999999    2.61999989
   15.78944492  123.74099731    0.80000001    2.61999989
   15.79250050  123.05300140    0.80000001    2.61999989
   15.79583359  132.96099854    0.79000002    2.61999989
   15.79916668  129.48100281    0.81999999    2.61999989
   15.80222225  126.89099884    0.81999999    2.64000010
   15.80305576  121.78199768    0.81999999    2.64000010
   15.80583382  123.06199646    0.81999999    2.64000010
   15.80916691  134.71899414    0.83999997    2.64000010
   15.81222248  134.46499634    0.83999997    2.64000010
   15.81833363  134.46499634    0.88000000    2.61999989
   15.82250023  124.83499908    0.83999997    2.61999989
   15.82583332  126.95500183    0.83999997    2.61999989
   15.82888889  123.24600220    0.83999997    2.61999989
   15.83222198  123.38999939    0.83999997    2.64000010
   15.83555508  129.93899536    0.81999999    2.61999989
   15.83638859  126.59100342    0.81999999    2.64000010
   15.83916664  123.61900330    0.81999999    2.64000010
   15.84249973  125.51899719    0.81999999    2.61999989
   15.84555531  126.11599731    0.81999999    2.61999989
   15.84888840  127.81999969    0.88000000    2.61999989
   15.85194492  128.88299561    0.88000000    2.61999989
   15.85527802  126.22699738    0.92000002    2.61999989
   15.86111164  126.22699738    0.94000000    2.61999989
   15.86527824  118.82900238    0.95999998    2.64000010
   15.86861134  121.58599854    1.13000000    2.61999989
   15.86972237  123.96199799    1.16999996    2.64000010
   15.87222195  127.55699921    1.21000004    2.64000010
   15.87555599  131.35800171    1.26999998    2.61999989
   15.87861156  123.66600037    1.26999998    2.61999989
   15.88194466  135.55700684    1.26999998    2.61999989
   15.88500023  121.41100311    1.26999998    2.61999989
   15.88833332  124.85299683    1.30999994    2.61999989
   15.89166641  125.72399902    1.28999996    2.64000010
   15.89472198  128.05900574    1.28999996    2.61999989
   15.89805508  122.32099915    1.30999994    2.64000010
   15.90416622  122.32099915    1.30999994    2.61999989
   15.90833282  127.35700226    1.26999998    2.61999989
   15.91138840  126.54799652    1.26999998    2.61999989
   15.91472149  128.31599426    1.26999998    2.61999989
   15.91777802  123.36499786    1.26999998    2.61999989
   15.92111111  128.80900574    1.23000002    2.61999989
   15.92444515  130.53399658    1.13000000    2.61999989
   15.92750072  130.34700012    1.01999998    2.61999989
   15.93083382  119.22100067    1.01999998    2.61999989
   15.93416691  124.94799805    1.00000000    2.64000010
   15.93638897  123.82900238    1.00000000    2.64000010
   15.93777752  122.91500092    1.01999998    2.61999989
   15.94111156  121.49199677    1.01999998    2.61999989
   15.94694424  121.49199677    0.95999998    2.61999989
   15.95111084  121.38300323    1.00000000    2.64000010
   15.95416641  123.11599731    0.98000002    2.64000010
   15.95749950  123.35900116    0.98000002    2.64000010
   15.96083355  127.21700287    1.01999998    2.64000010
   15.96416664  128.03399658    1.01999998    2.64000010
   15.96722221  120.90100098    1.01999998    2.61999989
   15.96972179  127.27100372    1.01999998    2.61999989
   15.97083282  125.73699951    1.01999998    2.64000010
   15.97416592  124.41300201    1.01999998    2.64000010
   15.97722149  125.97699738    1.00000000    2.61999989
   15.98055553  127.43299866    0.98000002    2.61999989
   15.98388958  126.26300049    1.01999998    2.61999989
   15.98972225  126.26300049    0.98000002    2.61999989
   15.99388885  125.70700073    0.98000002    2.64000010
   15.99722290  126.91000366    0.98000002    2.64000010
   16.00027847  124.04299927    1.00000000    2.61999989
   16.00305557  124.13099670    0.98000002    2.64000010
   16.00388908  123.60700226    0.98000002    2.64000010
   16.00722313  123.15699768    0.95999998    2.64000010
   16.01055527  122.78199768    0.95999998    2.64000010
   16.01361084  125.76399994    0.98000002    2.64000010
   16.01694489  122.71199799    0.95999998    2.64000010
   16.02027702  125.72599792    0.95999998    2.64000010
   16.02333260  120.95099640    0.95999998    2.64000010
   16.02666664  117.10099792    0.98000002    2.61999989
   16.03249931  117.10099792    0.95999998    2.64000010
   16.03666687  124.66000366    0.95999998    2.61999989
   16.03999901  119.54599762    0.94000000    2.64000010
   16.04333305  120.35600281    0.94000000    2.61999989
   16.04638863  122.07700348    0.89999998    2.64000010
   16.04972076  122.24199677    0.89999998    2.64000010
   16.05305481  121.39199829    0.89999998    2.64000010
   16.05611038  129.32000732    0.88000000    2.64000010
   16.05944443  123.83200073    0.86000001    2.61999989
   16.06277657  122.47599792    0.86000001    2.61999989
   16.06583214  125.17299652    0.86000001    2.61999989
   16.06916809  123.31700134    0.86000001    2.64000010
   16.06972313  132.39500427    0.86000001    2.64000010
   16.07555580  132.39500427    0.83999997    2.64000010
   16.07972336  129.71099854    0.81999999    2.61999989
   16.08277893  120.90000153    0.89999998    2.64000010
   16.08611107  125.24299622    1.01999998    2.64000010
   16.08916664  126.02300262    1.01999998    2.64000010
   16.09250069  127.44899750    1.05999994    2.61999989
   16.09583473  126.30999756    1.09000003    2.61999989
   16.09889030  127.24900055    1.13000000    2.64000010
   16.10222244  133.58000183    1.23000002    2.64000010
   16.10305595  146.63099670    1.23000002    2.64000010
   16.10583305  144.53199768    1.19000006    2.64000010
   16.10916710  137.34399414    1.16999996    2.64000010
   16.11222267  142.92700195    1.16999996    2.64000010
   16.11833382  142.92700195    1.11000001    2.64000010
   16.12249947  134.94200134    1.05999994    2.61999989
   16.12555504  129.97399902    1.00000000    2.64000010
   16.12888908  138.97200012    0.94000000    2.64000010
   16.13222313  134.30700684    0.89999998    2.64000010
   16.13527679  132.36000061    0.89999998    2.64000010
   16.13638878  141.22200012    0.83999997    2.64000010
   16.13888931  143.25300598    0.83999997    2.64000010
   16.14222145  138.06399536    0.83999997    2.64000010
   16.14527702  140.71800232    0.83999997    2.64000010
   16.14861107  141.98800659    0.80000001    2.64000010
   16.15194321  129.76699829    0.75000000    2.64000010
   16.15499878  142.85000610    0.75000000    2.64000010
   16.16110992  142.85000610    0.73000002    2.64000010
   16.16527748  141.61099243    0.75000000    2.61999989
   16.16860962  139.02000427    0.75000000    2.64000010
   16.16972160  128.60400391    0.75000000    2.64000010
   16.17222214  125.80599976    0.75000000    2.64000010
   16.17555428  139.50900269    0.75000000    2.64000010
   16.17860985  136.36599731    0.73000002    2.64000010
   16.18194389  123.72200012    0.73000002    2.64000010
   16.18527603  130.27900696    0.70999998    2.64000010
   16.18833160  140.25100708    0.70999998    2.64000010
   16.19166565  127.53099823    0.69000000    2.64000010
   16.19472122  146.43499756    0.67000002    2.64000010
   16.19833183  132.54400635    0.67000002    2.64000010
   16.20388985  132.54400635    0.64999998    2.64000010
   16.20805550  127.00000000    0.64999998    2.64000010
   16.21138954  139.39199829    0.64999998    2.64000010
   16.21472359  140.05999756    0.63000000    2.64000010
   16.21777916  135.41200256    0.61000001    2.64000010
   16.22111130  136.77099609    0.63000000    2.64000010
   16.22444534  136.36900330    0.63000000    2.64000010
   16.22750092  133.47300720    0.61000001    2.64000010
   16.23083305  127.19200134    0.61000001    2.64000010
   16.23416710  139.12199402    0.61000001    2.61999989
   16.23638916  131.35000610    0.63000000    2.64000010
   16.23750114  135.53500366    0.63000000    2.64000010
   16.24083328  133.75599670    0.67000002    2.64000010
   16.24694443  133.75599670    0.69000000    2.64000010
   16.25111198  133.60000610    0.70999998    2.64000010
   16.25416756  126.10399628    0.73000002    2.64000010
   16.25749969  129.00500488    0.73000002    2.64000010
   16.26083374  123.86900330    0.75000000    2.64000010
   16.26388931  129.41400146    0.76999998    2.64000010
   16.26722145  126.97000122    0.76999998    2.64000010
   16.27000046  134.74200439    0.76999998    2.64000010
   16.27083397  131.17900085    0.76999998    2.64000010
   16.27416611  129.05400085    0.76999998    2.61999989
   16.27722168  132.75900269    0.75000000    2.64000010
   16.28055573  131.99499512    0.75000000    2.64000010
   16.28388786  132.21400452    0.75000000    2.64000010
   16.28972244  132.21400452    0.73000002    2.64000010
   16.29388809  123.57299805    0.70999998    2.64000010
   16.29722214  133.64300537    0.70999998    2.64000010
   16.30027771  123.04199982    0.70999998    2.61999989
   16.30333328  125.02999878    0.69000000    2.64000010
   16.30388832  124.20600128    0.69000000    2.64000010
   16.30722237  125.46299744    0.70999998    2.64000010
   16.31027794  128.50700378    0.69000000    2.61999989
   16.31361008  127.61000061    0.69000000    2.61999989
   16.31694603  121.36299896    0.69000000    2.61999989
   16.32000160  121.91699982    0.70999998    2.64000010
   16.32333374  123.94599915    0.69000000    2.64000010
   16.32666779  133.52600098    0.70999998    2.64000010
   16.33250046  133.52600098    0.67000002    2.64000010
   16.33666801  128.18299866    0.67000002    2.64000010
   16.34000015  124.37599945    0.67000002    2.64000010
   16.34305573  125.12300110    0.67000002    2.64000010
   16.34638977  123.56300354    0.67000002    2.64000010
   16.34972191  127.67199707    0.67000002    2.64000010
   16.35277748  129.22599792    0.67000002    2.64000010
   16.35611153  122.54799652    0.67000002    2.64000010
   16.35944557  125.80699921    0.69000000    2.64000010
   16.36250114  128.11199951    0.69000000    2.64000010
   16.36583328  129.77499390    0.70999998    2.64000010
   16.36888885  121.48899841    0.70999998    2.64000010
   16.37000084  122.76999664    0.70999998    2.64000010
   16.39055634  122.76999664    0.67000002    2.61999989
   16.39472198  122.96499634    0.69000000    2.61999989
   16.39805603  123.81300354    0.67000002    2.64000010
   16.40111160  127.89399719    0.67000002    2.64000010
   16.40333366  124.07399750    0.67000002    2.64000010
   16.40472221  123.66400146    0.67000002    2.64000010
   16.40805435  120.87699890    0.64999998    2.64000010
   16.41110992  128.82699585    0.64999998    2.64000010
   16.41444397  125.76200104    0.64999998    2.64000010
   16.41777802  121.57800293    0.64999998    2.64000010
   16.42083359  126.00000000    0.64999998    2.64000010
   16.42416573  120.13700104    0.67000002    2.64000010
   16.42749977  129.32699585    0.70999998    2.64000010
   16.43333244  129.32699585    0.75000000    2.64000010
   16.43750000  126.46499634    0.73000002    2.64000010
   16.44055557  122.70400238    0.73000002    2.64000010
   16.44388771  124.68000031    0.73000002    2.61999989
   16.44722176  124.87100220    0.73000002    2.64000010
   16.45027924  124.07599640    0.73000002    2.64000010
   16.45361137  119.98999786    0.75000000    2.64000010
   16.45694542  121.44899750    0.70999998    2.61999989
   16.46000099  124.04199982    0.70999998    2.61999989
   16.46333504  128.53300476    0.70999998    2.64000010
   16.46638870  132.21099854    0.70999998    2.64000010
   16.46972275  125.62799835    0.70999998    2.64000010
   16.47027779  126.43399811    0.70999998    2.64000010
   16.47611237  126.43399811    0.67000002    2.64000010
   16.48027802  121.34600067    0.67000002    2.64000010
   16.48361206  120.85099792    0.67000002    2.64000010
   16.48666763  126.49600220    0.67000002    2.61999989
   16.48999977  124.32499695    0.69000000    2.64000010
   16.49333382  118.62000275    0.64999998    2.64000010
   16.49638939  125.97200012    0.64999998    2.64000010
   16.49972153  125.78900146    0.67000002    2.64000010
   16.50277710  122.83399963    0.64999998    2.64000010
   16.50361061  121.07599640    0.64999998    2.64000010
   16.50638962  119.31700134    0.64999998    2.64000010
   16.50972176  122.05899811    0.63000000    2.61999989
   16.51305580  119.64199829    0.63000000    2.64000010
   16.51888847  119.64199829    0.64999998    2.64000010
   16.52305603  121.05799866    0.61000001    2.64000010
   16.52638817  120.50000000    0.61000001    2.64000010
   16.52972221  123.93599701    0.58999997    2.64000010
   16.53277779  122.40200043    0.61000001    2.64000010
   16.53610992  125.69499969    0.61000001    2.64000010
   16.53694344  120.86799622    0.61000001    2.64000010
   16.53944397  123.72100067    0.63000000    2.64000010
   16.54277802  121.58200073    0.63000000    2.64000010
   16.54611015  125.04499817    0.63000000    2.64000010
   16.54916573  123.19400024    0.61000001    2.64000010
   16.55249977  123.80200195    0.58999997    2.64000010
   16.55583191  125.96800232    0.61000001    2.64000010
   16.56194305  125.96800232    0.58999997    2.64000010
   16.56611061  126.82599640    0.58999997    2.64000010
   16.56916809  123.34300232    0.58999997    2.64000010
   16.57055664  122.62799835    0.58999997    2.64000010
   16.57305717  123.10500336    0.58999997    2.64000010
   16.57638931  122.92500305    0.58999997    2.64000010
   16.57944489  119.92600250    0.56999999    2.64000010
   16.58277893  122.17700195    0.56999999    2.64000010
   16.58611107  123.83399963    0.56999999    2.61999989
   16.58916664  125.63800049    0.58999997    2.64000010
   16.59250069  125.55799866    0.56999999    2.64000010
   16.59583473  123.06600189    0.56999999    2.64000010
   16.59889030  121.37200165    0.56999999    2.64000010
   16.60472298  121.37200165    0.58999997    2.64000010
   16.60888863  128.09599304    0.55000001    2.64000010
   16.61194420  122.11299896    0.55000001    2.64000010
   16.61527824  122.79699707    0.56999999    2.64000010
   16.61861038  125.50199890    0.56999999    2.64000010
   16.62194443  126.87200165    0.56999999    2.64000010
   16.62500000  122.71900177    0.56999999    2.64000010
   16.62833405  124.40000153    0.56999999    2.64000010
   16.63166618  129.11599731    0.56999999    2.64000010
   16.63472176  124.93000031    0.56999999    2.64000010
   16.63694382  128.79499817    0.58999997    2.64000010
   16.63861084  131.56700134    0.58999997    2.64000010
   16.64166641  130.60600281    0.56999999    2.64000010
   16.64777756  130.60600281    0.55000001    2.64000010
   16.65194321  123.50599670    0.55000001    2.64000010
   16.65499878  120.24900055    0.55000001    2.64000010
   16.65833282  130.49499512    0.55000001    2.64000010
   16.66138840  127.60399628    0.56999999    2.64000010
   16.66472244  125.49199677    0.55000001    2.64000010
   16.66805458  127.91799927    0.55000001    2.64000010
   16.67027664  131.59599304    0.55000001    2.64000010
   16.67166519  122.19000244    0.55000001    2.64000010
   16.67472076  131.91200256    0.55000001    2.64000010
   16.67805481  128.18499756    0.52999997    2.64000010
   16.68111038  133.00300598    0.52999997    2.64000010
   16.68444443  126.14499664    0.55000001    2.64000010
   16.69055557  126.14499664    0.55000001    2.64000010
   16.69472122  129.77999878    0.55000001    2.64000010
   16.69777679  125.25199890    0.61000001    2.64000010
   16.70111275  127.59999847    0.61000001    2.64000010
   16.70361137  130.72000122    0.61000001    2.64000010
   16.70444489  126.04100037    0.61000001    2.64000010
   16.70777893  131.91900635    0.58999997    2.64000010
   16.71111107  128.44000244    0.58999997    2.64000010
   16.71416664  124.50800323    0.61000001    2.64000010
   16.71750069  124.15699768    0.63000000    2.64000010
   16.72083473  124.99199677    0.63000000    2.64000010
   16.72389030  135.39900208    0.63000000    2.64000010
   16.72722244  122.31999969    0.63000000    2.64000010
   16.73333359  122.31999969    0.63000000    2.64000010
   16.73722267  127.09600067    0.63000000    2.64000010
   16.74055672  131.09800720    0.61000001    2.64000010
   16.74388885  125.32599640    0.58999997    2.64000010
   16.74694443  126.55899811    0.61000001    2.64000010
   16.75027847  123.62300110    0.61000001    2.64000010
   16.75361061  132.21099854    0.61000001    2.64000010
   16.75666618  125.29399872    0.61000001    2.64000010
   16.76000023  123.71199799    0.63000000    2.64000010
   16.76305580  125.52500153    0.61000001    2.64000010
   16.76638794  128.38299561    0.56999999    2.64000010
   16.76972198  125.46199799    0.56999999    2.64000010
   16.77027702  127.44599915    0.56999999    2.66000009
   16.77611160  127.44599915    0.58999997    2.64000010
   16.78027725  122.12899780    0.61000001    2.64000010
   16.78333282  130.87699890    0.61000001    2.64000010
   16.78666687  129.52499390    0.63000000    2.61999989
   16.78999901  129.09599304    0.67000002    2.64000010
   16.79305458  125.12400055    0.67000002    2.64000010
   16.79638863  129.56500244    0.67000002    2.64000010
   16.79944420  128.68200684    0.69000000    2.64000010
   16.80277634  128.72900391    0.67000002    2.64000010
   16.80360985  135.49099731    0.67000002    2.64000010
   16.80638885  127.62200165    0.75000000    2.64000010
   16.80944443  134.44900513    0.83999997    2.64000010
   16.81277657  133.40699768    0.86000001    2.64000010
   16.81888962  133.40699768    0.94000000    2.64000010
   16.82305717  139.34700012    1.01999998    2.64000010
   16.82638931  132.37300110    1.09000003    2.64000010
   16.82944489  141.20399475    1.09000003    2.61999989
   16.83277893  145.63299561    1.11000001    2.64000010
   16.83583450  143.91999817    1.07000005    2.64000010
   16.83694458  147.97500610    1.07000005    2.64000010
   16.83972359  150.17500305    1.07000005    2.64000010
   16.84277916  150.28300476    1.07000005    2.64000010
   16.84611130  150.16700745    1.07000005    2.64000010
   16.84944534  141.78300476    1.09000003    2.61999989
   16.85250092  147.29699707    1.09000003    2.61999989
   16.85583305  162.46200562    1.07000005    2.64000010
   16.86166763  162.46200562    1.16999996    2.64000010
   16.86583328  151.46299744    1.13000000    2.61999989
   16.86916733  145.61700439    1.13000000    2.61999989
   16.87027740  152.53199768    1.13000000    2.61999989
   16.87277794  147.44900513    1.07000005    2.64000010
   16.87583351  138.69500732    1.01999998    2.64000010
   16.87916756  130.53999329    1.01999998    2.64000010
   16.88249969  138.87899780    1.01999998    2.61999989
   16.88555527  148.35000610    1.00000000    2.64000010
   16.88888931  142.83099365    1.00000000    2.64000010
   16.89194489  152.75000000    0.95999998    2.64000010
   16.89527702  161.64399719    0.92000002    2.61999989
   16.89861107  151.41200256    0.83999997    2.64000010
   16.90472221  151.41200256    0.80000001    2.66000009
   16.90861130  130.52699280    0.79000002    2.64000010
   16.91194344  132.06799316    0.75000000    2.64000010
   16.91527748  124.89900208    0.73000002    2.66000009
   16.91833305  136.25500488    0.69000000    2.64000010
   16.92166519  130.31500244    0.69000000    2.64000010
   16.92499924  137.38699341    0.69000000    2.61999989
   16.92805481  125.32800293    0.64999998    2.64000010
   16.93138885  130.00700378    0.63000000    2.64000010
   16.93444443  128.52299500    0.67000002    2.64000010
   16.93694305  137.57899475    0.67000002    2.64000010
   16.93833160  123.47100067    0.67000002    2.64000010
   16.94138718  140.48100281    0.67000002    2.64000010
   16.94749832  140.48100281    0.69000000    2.64000010
   16.95166779  135.55200195    0.67000002    2.66000009
   16.95472336  129.05900574    0.67000002    2.64000010
   16.95805550  134.99400330    0.64999998    2.61999989
   16.96138954  126.72799683    0.67000002    2.64000010
   16.96444511  126.63400269    0.67000002    2.64000010
   16.96777916  139.09500122    0.69000000    2.64000010
   16.97027779  122.89900208    0.67000002    2.64000010
   16.97138977  137.19400024    0.67000002    2.64000010
   16.97444534  127.65599823    0.67000002    2.64000010
   16.97777748  142.99800110    0.67000002    2.64000010
   16.98111153  151.03799438    0.69000000    2.64000010
   16.98416710  149.80400085    0.69000000    2.64000010
   16.99027824  149.80400085    0.70999998    2.64000010
   16.99444389  139.39599609    0.75000000    2.64000010
   16.99777794  140.71899414    0.75000000    2.64000010
   17.00083351  129.33599854    0.75000000    2.64000010
   17.00361061  128.14700317    0.76999998    2.64000010
   17.00444412  141.86399841    0.76999998    2.64000010
   17.00749969  142.35400391    0.79000002    2.64000010
   17.01083374  149.22099304    0.79000002    2.64000010
   17.01416588  145.59700012    0.81999999    2.61999989
   17.01722145  132.36300659    0.80000001    2.64000010
   17.02055550  128.63000488    0.80000001    2.64000010
   17.02361107  129.71600342    0.83999997    2.64000010
   17.02694511  132.56100464    0.81999999    2.64000010
   17.03305435  132.56100464    0.79000002    2.64000010
   17.03722191  124.66799927    0.79000002    2.64000010
   17.04055595  137.25399780    0.76999998    2.64000010
   17.04361153  133.10600281    0.76999998    2.64000010
   17.04694366  125.66000366    0.75000000    2.64000010
   17.05027771  128.14100647    0.81999999    2.64000010
   17.05333328  128.61599731    0.81999999    2.64000010
   17.05666542  132.53500366    0.81999999    2.61999989
   17.05999947  138.16099548    0.80000001    2.64000010
   17.06305504  130.12300110    0.80000001    2.64000010
   17.06638718  128.96600342    0.76999998    2.61999989
   17.06972313  127.96600342    0.79000002    2.64000010
   17.07027817  131.36700439    0.79000002    2.64000010
   17.07583427  131.36700439    0.76999998    2.64000010
   17.08000183  135.50700378    0.75000000    2.64000010
   17.08333397  129.92999268    0.70999998    2.64000010
   17.08666801  126.69000244    0.70999998    2.64000010
   17.08972359  126.18299866    0.70999998    2.64000010
   17.09305573  126.22100067    0.69000000    2.64000010
   17.09638977  129.14199829    0.70999998    2.64000010
   17.09944534  123.12899780    0.70999998    2.64000010
   17.10277748  130.11099243    0.69000000    2.64000010
   17.10361099  131.42300415    0.69000000    2.64000010
   17.10639000  131.15499878    0.69000000    2.64000010
   17.10944557  129.28500366    0.67000002    2.64000010
   17.11277771  138.67500305    0.67000002    2.64000010
   17.11888885  138.67500305    0.67000002    2.64000010
   17.12305641  131.24200439    0.64999998    2.64000010
   17.12611198  125.30999756    0.64999998    2.64000010
   17.12944412  131.00500488    0.64999998    2.64000010
   17.13277817  135.55599976    0.64999998    2.64000010
   17.13583374  129.00999451    0.61000001    2.64000010
   17.13694382  136.12399292    0.61000001    2.64000010
   17.13944435  132.32000732    0.61000001    2.64000010
   17.14249992  130.30200195    0.61000001    2.64000010
   17.14583397  128.31399536    0.58999997    2.64000010
   17.14916611  136.98699951    0.61000001    2.61999989
   17.15222168  125.57399750    0.58999997    2.64000010
   17.15555573  129.76899719    0.67000002    2.64000010
   17.16166687  129.76899719    0.69000000    2.64000010
   17.16583252  139.13000488    0.70999998    2.64000010
   17.16916656  140.15499878    0.73000002    2.64000010
   17.17027664  139.06300354    0.73000002    2.64000010
   17.17277718  133.28799438    0.70999998    2.64000010
   17.17611122  136.58299255    0.70999998    2.64000010
   17.17916679  133.40899658    0.73000002    2.64000010
   17.18249893  133.36399841    0.76999998    2.64000010
   17.18555450  129.67999268    0.76999998    2.64000010
   17.18888855  128.86999512    0.80000001    2.64000010
   17.19222069  130.01899719    0.79000002    2.64000010
   17.19527626  125.92299652    0.79000002    2.64000010
   17.19861031  134.55400085    0.80000001    2.64000010
   17.20444489  134.55400085    0.79000002    2.64000010
   17.20861244  144.64900208    0.79000002    2.64000010
   17.21194458  136.22799683    0.73000002    2.64000010
   17.21500015  137.71800232    0.75000000    2.64000010
   17.21833420  131.21299744    0.70999998    2.64000010
   17.22166634  122.26799774    0.69000000    2.64000010
   17.22500038  127.60800171    0.69000000    2.64000010
   17.22805595  136.25100708    0.73000002    2.64000010
   17.23139000  127.66500092    0.75000000    2.64000010
   17.23472214  126.35099792    0.75000000    2.64000010
   17.23694420  131.80499268    0.75000000    2.64000010
   17.23833275  134.20399475    0.76999998    2.66000009
   17.24138832  122.40699768    0.79000002    2.64000010
   17.24722290  122.40699768    0.79000002    2.64000010
   17.25138855  129.19799805    0.80000001    2.64000010
   17.25472260  130.06799316    0.76999998    2.64000010
   17.25805473  125.53199768    0.75000000    2.64000010
   17.26111031  126.59200287    0.73000002    2.64000010
   17.26444435  132.66499329    0.73000002    2.64000010
   17.26749992  130.44700623    0.73000002    2.64000010
   17.27027702  129.80000305    0.73000002    2.64000010
   17.27138901  126.82299805    0.73000002    2.64000010
   17.27444458  129.44299316    0.73000002    2.61999989
   17.27777672  128.71800232    0.75000000    2.64000010
   17.28111076  125.84500122    0.75000000    2.64000010
   17.28416634  128.58700562    0.73000002    2.64000010
   17.29027748  128.58700562    0.70999998    2.64000010
   17.29444313  124.58499908    0.70999998    2.64000010
   17.29749870  124.09799957    0.70999998    2.64000010
   17.30083275  124.80500031    0.69000000    2.64000010
   17.30360985  125.64800262    0.69000000    2.64000010
   17.30444336  127.35299683    0.69000000    2.64000010
   17.30749893  139.04499817    0.67000002    2.64000010
   17.31083298  129.32699585    0.64999998    2.64000010
   17.31416512  130.19900513    0.64999998    2.64000010
   17.31722260  125.61799622    0.64999998    2.64000010
   17.32055664  127.75499725    0.67000002    2.64000010
   17.32361221  129.27900696    0.64999998    2.64000010
   17.32694626  126.78399658    0.64999998    2.64000010
   17.33305550  126.78399658    0.64999998    2.64000010
   17.33722305  126.37799835    0.67000002    2.64000010
   17.34055710  130.05200195    0.64999998    2.64000010
   17.34388924  128.34399414    0.64999998    2.64000010
   17.34694481  131.30099487    0.64999998    2.64000010
   17.35027885  129.42599487    0.64999998    2.64000010
   17.35333443  125.58200073    0.63000000    2.64000010
   17.35666656  134.40899658    0.63000000    2.64000010
   17.36000061  126.64399719    0.63000000    2.61999989
   17.36305618  125.52999878    0.63000000    2.61999989
   17.36638832  126.06700134    0.61000001    2.64000010
   17.36972237  133.68200684    0.64999998    2.64000010
   17.37027740  127.86199951    0.64999998    2.64000010
   17.37583351  127.86199951    0.64999998    2.64000010
   17.38000107  132.91799927    0.67000002    2.61999989
   17.38333321  132.94500732    0.73000002    2.64000010
   17.38638878  150.70899963    0.73000002    2.64000010
   17.40416718  172.16499329    0.79000002    2.64000010
   17.40638924  177.37199402    0.79000002    2.64000010
   17.40972137  189.06599426    0.76999998    2.64000010
   17.41305542  169.10899353    0.76999998    2.64000010
   17.41888809  169.10899353    0.79000002    2.64000010
   17.42305565  153.24699402    0.79000002    2.64000010
   17.42611122  172.02799988    0.79000002    2.64000010
   17.42944336  174.40699768    0.80000001    2.64000010
   17.43277740  156.66600037    0.80000001    2.64000010
   17.43583298  155.68400574    0.80000001    2.64000010
   17.43722153  156.59399414    0.80000001    2.64000010
   17.43944359  164.94799805    0.79000002    2.64000010
   17.44277763  166.02799988    0.79000002    2.64000010
   17.44583321  157.24699402    0.76999998    2.61999989
   17.44916534  134.14599609    0.76999998    2.61999989
   17.45222282  149.72700500    0.79000002    2.64000010
   17.45555687  141.98399353    0.80000001    2.64000010
   17.46166801  141.98399353    0.79000002    2.64000010
   17.46583366  141.99200439    0.80000001    2.64000010
   17.46944427  149.53700256    0.80000001    2.64000010
   17.47055626  143.01899719    0.80000001    2.64000010
   17.47305679  135.24600220    0.80000001    2.64000010
   17.47638893  144.59700012    0.81999999    2.64000010
   17.47944450  142.62399292    0.81999999    2.64000010
   17.48277855  127.17299652    0.80000001    2.64000010
   17.48583412  152.05999756    0.80000001    2.61999989
   17.48916626  125.81500244    0.80000001    2.64000010
   17.49250031  151.76899719    0.79000002    2.64000010
   17.49583435  142.36000061    0.79000002    2.64000010
   17.49888992  144.17999268    0.76999998    2.61999989
   17.50444412  144.17999268    0.76999998    2.64000010
   17.50861168  145.04800415    0.75000000    2.64000010
   17.51194382  147.10899353    0.75000000    2.64000010
   17.51499939  125.35199738    0.73000002    2.61999989
   17.51833344  139.61500549    0.73000002    2.61999989
   17.52166557  150.37600708    0.73000002    2.64000010
   17.52472115  140.26100159    0.73000002    2.64000010
   17.52805519  131.92399597    0.73000002    2.61999989
   17.53138924  126.97000122    0.70999998    2.61999989
   17.53444481  142.10800171    0.70999998    2.61999989
   17.53722191  138.18800354    0.70999998    2.64000010
   17.53805542  154.91799927    0.70999998    2.64000010
   17.54111099  138.22200012    0.76999998    2.61999989
   17.54749870  138.22200012    0.80000001    2.64000010
   17.55166626  139.80599976    0.80000001    2.64000010
   17.55472183  137.30999756    0.80000001    2.61999989
   17.55805397  141.40600586    0.80000001    2.64000010
   17.56110954  142.90800476    0.80000001    2.64000010
   17.56444359  141.42599487    0.81999999    2.61999989
   17.56777954  152.14199829    0.80000001    2.64000010
   17.57055664  134.84500122    0.81999999    2.64000010
   17.57139015  149.09300232    0.81999999    2.64000010
   17.57472229  138.06599426    0.79000002    2.61999989
   17.57777786  147.38800049    0.79000002    2.64000010
   17.58111191  132.38499451    0.79000002    2.61999989
   17.58444595  129.29600525    0.80000001    2.64000010
   17.59027863  129.29600525    0.81999999    2.61999989
   17.59444427  132.51800537    0.94000000    2.64000010
   17.59749985  149.18299866    0.94000000    2.64000010
   17.60083389  128.36999512    0.95999998    2.64000010
   17.60388947  128.61300659    0.94000000    2.64000010
   17.60444450  131.86799622    0.94000000    2.64000010
   17.60777855  126.27700043    0.95999998    2.61999989
   17.61083412  134.69900513    0.95999998    2.61999989
   17.61416626  129.36500549    0.94000000    2.61999989
   17.61722183  127.30000305    0.92000002    2.61999989
   17.62055588  130.04299927    0.94000000    2.61999989
   17.62388992  137.44799805    0.94000000    2.61999989
   17.62694550  130.56399536    0.92000002    2.64000010
   17.63305473  130.56399536    0.92000002    2.61999989
   17.63722229  131.39199829    0.88000000    2.61999989
   17.63777733  131.35099792    0.88000000    2.61999989
   17.64083290  129.68099976    0.88000000    2.64000010
   17.64416695  130.45700073    0.89999998    2.61999989
   17.64749908  132.90499878    0.89999998    2.61999989
   17.65055466  130.56199646    0.88000000    2.61999989
   17.65388870  127.01000214    0.88000000    2.61999989
   17.65722275  129.01800537    0.88000000    2.61999989
   17.66027832  125.91699982    0.86000001    2.64000010
   17.66361046  131.29100037    0.86000001    2.61999989
   17.66666603  128.38000488    0.86000001    2.61999989
   17.67000008  130.72999573    0.88000000    2.61999989
   17.67111015  130.27099609    0.88000000    2.61999989
   17.67583275  130.27099609    0.83999997    2.61999989
   17.68000031  133.65800476    0.86000001    2.64000010
   17.68333244  135.10699463    0.86000001    2.61999989
   17.68666649  137.53100586    0.86000001    2.61999989
   17.68972206  126.96900177    0.81999999    2.61999989
   17.69305420  129.70899963    0.81999999    2.61999989
   17.69610977  134.89300537    0.81999999    2.61999989
   17.69944382  139.31599426    0.81999999    2.61999989
   17.70277786  128.48599243    0.83999997    2.61999989
   17.70444489  136.04899597    0.83999997    2.61999989
   17.70611191  130.89900208    0.81999999    2.61999989
   17.70944595  141.04699707    0.81999999    2.61999989
   17.71277809  126.61399841    0.81999999    2.64000010
   17.71888924  126.61399841    0.92000002    2.61999989
   17.72277832  131.63000488    0.94000000    2.61999989
   17.72611237  129.38900757    0.94000000    2.61999989
   17.72944450  131.46899414    0.94000000    2.61999989
   17.73250008  137.99299622    0.94000000    2.61999989
   17.73583412  127.53500366    0.92000002    2.64000010
   17.73777771  131.66799927    0.94000000    2.61999989
   17.73944473  130.68499756    0.94000000    2.61999989
   17.74277878  128.55400085    0.94000000    2.61999989
   17.74611092  131.40899658    0.94000000    2.61999989
   17.74916649  132.20599365    0.95999998    2.61999989
   17.75250053  131.98100281    0.92000002    2.61999989
   17.75583267  131.33900452    0.92000002    2.61999989
   17.76166725  131.33900452    0.89999998    2.59999990
   17.76583290  131.48100281    0.88000000    2.61999989
   17.76888847  134.91499329    0.88000000    2.61999989
   17.77111053  148.88299561    0.86000001    2.64000010
   17.77249908  137.76699829    0.86000001    2.64000010
   17.77583313  131.32400513    0.86000001    2.64000010
   17.77916718  134.23599243    0.86000001    2.64000010
   17.78222275  128.65499878    0.86000001    2.61999989
   17.78555489  144.94900513    0.86000001    2.61999989
   17.78888893  131.95799255    0.86000001    2.61999989
   17.79194450  128.69700623    0.86000001    2.61999989
   17.79527664  136.51199341    0.89999998    2.64000010
   17.79861069  132.95300293    0.89999998    2.61999989
   17.80444336  132.95300293    0.88000000    2.64000010
   17.80861092  131.16600037    0.89999998    2.64000010
   17.81194305  131.77000427    0.89999998    2.61999989
   17.81499863  132.64199829    0.89999998    2.64000010
   17.81833458  127.22100067    0.89999998    2.61999989
   17.82166672  144.33399963    0.89999998    2.61999989
   17.82500076  126.57900238    0.89999998    2.61999989
   17.82805634  135.58500671    0.89999998    2.61999989
   17.83139038  131.03799438    0.89999998    2.61999989
   17.83444595  128.28500366    0.88000000    2.61999989
   17.83777809  131.71800232    0.88000000    2.61999989
   17.83833313  130.15299988    0.88000000    2.61999989
   17.84138870  136.49000549    0.89999998    2.61999989
   17.84722328  136.49000549    0.88000000    2.61999989
   17.85138893  127.62300110    0.89999998    2.64000010
   17.85472298  128.94400024    0.89999998    2.61999989
   17.85777855  130.53500366    0.89999998    2.61999989
   17.86111069  132.21699524    0.88000000    2.61999989
   17.86444473  134.52000427    0.89999998    2.61999989
   17.86750031  132.39100647    0.88000000    2.64000010
   17.87083435  130.22099304    0.88000000    2.64000010
   17.87138939  131.78300476    0.88000000    2.64000010
   17.87444496  132.25700378    0.88000000    2.64000010
   17.87777710  130.32499695    0.86000001    2.61999989
   17.88111115  132.74400330    0.92000002    2.61999989
   17.88416672  133.44900513    0.88000000    2.61999989
   17.89027786  133.44900513    0.89999998    2.61999989
   17.89416695  129.92100525    0.89999998    2.61999989
   17.89749908  130.68499756    0.89999998    2.61999989
   17.90083313  131.11099243    0.89999998    2.61999989
   17.90388870  130.63800049    0.89999998    2.61999989
   17.90472221  126.74299622    0.88000000    2.61999989
   17.90749931  143.31399536    0.88000000    2.61999989
   17.91083336  132.68299866    0.92000002    2.61999989
   17.91416550  131.84399414    0.89999998    2.61999989
   17.91722107  136.95399475    0.92000002    2.61999989
   17.92055511  130.37500000    0.92000002    2.61999989
   17.92361069  131.27099609    0.88000000    2.61999989
   17.92694473  129.83099365    0.88000000    2.61999989
   17.93305397  129.83099365    0.89999998    2.61999989
   17.93722153  131.57099915    0.88000000    2.61999989
   17.93805504  134.45899963    0.88000000    2.61999989
   17.94055557  131.93899536    0.88000000    2.61999989
   17.94388771  132.44900513    0.86000001    2.61999989
   17.94722176  138.82200623    0.88000000    2.61999989
   17.95027924  136.26300049    0.88000000    2.61999989
   17.95361137  140.47200012    0.89999998    2.61999989
   17.95694542  140.34300232    0.89999998    2.61999989
   17.96000099  132.19200134    0.89999998    2.61999989
   17.96333504  139.11599731    0.89999998    2.61999989
   17.96638870  142.99699402    0.89999998    2.61999989
   17.96972275  144.77200317    0.89999998    2.61999989
   17.97138977  142.54299927    0.88000000    2.61999989
   17.97583389  142.54299927    0.88000000    2.61999989
   17.98000145  141.51400757    0.88000000    2.61999989
   17.98333359  141.92399597    0.86000001    2.61999989
   17.98638916  151.11599731    0.86000001    2.61999989
   17.98972321  143.50900269    0.83999997    2.61999989
   17.99305534  146.13900757    0.83999997    2.57999992
   17.99638939  138.04100037    0.83999997    2.57999992
   17.99944496  130.52799988    0.86000001    2.61999989
   18.00277710  141.88699341    0.83999997    2.64000010
   18.00472260  138.87600708    0.83999997    2.61999989
   18.00638962  133.52799988    0.83999997    2.61999989
   18.00944519  146.78399658    0.83999997    2.61999989
   18.01277733  140.99800110    0.83999997    2.61999989
   18.01861000  140.99800110    0.83999997    2.61999989
   18.02277756  133.63999939    0.86000001    2.64000010
   18.02611160  124.89900208    0.86000001    2.64000010
   18.02916718  130.16900635    0.86000001    2.61999989
   18.03249931  128.89700317    0.86000001    2.61999989
   18.03583336  128.80000305    0.88000000    2.64000010
   18.03805542  132.42300415    0.88000000    2.64000010
   18.03916550  125.89199829    0.86000001    2.61999989
   18.04249954  126.66799927    0.86000001    2.61999989
   18.04583359  126.83100128    0.83999997    2.61999989
   18.04888916  129.51100159    0.88000000    2.61999989
   18.05222130  130.36900330    0.88000000    2.61999989
   18.05555534  128.97500610    0.89999998    2.61999989
   18.06166649  128.97500610    0.95999998    2.61999989
   18.06583214  124.82800293    1.03999996    2.61999989
   18.06888962  130.82600403    1.03999996    2.61999989
   18.07139015  125.28700256    1.05999994    2.61999989
   18.07250023  124.43499756    1.05999994    2.61999989
   18.07583427  126.50800323    1.05999994    2.61999989
   18.07916832  122.02700043    1.07000005    2.59999990
   18.08250046  127.21299744    1.03999996    2.59999990
   18.08555603  124.69499969    1.05999994    2.61999989
   18.08889008  129.13900757    1.05999994    2.59999990
   18.09222221  123.68399811    1.05999994    2.59999990
   18.09527779  124.06099701    1.07000005    2.61999989
   18.09861183  122.88999939    1.11000001    2.61999989
   18.10444450  122.88999939    1.21000004    2.61999989
   18.10861206  122.50700378    1.28999996    2.59999990
   18.11194420  131.48899841    1.21000004    2.61999989
   18.11499977  129.99800110    1.19000006    2.61999989
   18.11833382  129.96200562    1.19000006    2.61999989
   18.12138939  131.11500549    1.26999998    2.61999989
   18.12472153  130.61799622    1.28999996    2.59999990
   18.12805557  125.08000183    1.28999996    2.61999989
   18.13111115  126.53700256    1.30999994    2.59999990
   18.13444519  127.52100372    1.30999994    2.61999989
   18.13777733  126.42600250    1.30999994    2.61999989
   18.13944435  123.54299927    1.25000000    2.59999990
   18.14138794  124.49700165    1.25000000    2.59999990
   18.14722252  124.49700165    1.19000006    2.59999990
   18.15138817  126.24299622    1.13000000    2.59999990
   18.15472221  121.55000305    1.13000000    2.59999990
   18.15805435  127.32599640    1.11000001    2.61999989
   18.16110992  121.20200348    1.09000003    2.61999989
   18.16444397  123.59899902    1.05999994    2.61999989
   18.16777802  126.84600067    1.05999994    2.61999989
   18.17083359  131.02699280    1.03999996    2.61999989
   18.17277718  129.84700012    1.01999998    2.61999989
   18.17444420  127.81199646    1.01999998    2.61999989
   18.17749977  130.11300659    0.98000002    2.61999989
   18.18083191  124.78500366    0.98000002    2.61999989
   18.18416595  135.70300293    0.95999998    2.61999989
   18.18999863  135.70300293    0.98000002    2.59999990
   18.19416618  129.49499512    1.01999998    2.59999990
   18.19749832  125.13200378    1.01999998    2.61999989
   18.20083427  132.83500671    1.03999996    2.59999990
   18.20388985  133.33999634    1.01999998    2.61999989
   18.20639038  133.33399963    1.01999998    2.61999989
   18.20777893  128.80400085    1.03999996    2.61999989
   18.21083450  136.63800049    1.03999996    2.61999989
   18.21416664  135.86099243    1.03999996    2.59999990
   18.21722221  134.96099854    1.01999998    2.61999989
   18.22055626  145.78100586    1.01999998    2.61999989
   18.22389030  156.83500671    1.01999998    2.61999989
   18.22694588  153.11700439    1.03999996    2.59999990
   18.23305511  153.11700439    1.03999996    2.59999990
   18.23694420  147.24699402    1.03999996    2.61999989
   18.23972321  151.48100281    1.03999996    2.61999989
   18.24055672  149.30400085    1.03999996    2.61999989
   18.24388885  173.28999329    1.03999996    2.59999990
   18.24722290  152.14500427    1.03999996    2.59999990
   18.25027847  183.02900696    1.03999996    2.59999990
   18.25361061  154.12800598    1.01999998    2.61999989
   18.25666618  175.47399902    1.03999996    2.59999990
   18.26000023  179.91999817    1.01999998    2.59999990
   18.26333427  162.93099976    1.00000000    2.59999990
   18.26638794  177.36799622    1.01999998    2.59999990
   18.26972198  203.20199585    1.01999998    2.59999990
   18.27583313  203.20199585    1.00000000    2.61999989
   18.28000069  220.38900757    1.00000000    2.61999989
   18.28305435  222.30200195    0.98000002    2.59999990
   18.28638840  206.75300598    0.98000002    2.61999989
   18.28972244  257.06500244    0.95999998    2.59999990
   18.29277802  216.06500244    0.95999998    2.59999990
   18.29611015  213.05999756    0.95999998    2.61999989
   18.29944420  242.35299683    0.95999998    2.61999989
   18.30249977  190.97700500    0.95999998    2.59999990
   18.30583191  200.99200439    0.94000000    2.61999989
   18.30666542  196.48100281    0.94000000    2.61999989
   18.30944443  219.94999695    0.95999998    2.59999990
   18.31277657  198.27200317    0.95999998    2.61999989
   18.31861115  198.27200317    0.94000000    2.59999990
   18.32277870  181.28900146    0.94000000    2.59999990
   18.32611275  163.78700256    0.94000000    2.59999990
   18.32944489  170.88999939    0.92000002    2.59999990
   18.33250046  182.45700073    0.92000002    2.59999990
   18.33583450  159.06700134    0.92000002    2.59999990
   18.33916664  192.93200684    0.94000000    2.59999990
   18.34000015  174.97300720    0.94000000    2.59999990
   18.34277916  197.65299988    0.94000000    2.59999990
   18.34611130  190.99800110    0.94000000    2.59999990
   18.34916687  206.18699646    0.94000000    2.61999989
   18.35250092  172.12300110    0.94000000    2.59999990
   18.35555649  191.77600098    0.94000000    2.59999990
   18.36138916  191.77600098    0.92000002    2.59999990
   18.36555672  192.50399780    0.92000002    2.61999989
   18.36888885  199.58700562    0.92000002    2.59999990
   18.37222290  180.23500061    0.89999998    2.61999989
   18.37361145  201.90899658    0.89999998    2.61999989
   18.37583351  191.70799255    0.89999998    2.59999990
   18.37888908  193.38200378    0.89999998    2.59999990
   18.38222313  190.56399536    0.89999998    2.59999990
   18.38527679  198.74699402    0.88000000    2.61999989
   18.38861084  192.60899353    0.88000000    2.59999990
   18.39194489  176.44900513    0.86000001    2.61999989
   18.39500046  172.11900330    0.88000000    2.61999989
   18.39833260  162.30499268    0.88000000    2.59999990
   18.40444374  162.30499268    0.88000000    2.59999990
   18.42277718  165.83200073    0.88000000    2.59999990
   18.42611122  150.01699829    0.88000000    2.59999990
   18.42916679  159.15499878    0.88000000    2.59999990
   18.43249893  164.64999390    0.88000000    2.59999990
   18.43555450  164.89799500    0.92000002    2.59999990
   18.43888855  155.61999512    0.92000002    2.59999990
   18.44222069  159.40800476    0.92000002    2.59999990
   18.44749832  159.40800476    0.92000002    2.59999990
   18.45166779  157.66700745    0.92000002    2.59999990
   18.45472336  137.77299500    0.92000002    2.59999990
   18.45583344  159.58599854    0.92000002    2.59999990
   18.45833397  153.64900208    0.92000002    2.59999990
   18.46166801  151.43200684    0.92000002    2.59999990
   18.46500015  140.87399292    0.94000000    2.59999990
   18.46805573  144.04200745    0.92000002    2.59999990
   18.47138977  153.40199280    0.94000000    2.59999990
   18.47472191  164.64300537    0.94000000    2.59999990
   18.47777748  155.51100159    0.92000002    2.59999990
   18.48111153  158.38099670    0.92000002    2.59999990
   18.48416710  155.55000305    0.92000002    2.59999990
   18.49027824  155.55000305    0.89999998    2.57999992
   18.49444389  163.56300354    0.89999998    2.59999990
   18.49749947  175.15100098    0.88000000    2.59999990
   18.50083351  145.50399780    0.89999998    2.59999990
   18.50416756  137.25300598    0.92000002    2.59999990
   18.50749969  140.81399536    0.92000002    2.59999990
   18.51055527  153.23800659    0.92000002    2.59999990
   18.51388931  150.91799927    0.92000002    2.59999990
   18.51722145  146.16799927    0.94000000    2.59999990
   18.52027702  147.29400635    0.92000002    2.57999992
   18.52249908  130.66299438    0.92000002    2.57999992
   18.52388954  142.22099304    0.92000002    2.61999989
   18.52722168  145.46699524    0.94000000    2.59999990
   18.53305435  145.46699524    0.94000000    2.57999992
   18.53722191  131.55099487    0.94000000    2.59999990
   18.54055595  138.92900085    0.94000000    2.59999990
   18.54361153  122.13500214    0.94000000    2.59999990
   18.54694366  136.62500000    0.94000000    2.59999990
   18.55027771  127.04299927    0.95999998    2.55999994
   18.55333328  119.75900269    0.95999998    2.59999990
   18.55583191  123.52200317    0.95999998    2.59999990
   18.55694389  137.50700378    0.95999998    2.59999990
   18.56027794  122.26100159    0.98000002    2.59999990
   18.56361008  121.93499756    0.95999998    2.59999990
   18.56666756  127.49500275    0.95999998    2.57999992
   18.57000160  118.29799652    0.94000000    2.59999990
   18.57583427  118.29799652    0.94000000    2.59999990
   18.58000183  125.89299774    0.94000000    2.59999990
   18.58333397  126.33100128    0.94000000    2.59999990
   18.58666801  124.94899750    0.94000000    2.57999992
   18.58916664  122.36199951    0.95999998    2.59999990
   18.59000015  119.90499878    0.95999998    2.59999990
   18.59333420  132.08999634    0.95999998    2.57999992
   18.59666824  120.48699951    0.95999998    2.59999990
   18.60000038  128.16900635    0.95999998    2.59999990
   18.60305595  132.32899475    0.95999998    2.59999990
   18.60639000  125.78500366    0.95999998    2.59999990
   18.60944557  124.59799957    0.95999998    2.59999990
   18.61277771  131.75700378    0.98000002    2.59999990
   18.61888885  131.75700378    1.00000000    2.59999990
   18.62305641  123.74299622    0.98000002    2.57999992
   18.62611198  123.68499756    0.98000002    2.57999992
   18.62944412  120.47499847    1.01999998    2.59999990
   18.63249969  122.31300354    1.01999998    2.59999990
   18.63583374  123.49299622    1.03999996    2.59999990
   18.63916588  121.79199982    1.07000005    2.59999990
   18.64222145  123.97100067    1.14999998    2.59999990
   18.64555550  124.17299652    1.16999996    2.59999990
   18.64888954  123.69599915    1.11000001    2.57999992
   18.65194321  122.84100342    1.11000001    2.57999992
   18.65527725  118.68000031    1.13000000    2.57999992
   18.65583229  122.21800232    1.13000000    2.57999992
   18.66166687  122.21800232    1.05999994    2.57999992
   18.66583252  120.12999725    1.05999994    2.59999990
   18.66888809  119.64900208    1.05999994    2.57999992
   18.67222214  117.72499847    1.11000001    2.57999992
   18.67555428  119.85700226    1.16999996    2.57999992
   18.67860985  123.74400330    1.16999996    2.57999992
   18.68194389  124.81600189    1.13000000    2.57999992
   18.68527603  121.81099701    1.11000001    2.59999990
   18.68833160  122.94999695    1.14999998    2.59999990
   18.68916512  126.13500214    1.14999998    2.59999990
   18.69222069  124.11900330    1.16999996    2.59999990
   18.69527626  123.50599670    1.14999998    2.59999990
   18.69861031  121.59500122    1.16999996    2.57999992
   18.70444489  121.59500122    1.13000000    2.59999990
   18.70861244  128.60600281    1.13000000    2.57999992
   18.71194458  125.24900055    1.11000001    2.57999992
   18.71500015  122.89199829    1.11000001    2.57999992
   18.71833420  126.77500153    1.07000005    2.57999992
   18.72138977  124.36299896    1.05999994    2.59999990
   18.72249985  126.02999878    1.05999994    2.57999992
   18.72527885  128.42599487    1.05999994    2.59999990
   18.72833443  126.10199738    1.05999994    2.57999992
   18.73166656  125.41000366    1.05999994    2.59999990
   18.73472214  125.85199738    1.03999996    2.57999992
   18.73805618  124.66799927    1.01999998    2.59999990
   18.74138832  124.62100220    1.00000000    2.59999990
   18.74722290  124.62100220    0.98000002    2.57999992
   18.75138855  124.81199646    1.00000000    2.59999990
   18.75472260  122.89700317    0.95999998    2.57999992
   18.75583267  122.86000061    0.95999998    2.57999992
   18.75833321  124.82399750    0.95999998    2.59999990
   18.76138878  119.91400146    1.00000000    2.59999990
   18.76472282  123.74099731    0.95999998    2.57999992
   18.76777840  126.25299835    0.95999998    2.59999990
   18.77111053  124.11599731    0.94000000    2.57999992
   18.77444458  128.03500366    0.94000000    2.57999992
   18.77750015  127.13600159    0.94000000    2.57999992
   18.78083229  124.02999878    0.94000000    2.57999992
   18.78416634  122.91999817    0.89999998    2.57999992
   18.79027748  122.91999817    0.92000002    2.59999990
   18.79444313  124.41500092    0.92000002    2.59999990
   18.79749870  124.37100220    0.89999998    2.57999992
   18.80083275  120.55899811    1.05999994    2.57999992
   18.80388832  125.39800262    1.03999996    2.57999992
   18.80722237  127.10800171    0.98000002    2.57999992
   18.81055450  125.34100342    0.98000002    2.57999992
   18.81361008  123.68699646    1.03999996    2.55999994
   18.81694603  121.78700256    1.16999996    2.57999992
   18.82027817  126.57700348    1.19000006    2.57999992
   18.82250023  123.15399933    1.03999996    2.57999992
   18.82389069  126.13400269    1.03999996    2.57999992
   18.82694626  121.65499878    1.01999998    2.57999992
   18.83305550  121.65499878    1.03999996    2.57999992
   18.83722305  129.77900696    0.98000002    2.57999992
   18.84027863  126.76999664    0.92000002    2.57999992
   18.84361267  123.86199951    0.89999998    2.57999992
   18.84694481  124.53299713    0.89999998    2.57999992
   18.85000038  124.83699799    0.83999997    2.55999994
   18.85333443  125.35099792    0.83999997    2.57999992
   18.85583305  124.81099701    0.81999999    2.57999992
   18.85694504  119.09300232    0.83999997    2.57999992
   18.86000061  126.49900055    0.81999999    2.57999992
   18.86333466  124.10299683    0.81999999    2.57999992
   18.86638832  128.90499878    0.81999999    2.57999992
   18.86972237  128.79600525    0.80000001    2.55999994
   18.87583351  128.79600525    0.83999997    2.57999992
   18.88000107  121.14900208    0.86000001    2.57999992
   18.88333321  123.70500183    0.89999998    2.57999992
   18.88638878  125.65699768    0.92000002    2.55999994
   18.88916588  126.26599884    0.94000000    2.57999992
   18.89027786  123.95899963    0.94000000    2.55999994
   18.89333344  120.95200348    0.92000002    2.57999992
   18.89666748  121.44000244    0.94000000    2.59999990
   18.89972115  127.59999847    0.94000000    2.57999992
   18.90305519  125.12400055    0.95999998    2.57999992
   18.90638924  121.00700378    0.94000000    2.57999992
   18.90944481  121.59200287    0.94000000    2.57999992
   18.91277695  122.42600250    0.98000002    2.55999994
   18.91860962  122.42600250    0.98000002    2.55999994
   18.92277718  121.43199921    0.95999998    2.57999992
   18.92611122  124.45400238    0.95999998    2.55999994
   18.92944336  126.14399719    1.03999996    2.55999994
   18.93249893  125.83000183    1.05999994    2.55999994
   18.93583298  124.44400024    1.07000005    2.55999994
   18.93916512  124.66200256    1.11000001    2.57999992
   18.94222069  122.73699951    1.05999994    2.55999994
   18.94555473  124.11799622    1.05999994    2.55999994
   18.94888878  126.21900177    1.07000005    2.55999994
   18.95194435  128.91499329    1.09000003    2.55999994
   18.95527840  127.78199768    1.09000003    2.55999994
   18.95583344  125.06400299    1.11000001    2.55999994
   18.96166801  125.06400299    1.09000003    2.55999994
   18.96555710  133.01899719    1.09000003    2.55999994
   18.96888924  124.68699646    1.07000005    2.55999994
   18.97222328  130.95399475    1.07000005    2.57999992
   18.97527885  127.50399780    1.07000005    2.55999994
   18.97861099  131.48500061    1.09000003    2.55999994
   18.98194504  131.58799744    1.11000001    2.55999994
   18.98500061  128.51699829    1.05999994    2.55999994
   18.98833275  129.45799255    1.07000005    2.55999994
   18.98916626  130.96600342    1.05999994    2.57999992
   18.99194527  130.76600647    1.09000003    2.53999996
   18.99500084  122.54499817    1.09000003    2.55999994
   18.99833298  131.41000366    1.05999994    2.55999994
   19.00444412  131.41000366    1.05999994    2.55999994
   19.00861168  127.72799683    1.05999994    2.55999994
   19.01166725  126.85399628    1.09000003    2.55999994
   19.01499939  130.25599670    1.05999994    2.57999992
   19.01833344  126.27300262    1.03999996    2.55999994
   19.02138901  128.29800415    1.03999996    2.55999994
   19.02249908  129.81599426    1.01999998    2.55999994
   19.02527809  131.92300415    1.01999998    2.55999994
   19.02833366  126.76599884    1.01999998    2.55999994
   19.03166580  124.67299652    1.01999998    2.55999994
   19.03499985  131.08299255    1.01999998    2.55999994
   19.03805542  125.52700043    1.01999998    2.55999994
   19.04138756  129.37899780    1.00000000    2.55999994
   19.04722214  129.37899780    1.03999996    2.55999994
   19.05138779  125.06300354    1.00000000    2.55999994
   19.05472183  127.71399689    1.00000000    2.55999994
   19.05583191  131.37699890    1.00000000    2.55999994
   19.05833244  128.08200073    1.00000000    2.55999994
   19.06138802  131.11300659    1.01999998    2.55999994
   19.06472206  130.01100159    1.01999998    2.55999994
   19.06805611  136.27299500    1.03999996    2.55999994
   19.07111168  134.01600647    1.03999996    2.55999994
   19.07444572  130.44799805    1.00000000    2.55999994
   19.07777786  127.40200043    1.03999996    2.55999994
   19.08083344  130.94099426    1.03999996    2.55999994
   19.08416748  130.93400574    1.09000003    2.55999994
   19.09000015  130.93400574    1.05999994    2.55999994
   19.09416771  127.03500366    1.05999994    2.53999996
   19.09749985  127.73000336    1.03999996    2.53999996
   19.10083389  130.83900452    1.03999996    2.55999994
   19.10388947  128.44200134    1.03999996    2.55999994
   19.10722351  133.03199768    1.05999994    2.53999996
   19.11027908  130.16600037    1.09000003    2.55999994
   19.11361122  127.96600342    1.09000003    2.53999996
   19.11694527  133.05900574    1.09000003    2.53999996
   19.12000084  135.31599426    1.09000003    2.55999994
   19.12249947  129.06199646    1.09000003    2.53999996
   19.12388992  125.52899933    1.09000003    2.53999996
   19.12694550  129.32499695    1.07000005    2.55999994
   19.13305473  129.32499695    1.09000003    2.55999994
   19.13722229  130.26100159    1.07000005    2.55999994
   19.14027786  133.14399719    1.07000005    2.55999994
   19.14361191  126.74800110    1.07000005    2.53999996
   19.14666748  129.71200562    1.03999996    2.53999996
   19.14999962  132.90699768    1.01999998    2.55999994
   19.15333366  127.38800049    1.01999998    2.53999996
   19.15583229  125.35700226    1.01999998    2.53999996
   19.15694427  132.75999451    1.00000000    2.53999996
   19.15999985  126.02700043    0.95999998    2.55999994
   19.16333389  127.77400208    0.95999998    2.55999994
   19.16666603  125.73000336    0.95999998    2.55999994
   19.16972160  127.12300110    0.92000002    2.55999994
   19.17583275  127.12300110    0.95999998    2.53999996
   19.18000031  126.98400116    0.98000002    2.53999996
   19.18305397  125.48899841    0.98000002    2.53999996
   19.18638802  124.60900116    0.98000002    2.53999996
   19.18916512  125.68399811    1.01999998    2.53999996
   19.18999863  132.85699463    1.01999998    2.53999996
   19.19305420  124.75800323    1.09000003    2.53999996
   19.19638824  127.06800079    1.13000000    2.53999996
   19.19972038  129.13699341    1.13000000    2.53999996
   19.20277786  127.36900330    1.13000000    2.53999996
   19.20611191  124.70800018    1.11000001    2.53999996
   19.20944595  127.18299866    1.09000003    2.51999998
   19.21250153  123.69899750    1.03999996    2.53999996
   19.21861076  123.69899750    1.07000005    2.53999996
   19.22277832  126.80100250    1.05999994    2.53999996
   19.22611237  127.79199982    1.05999994    2.53999996
   19.22916794  131.17300415    1.03999996    2.53999996
   19.23250008  127.47299957    1.03999996    2.53999996
   19.23583412  125.46900177    1.03999996    2.53999996
   19.23888969  128.18499756    1.05999994    2.55999994
   19.24222183  121.97499847    1.05999994    2.51999998
   19.24527740  130.12699890    1.07000005    2.53999996
   19.24861145  123.41600037    1.07000005    2.53999996
   19.25194359  122.95600128    1.11000001    2.53999996
   19.25499916  125.51100159    1.16999996    2.53999996
   19.25583267  125.45400238    1.16999996    2.53999996
   19.26138878  125.45400238    1.16999996    2.51999998
   19.26555634  129.45199585    1.21000004    2.53999996
   19.26888847  127.66699982    1.23000002    2.53999996
   19.27222252  124.21900177    1.23000002    2.53999996
   19.27527809  125.62100220    1.26999998    2.53999996
   19.27861023  126.44699860    1.26999998    2.53999996
   19.28194427  126.81600189    1.26999998    2.53999996
   19.28499985  123.66999817    1.25000000    2.53999996
   19.28833199  127.41300201    1.25000000    2.53999996
   19.28916550  132.41600037    1.13000000    2.51999998
   19.29194450  132.79699707    1.13000000    2.51999998
   19.29500008  126.53299713    1.13000000    2.53999996
   19.29833221  135.88299561    1.16999996    2.53999996
   19.30444336  135.88299561    1.14999998    2.53999996
   19.30861092  127.16400146    1.11000001    2.51999998
   19.31166649  123.40599823    1.11000001    2.51999998
   19.31499863  122.03099823    1.13000000    2.53999996
   19.31805611  123.47499847    1.14999998    2.51999998
   19.32139015  128.27600098    1.16999996    2.51999998
   19.32250023  125.43599701    1.16999996    2.51999998
   19.32500076  128.27799988    1.14999998    2.53999996
   19.32805634  130.02900696    1.19000006    2.53999996
   19.33139038  124.11100006    1.21000004    2.53999996
   19.33472252  129.43699646    1.48000002    2.51999998
   19.33777809  128.90499878    1.48000002    2.51999998
   19.34111214  127.63099670    1.33000004    2.51999998
   19.34722328  127.63099670    1.44000006    2.53999996
   19.35138893  125.22399902    1.25000000    2.51999998
   19.35444450  129.44999695    1.21000004    2.51999998
   19.35583305  123.44599915    1.16999996    2.51999998
   19.35833359  122.79599762    1.16999996    2.51999998
   19.36138916  124.66999817    1.16999996    2.51999998
   19.36472321  127.10500336    1.13000000    2.53999996
   19.36805534  126.01599884    1.14999998    2.51999998
   19.37111092  126.21900177    1.11000001    2.51999998
   19.37444496  125.75599670    1.11000001    2.51999998
   19.37777710  128.11999512    1.09000003    2.51999998
   19.38083267  124.85299683    1.05999994    2.51999998
   19.38416672  121.91200256    1.05999994    2.51999998
   19.38999939  121.91200256    1.05999994    2.51999998
   19.39416695  130.77900696    1.05999994    2.51999998
   19.39749908  120.16699982    1.05999994    2.51999998
   19.40055466  124.83699799    1.05999994    2.51999998
   19.40388870  123.11699677    1.09000003    2.51999998
   19.40722275  122.25900269    1.09000003    2.51999998
   19.41027832  128.43299866    1.11000001    2.53999996
   19.41361046  123.47599792    1.13000000    2.51999998
   19.41666603  126.19400024    1.13000000    2.51999998
   19.42000008  129.92900085    1.13000000    2.51999998
   19.42249870  126.73699951    1.11000001    2.51999998
   19.44305420  126.73699951    1.03999996    2.51999998
   19.44722176  126.11100006    1.01999998    2.51999998
   19.45055580  122.19499969    1.01999998    2.51999998
   19.45361137  126.35299683    1.01999998    2.50000000
   19.45583344  124.78099823    1.01999998    2.50000000
   19.45750046  126.69000244    1.01999998    2.50000000
   19.46083450  121.98000336    1.01999998    2.50000000
   19.46389008  128.55000305    1.01999998    2.51999998
   19.46722221  124.42600250    1.01999998    2.51999998
   19.47055626  126.42700195    1.03999996    2.51999998
   19.47361183  122.66999817    1.01999998    2.50000000
   19.47694588  128.18299866    1.01999998    2.50000000
   19.48027802  124.83499908    1.01999998    2.50000000
   19.48583412  124.83499908    1.03999996    2.50000000
   19.48999977  131.39500427    1.01999998    2.51999998
   19.49333382  124.48699951    1.01999998    2.51999998
   19.49638939  124.02600098    1.01999998    2.51999998
   19.49972153  123.75599670    1.01999998    2.51999998
   19.50305557  124.69899750    1.01999998    2.51999998
   19.50611115  123.27200317    1.01999998    2.51999998
   19.50944519  123.19599915    1.05999994    2.51999998
   19.51277733  125.72299957    1.05999994    2.51999998
   19.51583290  122.79000092    1.05999994    2.51999998
   19.51916695  122.06199646    1.05999994    2.50000000
   19.52222252  120.11000061    1.05999994    2.50000000
   19.52277756  126.90599823    1.05999994    2.50000000
   19.52861023  126.90599823    1.05999994    2.50000000
   19.53277779  129.02699280    1.07000005    2.51999998
   19.53610992  125.34600067    1.13000000    2.50000000
   19.53944397  119.44100189    1.16999996    2.50000000
   19.54249954  127.41200256    1.16999996    2.51999998
   19.54583359  115.92199707    1.19000006    2.50000000
   19.54888916  124.50800323    1.21000004    2.50000000
   19.55222130  127.32499695    1.21000004    2.50000000
   19.55555534  125.97899628    1.21000004    2.50000000
   19.55611038  124.20700073    1.23000002    2.50000000
   19.55916595  129.62600708    1.23000002    2.50000000
   19.56222153  123.24400330    1.21000004    2.50000000
   19.56555557  123.81800079    1.16999996    2.50000000
   19.57166672  123.81800079    1.14999998    2.50000000
   19.57583427  120.13500214    1.14999998    2.50000000
   19.57888985  118.96700287    1.14999998    2.50000000
   19.58222389  122.99400330    1.14999998    2.50000000
   19.58527756  124.84899902    1.13000000    2.48000002
   19.58861160  126.07199860    1.14999998    2.50000000
   19.58944511  123.29299927    1.14999998    2.50000000
   19.59222221  126.48300171    1.14999998    2.50000000
   19.59555626  126.89900208    1.13000000    2.50000000
   19.59861183  117.81300354    1.13000000    2.48000002
   19.60194397  126.95400238    1.13000000    2.50000000
   19.60499954  127.04699707    1.13000000    2.48000002
   19.60833359  124.57399750    1.13000000    2.50000000
   19.61444473  124.57399750    1.13000000    2.48000002
   19.61861038  123.15699768    1.09000003    2.48000002
   19.62166595  127.74500275    1.09000003    2.48000002
   19.62277794  122.79100037    1.09000003    2.48000002
   19.62527847  124.44100189    1.09000003    2.48000002
   19.62861061  121.34999847    1.09000003    2.50000000
   19.63166618  126.08899689    1.07000005    2.48000002
   19.63500023  122.36699677    1.09000003    2.50000000
   19.63805580  124.12799835    1.14999998    2.50000000
   19.64138794  124.10500336    1.19000006    2.48000002
   19.64472198  131.35400391    1.21000004    2.50000000
   19.64777756  128.01199341    1.21000004    2.50000000
   19.65111160  130.29100037    1.19000006    2.48000002
   19.65722275  130.29100037    1.19000006    2.48000002
   19.66138840  138.30000305    1.19000006    2.48000002
   19.66472244  131.13800049    1.21000004    2.48000002
   19.66777802  143.17900085    1.19000006    2.48000002
   19.67111015  138.74699402    1.19000006    2.48000002
   19.67444420  128.41400146    1.16999996    2.48000002
   19.67749977  133.63600159    1.16999996    2.48000002
   19.68083191  148.20700073    1.16999996    2.48000002
   19.68388748  128.26699829    1.16999996    2.48000002
   19.68722153  122.70200348    1.16999996    2.48000002
   19.68944359  139.61300659    1.16999996    2.48000002
   19.69083214  144.82200623    1.16999996    2.48000002
   19.69416618  130.96699524    1.21000004    2.48000002
   19.70000076  130.96699524    1.19000006    2.48000002
   19.70416832  125.79000092    1.13000000    2.48000002
   19.70750046  131.73899841    1.13000000    2.48000002
   19.71083450  129.10000610    1.13000000    2.48000002
   19.71389008  140.35699463    1.13000000    2.48000002
   19.71722221  123.80100250    1.13000000    2.48000002
   19.72027779  135.71499634    1.11000001    2.48000002
   19.72277832  130.38499451    1.09000003    2.48000002
   19.72389030  133.52999878    1.09000003    2.48000002
   19.72722244  124.25900269    1.07000005    2.48000002
   19.73027802  124.83100128    1.05999994    2.48000002
   19.73361206  136.15699768    1.05999994    2.46000004
   19.73694420  129.98199463    1.03999996    2.48000002
   19.74305534  129.98199463    1.05999994    2.48000002
   19.74722290  125.01100159    1.05999994    2.46000004
   19.75055504  129.65600586    1.05999994    2.48000002
   19.75361061  130.15800476    1.05999994    2.46000004
   19.75611115  132.20799255    1.05999994    2.46000004
   19.75722313  129.09399414    1.05999994    2.46000004
   19.76055527  127.50199890    1.05999994    2.48000002
   19.76361084  125.74600220    1.05999994    2.48000002
   19.76694489  125.00499725    1.07000005    2.46000004
   19.77000046  125.73999786    1.05999994    2.48000002
   19.77333260  133.23699951    1.05999994    2.46000004
   19.77666664  129.52299500    1.05999994    2.46000004
   19.77972221  129.43600464    1.05999994    2.46000004
   19.78583336  129.43600464    1.05999994    2.46000004
   19.78999901  129.10600281    1.07000005    2.46000004
   19.79333305  134.05000305    1.09000003    2.46000004
   19.79666710  124.44999695    1.14999998    2.46000004
   19.79972076  118.72699738    1.14999998    2.46000004
   19.80305481  108.90899658    1.16999996    2.48000002
   19.80611038  105.72799683    1.19000006    2.48000002
   19.80944443  100.35299683    1.21000004    2.46000004
   19.81277657  106.55200195    1.21000004    2.46000004
   19.81583214   92.13849640    1.21000004    2.46000004
   19.81916809  117.55300140    1.19000006    2.46000004
   19.82250023  145.72500610    1.19000006    2.46000004
   19.82277870  131.17999268    1.19000006    2.46000004
   19.82888985  131.17999268    1.19000006    2.46000004
   19.83277893   -1.00000000    1.19000006    2.46000004
   19.83611107   -1.00000000    1.21000004    2.46000004
   19.83944511   -1.00000000    1.23000002    2.46000004
   19.84250069   -1.00000000    1.23000002    2.46000004
   19.84583473   -1.00000000    1.21000004    2.44000006
   19.84916687   -1.00000000    1.19000006    2.46000004
   19.85222244   -1.00000000    1.19000006    2.46000004
   19.85555649   -1.00000000    1.16999996    2.46000004
   19.85916710   -1.00000000    1.14999998    2.46000004
   19.86222267   -1.00000000    1.14999998    2.46000004
   19.86555672   -1.00000000    1.14999998    2.46000004
   19.87583351   -1.00000000    1.11000001    2.46000004
   19.87888908   -1.00000000    1.11000001    2.46000004
   19.88222313   -1.00000000    1.09000003    2.46000004
   19.88527679   -1.00000000    1.09000003    2.46000004
   19.88861084   -1.00000000    1.09000003    2.46000004
   19.89222145   -1.00000000    1.07000005    2.46000004
   19.89555550   -1.00000000    1.09000003    2.44000006
   19.89861107   -1.00000000    1.07000005    2.46000004
   19.90194321   -1.00000000    1.07000005    2.46000004
   19.90499878   -1.00000000    1.07000005    2.44000006
   19.90833282   -1.00000000    1.07000005    2.44000006
   19.91860962   -1.00000000    1.07000005    2.42000008
   19.92194366   -1.00000000    1.07000005    2.44000006
   19.92527771   -1.00000000    1.07000005    2.44000006
   19.92860985   -1.00000000    1.05999994    2.44000006
   19.93166542   -1.00000000    1.05999994    2.44000006
   19.93499947   -1.00000000    1.03999996    2.44000006
   19.93805504   -1.00000000    1.03999996    2.44000006
   19.94138718   -1.00000000    1.03999996    2.44000006
   19.94472122   -1.00000000    1.03999996    2.44000006
   19.94777679   -1.00000000    1.03999996    2.44000006
   19.95111275   -1.00000000    1.03999996    2.44000006
   19.96138954   -1.00000000    1.01999998    2.44000006
   19.96472359   -1.00000000    1.01999998    2.44000006
   19.96777916   -1.00000000    1.00000000    2.44000006
   19.97111130   -1.00000000    1.00000000    2.44000006
   19.97444534   -1.00000000    1.01999998    2.44000006
   19.97750092   -1.00000000    1.00000000    2.42000008
   19.98083305   -1.00000000    1.00000000    2.42000008
   19.98388863   -1.00000000    1.01999998    2.42000008
   19.98722267   -1.00000000    1.03999996    2.42000008
   19.99083328   -1.00000000    1.01999998    2.42000008
   19.99416733   -1.00000000    1.03999996    2.42000008
   20.00416756   -1.00000000    1.01999998    2.42000008
   20.00749969   -1.00000000    1.01999998    2.44000006
   20.01083374   -1.00000000    1.03999996    2.42000008
   20.01388931   -1.00000000    1.05999994    2.44000006
   20.01722145   -1.00000000    1.05999994    2.44000006
   20.02027702   -1.00000000    1.07000005    2.44000006
   20.02388954   -1.00000000    1.16999996    2.42000008
   20.02722168   -1.00000000    1.16999996    2.42000008
   20.03027725   -1.00000000    1.16999996    2.42000008
   20.03361130   -1.00000000    1.19000006    2.42000008
   20.03666687   -1.00000000    1.21000004    2.42000008
   20.04722214   -1.00000000    1.28999996    2.42000008
   20.05027771   -1.00000000    1.25000000    2.40000010
   20.05360985   -1.00000000    1.23000002    2.40000010
   20.05722237   -1.00000000    1.21000004    2.40000010
   20.06055450   -1.00000000    1.21000004    2.42000008
   20.06361008   -1.00000000    1.21000004    2.42000008
   20.06694603   -1.00000000    1.23000002    2.40000010
   20.07027817   -1.00000000    1.23000002    2.40000010
   20.07333374   -1.00000000    1.21000004    2.42000008
   20.07666779   -1.00000000    1.21000004    2.42000008
   20.07972336   -1.00000000    1.19000006    2.40000010
   20.09000015   -1.00000000    1.23000002    2.40000010
   20.09305573   -1.00000000    1.25000000    2.42000008
   20.09638977   -1.00000000    1.25000000    2.42000008
   20.09972191   -1.00000000    1.26999998    2.40000010
   20.10277748   -1.00000000    1.26999998    2.40000010
   20.10611153   -1.00000000    1.25000000    2.40000010
   20.11000061   -1.00000000    1.25000000    2.40000010
   20.11333466   -1.00000000    1.23000002    2.40000010
   20.11638832   -1.00000000    1.25000000    2.40000010
   20.11972237   -1.00000000    1.21000004    2.40000010
   20.12333298   -1.00000000    1.21000004    2.40000010
   20.13277817   -1.00000000    1.19000006    2.40000010
   20.13611031   -1.00000000    1.19000006    2.40000010
   20.13916588   -1.00000000    1.16999996    2.40000010
   20.14249992   -1.00000000    1.14999998    2.40000010
   20.14583397   -1.00000000    1.14999998    2.40000010
   20.14888954   -1.00000000    1.14999998    2.40000010
   20.15222168   -1.00000000    1.16999996    2.40000010
   20.15527725   -1.00000000    1.21000004    2.39000010
   20.15888786   -1.00000000    1.23000002    2.39000010
   20.16222191   -1.00000000    1.30999994    2.39000010
   20.16527748   -1.00000000    1.36000001    2.39000010
   20.17555428   -1.00000000    1.53999996    2.40000010
   20.17888832   -1.00000000    1.60000002    2.39000010
   20.18222237   -1.00000000    1.64999998    2.39000010
   20.18527603   -1.00000000    1.69000006    2.39000010
   20.18861008   -1.00000000    1.66999996    2.39000010
   20.19222069   -1.00000000    1.71000004    2.39000010
   20.19555473   -1.00000000    1.71000004    2.39000010
   20.19861031   -1.00000000    1.75000000    2.39000010
   20.20194435   -1.00000000    1.71000004    2.39000010
   20.20499992   -1.00000000    1.66999996    2.39000010
   20.20833397   -1.00000000    1.61000001    2.39000010
   20.21833420   -1.00000000    1.60000002    2.36999989
   20.22166634   -1.00000000    1.60000002    2.36999989
   20.22527885   -1.00000000    1.61000001    2.39000010
   20.22861099   -1.00000000    1.60000002    2.39000010
   20.23166656   -1.00000000    1.61000001    2.36999989
   20.23500061   -1.00000000    1.63000000    2.36999989
   20.23833275   -1.00000000    1.66999996    2.39000010
   20.24138832   -1.00000000    1.66999996    2.39000010
   20.24472237   -1.00000000    1.64999998    2.39000010
   20.24777794   -1.00000000    1.71000004    2.36999989
   20.25111198   -1.00000000    1.78999996    2.39000010
   20.26138878   -1.00000000    1.71000004    2.36999989
   20.26444435   -1.00000000    1.64999998    2.36999989
   20.26777840   -1.00000000    1.64999998    2.36999989
   20.27111053   -1.00000000    1.71000004    2.36999989
   20.27416611   -1.00000000    1.71000004    2.36999989
   20.27750015   -1.00000000    1.71000004    2.36999989
   20.28083229   -1.00000000    1.73000002    2.36999989
   20.28388786   -1.00000000    1.73000002    2.36999989
   20.28722191   -1.00000000    1.73000002    2.36999989
   20.29083252   -1.00000000    1.71000004    2.36999989
   20.29416656   -1.00000000    1.71000004    2.34999990
   20.30416679   -1.00000000    1.61000001    2.36999989
   20.30749893   -1.00000000    1.63000000    2.34999990
   20.31055450   -1.00000000    1.63000000    2.34999990
   20.31388855   -1.00000000    1.66999996    2.36999989
   20.31722260   -1.00000000    1.69000006    2.34999990
   20.32027817   -1.00000000    1.63000000    2.34999990
   20.32389069   -1.00000000    1.60000002    2.34999990
   20.32722282   -1.00000000    1.60000002    2.34999990
   20.33027840   -1.00000000    1.58000004    2.34999990
   20.33361244   -1.00000000    1.58000004    2.34999990
   20.33694458   -1.00000000    1.53999996    2.36999989
   20.34694481   -1.00000000    1.41999996    2.34999990
   20.35027885   -1.00000000    1.38000000    2.34999990
   20.35333443   -1.00000000    1.34000003    2.34999990
   20.35694504   -1.00000000    1.30999994    2.34999990
   20.36027908   -1.00000000    1.30999994    2.34999990
   20.36333466   -1.00000000    1.30999994    2.32999992
   20.36666679   -1.00000000    1.26999998    2.34999990
   20.37000084   -1.00000000    1.26999998    2.34999990
   20.37305641   -1.00000000    1.26999998    2.34999990
   20.37638855   -1.00000000    1.26999998    2.34999990
   20.37972260   -1.00000000    1.25000000    2.32999992
   20.38999939   -1.00000000    1.21000004    2.34999990
   20.39305496   -1.00000000    1.21000004    2.34999990
   20.39638901   -1.00000000    1.21000004    2.32999992
   20.39944458   -1.00000000    1.25000000    2.32999992
   20.40277672   -1.00000000    1.23000002    2.32999992
   20.40611076   -1.00000000    1.23000002    2.32999992
   20.40916634   -1.00000000    1.21000004    2.32999992
   20.41250038   -1.00000000    1.21000004    2.32999992
   20.41583252   -1.00000000    1.16999996    2.32999992
   20.41888809   -1.00000000    1.16999996    2.32999992
   20.42222214   -1.00000000    1.16999996    2.32999992
   20.43277740   -1.00000000    1.14999998    2.32999992
   20.43583298   -1.00000000    1.13000000    2.32999992
   20.43916512   -1.00000000    1.13000000    2.32999992
   20.45916748   -1.00000000    1.09000003    2.30999994
   20.46222305   -1.00000000    1.09000003    2.30999994
   20.46555710   -1.00000000    1.11000001    2.30999994
   20.47555542   -1.00000000    1.11000001    2.30999994
   20.47888947   -1.00000000    1.11000001    2.30999994
   20.48222351   -1.00000000    1.11000001    2.30999994
   20.48527718   -1.00000000    1.11000001    2.30999994
   20.48861122   -1.00000000    1.11000001    2.30999994
   20.49222183   -1.00000000    1.11000001    2.30999994
   20.49555588   -1.00000000    1.11000001    2.28999996
   20.49861145   -1.00000000    1.11000001    2.30999994
   20.50194359   -1.00000000    1.11000001    2.30999994
   20.50527763   -1.00000000    1.11000001    2.28999996
   20.50833321   -1.00000000    1.11000001    2.28999996
   20.51833344   -1.00000000    1.09000003    2.30999994
   20.52166557   -1.00000000    1.11000001    2.28999996
   20.52527809   -1.00000000    1.13000000    2.28999996
   20.52861023   -1.00000000    1.13000000    2.28999996
   20.53166580   -1.00000000    1.13000000    2.28999996
   20.53499985   -1.00000000    1.13000000    2.28999996
   20.53833199   -1.00000000    1.13000000    2.28999996
   20.54138756   -1.00000000    1.13000000    2.28999996
   20.54472160   -1.00000000    1.14999998    2.28999996
   20.54805565   -1.00000000    1.19000006    2.28999996
   20.55111122   -1.00000000    1.16999996    2.26999998
   20.56138802   -1.00000000    1.16999996    2.26999998
   20.56444359   -1.00000000    1.16999996    2.28999996
   20.56777954   -1.00000000    1.16999996    2.25000000
   20.57111168   -1.00000000    1.16999996    2.26999998
   20.57416725   -1.00000000    1.16999996    2.26999998
   20.57750130   -1.00000000    1.16999996    2.26999998
   20.58055687   -1.00000000    1.16999996    2.26999998
   20.58388901   -1.00000000    1.16999996    2.26999998
   20.58722305   -1.00000000    1.16999996    2.26999998
   20.59055710   -1.00000000    1.16999996    2.26999998
   20.59388924   -1.00000000    1.14999998    2.26999998
   20.60416794   -1.00000000    1.14999998    2.26999998
   20.60750008   -1.00000000    1.14999998    2.25000000
   20.61055565   -1.00000000    1.16999996    2.25000000
   20.61388969   -1.00000000    1.16999996    2.25000000
   20.61694527   -1.00000000    1.19000006    2.25000000
   20.62027740   -1.00000000    1.16999996    2.25000000
   20.62388992   -1.00000000    1.19000006    2.25000000
   20.62722206   -1.00000000    1.19000006    2.25000000
   20.63027763   -1.00000000    1.19000006    2.25000000
