    HOUR (UT)   FLARE FACTOR    SKY TESTER    SUN TESTER
   12.19444466   -1.00000000   -1.00000000   -1.00000000
   12.23611164  167.15899658    4.90999985    1.96000004
   12.23916721  162.97799683    4.90999985    1.98000002
   12.24250031  163.08399963    4.90999985    1.96000004
   12.24583340  168.47799683    4.90999985    1.96000004
   12.24888897  155.99699402    4.90999985    1.96000004
   12.25222206  155.83099365    4.90999985    1.98000002
   12.25638866  155.83099365    4.90999985    1.98000002
   12.26055527  161.76400757    4.90999985    1.98000002
   12.26388931  169.36700439    4.90999985    2.00000000
   12.26722240  175.75900269    4.90999985    2.00000000
   12.26944447  164.35400391    4.90999985    2.00000000
   12.27083302  161.47700500    4.90999985    2.00000000
   12.27416611  171.83000183    4.90999985    2.00000000
   12.27722168  171.88299561    4.90999985    2.00000000
   12.28055573  163.65600586    4.90999985    2.00000000
   12.28388977  173.27699280    4.90999985    2.00000000
   12.28694534  168.46600342    4.90999985    2.01999998
   12.29027843  168.28199768    4.90999985    2.01999998
   12.29388905  163.97799683    4.90999985    2.01999998
   12.29916668  163.97799683    4.90999985    2.01999998
   12.30333328  162.01699829    4.90999985    2.03999996
   12.30638885  154.46899414    4.90999985    2.03999996
   12.30972195  159.41299438    4.90999985    2.03999996
   12.31305599  158.40199280    4.90999985    2.03999996
   12.31611156  156.90299988    4.90999985    2.03999996
   12.31944466  150.94099426    4.90999985    2.03999996
   12.32277775  157.70599365    4.90999985    2.03999996
   12.32583332  160.21000671    4.90999985    2.03999996
   12.32916641  155.17399597    4.90999985    2.03999996
   12.33249950  151.90199280    4.90999985    2.03999996
   12.33555508  156.36199951    4.90999985    2.05999994
   12.33611107  159.75700378    4.90999985    2.05999994
   12.34194374  159.75700378    4.90999985    2.05999994
   12.34611034  156.71400452    4.90999985    2.05999994
   12.34944439  146.82200623    4.90999985    2.05999994
   12.35249996  157.74099731    4.90999985    2.07999992
   12.35583401  161.18499756    4.65999985    2.07999992
   12.35916710  158.97000122    2.23000002    2.05999994
   12.36222267  162.01699829    1.48000002    2.07999992
   12.36555576  157.43600464    1.38000000    2.05999994
   12.36861134  143.36900330    1.36000001    2.05999994
   12.36944485  159.43200684    1.36000001    2.03999996
   12.37250042  154.15400696    1.36000001    2.03999996
   12.37555599  160.90199280    1.36000001    2.03999996
   12.37888908  156.52600098    1.38000000    2.05999994
   12.38472176  156.52600098    1.38000000    2.05999994
   12.38888836  158.33599854    1.38000000    2.05999994
   12.39222240  155.83000183    1.36000001    2.05999994
   12.39555550  150.78599548    1.36000001    2.05999994
   12.39861107  159.10800171    1.34000003    2.05999994
   12.40194416  154.10099792    1.34000003    2.05999994
   12.40277767  152.69299316    1.34000003    2.05999994
   12.40555477  149.08000183    1.34000003    2.07999992
   12.40861034  140.60600281    1.34000003    2.07999992
   12.41750050  146.39799500    1.34000003    2.07999992
   12.42111111  161.66400146    1.34000003    2.07999992
   12.42861176  161.66400146    1.34000003    2.07999992
   12.43277836  148.09300232    1.34000003    2.07999992
   12.44472218  154.75300598    1.34000003    2.07999992
   12.45444393  154.70100403    1.34000003    2.07999992
   12.45749950  160.56900024    1.34000003    2.07999992
   12.46083355  159.19299316    1.34000003    2.07999992
   12.46388912  157.13499451    1.34000003    2.07999992
   12.46722221  151.55999756    1.34000003    2.07999992
   12.47249985  151.55999756    1.34000003    2.07999992
   12.47638798  161.49800110    1.34000003    2.07999992
   12.47972202  155.54699707    1.34000003    2.07999992
   12.48305511  157.20399475    1.34000003    2.07999992
   12.48611164  154.43299866    1.34000003    2.07999992
   12.48944473  157.42900085    1.34000003    2.07999992
   12.49277782  153.71600342    1.34000003    2.07999992
   12.49583340  150.93099976    1.34000003    2.07999992
   12.49944496  157.72799683    1.34000003    2.07999992
   12.50249958  155.98300171    1.34000003    2.07999992
   12.50333309  153.49699402    1.34000003    2.07999992
   12.50638866  155.24800110    1.34000003    2.07999992
   12.50944424  155.38299561    1.34000003    2.07999992
   12.51527786  155.38299561    1.34000003    2.07999992
   12.51944447  148.82400513    1.34000003    2.07999992
   12.52277756  156.39300537    1.34000003    2.07999992
   12.52583313  163.19000244    1.34000003    2.07999992
   12.52916622  157.65899658    1.34000003    2.07999992
   12.53249931  148.23100281    1.34000003    2.07999992
   12.53611183  161.30400085    1.34000003    2.07999992
   12.53722286  155.98100281    1.34000003    2.07999992
   12.54027843  159.85600281    1.34000003    2.07999992
   12.54361153  157.68899536    1.34000003    2.07999992
   12.54722309  153.00799561    1.34000003    2.07999992
   12.55055618  160.37500000    1.34000003    2.07999992
   12.55388927  153.81300354    1.34000003    2.07999992
   12.55861092  153.81300354    1.34000003    2.07999992
   12.57444477  155.17700195    0.00000000    0.00000000
   12.57583332  156.28100586    0.00000000    0.00000000
   12.57944393  159.20199585    0.00000000    0.00000000
   12.58305550  154.99499512    0.00000000    0.00000000
   12.58694458  152.78199768    0.00000000    0.00000000
   12.59083271  151.13600159    0.00000000    0.00000000
   12.59472179  151.83599854    0.00000000    0.00000000
   12.59861088  152.56599426    0.00000000    0.00000000
   12.60333347  152.56599426    0.00000000    0.00000000
   12.60805607  158.10600281    0.00000000    0.00000000
   12.60861111  161.06300354    0.00000000    0.00000000
   12.61222267  150.49699402    0.00000000    0.00000000
   12.61583328  155.88499451    0.00000000    0.00000000
   12.61972237  157.69799805    0.00000000    0.00000000
   12.62361145  158.29100037    0.00000000    0.00000000
   12.62750053  153.46299744    0.00000000    0.00000000
   12.63138866  150.58799744    0.00000000    0.00000000
   12.63527775  156.00199890    0.00000000    0.00000000
   12.63916683  154.44500732    0.00000000    0.00000000
   12.64194393  152.23699951    0.00000000    0.00000000
   12.64666653  152.23699951    0.00000000    0.00000000
   12.65138817  148.05000305    0.00000000    0.00000000
   12.65527725  149.15800476    0.00000000    0.00000000
   12.65888882  154.09700012    0.00000000    0.00000000
   12.66305542  146.66799927    0.00000000    0.00000000
   12.66666698  156.09199524    0.00000000    0.00000000
   12.67055607  153.08799744    0.00000000    0.00000000
   12.67444515  160.89199829    0.00000000    0.00000000
   12.67527771  154.91900635    0.00000000    0.00000000
   12.67888927  155.02600098    0.00000000    0.00000000
   12.68249989  150.27600098    0.00000000    0.00000000
   12.68944454  150.27600098    0.00000000    0.00000000
   12.69416714  149.78900146    0.00000000    0.00000000
   12.69805527  151.42599487    0.00000000    0.00000000
   12.70194435  149.21800232    0.00000000    0.00000000
   12.70583344  151.60699463    0.00000000    0.00000000
   12.70916653  153.35400391    0.00000000    0.00000000
   12.71000004  151.27299500    0.00000000    0.00000000
   12.71361065  153.28599548    0.00000000    0.00000000
   12.71749973  149.23300171    0.00000000    0.00000000
   12.72138882  145.50000000    0.00000000    0.00000000
   12.72527695  152.32299805    0.00000000    0.00000000
   12.73222160  152.32299805    0.00000000    0.00000000
   12.73694515  152.34800720    0.00000000    0.00000000
   12.74083328  148.69000244    0.00000000    0.00000000
   12.74194431  153.55900574    0.00000000    0.00000000
   12.74527836  148.01400757    0.00000000    0.00000000
   12.74888897  147.22999573    0.00000000    0.00000000
   12.75277805  148.28199768    0.00000000    0.00000000
   12.75666714  149.42300415    0.00000000    0.00000000
   12.76055527  155.36099243    0.00000000    0.00000000
   12.76444435  154.36599731    0.00000000    0.00000000
   12.76833344  156.75700378    0.00000000    0.00000000
   12.77499962  156.75700378    0.00000000    0.00000000
   12.77972221  151.85000610    0.00000000    0.00000000
   12.78361130  154.25599670    0.00000000    0.00000000
   12.78750038  151.11000061    0.00000000    0.00000000
   12.79138947  157.02999878    0.00000000    0.00000000
   12.79527855  150.11500549    0.00000000    0.00000000
   12.79916668  149.79499817    0.00000000    0.00000000
   12.80305576  151.13699341    0.00000000    0.00000000
   12.80694485  149.25199890    0.00000000    0.00000000
   12.81055546  149.97399902    0.00000000    0.00000000
   12.81111145  150.18800354    0.00000000    0.00000000
   12.81805515  150.18800354    0.00000000    0.00000000
   12.82277775  151.70100403    0.00000000    0.00000000
   12.82666683  149.83200073    0.00000000    0.00000000
   12.83055592  151.53999329    0.00000000    0.00000000
   12.83444405  152.13000488    0.00000000    0.00000000
   12.83805561  153.63600159    0.00000000    0.00000000
   12.84194374  153.36900330    0.00000000    0.00000000
   12.84444427  150.10600281    0.00000000    0.00000000
   12.84611034  155.95899963    0.00000000    0.00000000
   12.85000038  160.56199646    0.00000000    0.00000000
   12.85388947  161.62300110    0.00000000    0.00000000
   12.86083412  161.62300110    0.00000000    0.00000000
   12.86555576  155.83999634    0.00000000    0.00000000
   12.86944485  160.95100403    0.00000000    0.00000000
   12.87333393  161.98599243    0.00000000    0.00000000
   12.87722206  161.58399963    0.00000000    0.00000000
   12.87777805  155.78900146    0.00000000    0.00000000
   12.88138866  157.01300049    0.00000000    0.00000000
   12.88527775  160.19200134    0.00000000    0.00000000
   12.88916683  165.76300049    0.00000000    0.00000000
   12.89305496  166.93600464    0.00000000    0.00000000
   12.89694405  163.79600525    0.00000000    0.00000000
   12.90361118  163.79600525    0.00000000    0.00000000
   12.90833282  160.61999512    0.00000000    0.00000000
   12.91111088  168.52699280    0.00000000    0.00000000
   12.91249943  154.72799683    0.00000000    0.00000000
   12.91638851  163.96699524    0.00000000    0.00000000
   12.92027855  157.22700500    0.00000000    0.00000000
   12.92416668  158.49000549    0.00000000    0.00000000
   12.92805576  159.20500183    0.00000000    0.00000000
   12.93194485  155.06199646    0.00000000    0.00000000
   12.93583298  148.91900635    0.00000000    0.00000000
   12.93944454  155.70399475    0.00000000    0.00000000
   12.94638920  155.70399475    0.00000000    0.00000000
   12.95111084  153.21000671    0.00000000    0.00000000
   12.95499992  153.25199890    0.00000000    0.00000000
   12.95888901  151.94799805    0.00000000    0.00000000
   12.96277714  154.85099792    0.00000000    0.00000000
   12.96666622  156.67300415    0.00000000    0.00000000
   12.97055531  154.02099609    0.00000000    0.00000000
   12.97444439  154.51800537    0.00000000    0.00000000
   12.97833252  152.10699463    0.00000000    0.00000000
   12.97861099  150.67100525    0.00000000    0.00000000
   12.98222160  151.80700684    0.00000000    0.00000000
   12.98944473  151.80700684    0.00000000    0.00000000
   12.99416733  159.93200684    0.00000000    0.00000000
   12.99805546  146.16099548    0.00000000    0.00000000
   13.00194454  153.18200684    0.00000000    0.00000000
   13.00583363  146.85000610    0.00000000    0.00000000
   13.00944424  152.85099792    0.00000000    0.00000000
   13.01194477  154.14900208    0.00000000    0.00000000
   13.01361084  151.32699585    0.00000000    0.00000000
   13.01749992  157.04100037    0.00000000    0.00000000
   13.02138901  145.16200256    0.00000000    0.00000000
   13.02527714  156.55099487    0.00000000    0.00000000
   13.03222179  156.55099487    0.00000000    0.00000000
   13.03694534  149.98800659    0.00000000    0.00000000
   13.04083347  144.90800476    0.00000000    0.00000000
   13.04472256  151.30000305    0.00000000    0.00000000
   13.04527855  146.44400024    0.00000000    0.00000000
   13.04861164  149.89700317    0.00000000    0.00000000
   13.05249977  149.34199524    0.00000000    0.00000000
   13.05638885  152.21099854    0.00000000    0.00000000
   13.06027794  150.69799805    0.00000000    0.00000000
   13.06416702  149.15800476    0.00000000    0.00000000
   13.06805515  152.49800110    0.00000000    0.00000000
   13.07499981  152.49800110    0.00000000    0.00000000
   13.07972240  147.33200073    0.00000000    0.00000000
   13.08361053  145.47799683    0.00000000    0.00000000
   13.08694458  150.78900146    1.34000003    2.07999992
   13.09527779  147.86900330    1.34000003    2.07999992
   13.10027790  149.73699951    1.34000003    2.07999992
   13.10361195  149.65899658    1.34000003    2.07999992
   13.10916710  147.19700623    1.34000003    2.07999992
   13.11194515  147.74200439    1.34000003    2.07999992
   13.11277771  143.95700073    1.34000003    2.07999992
   13.11833382  143.95700073    1.34000003    2.07999992
   13.12250042  148.36399841    1.34000003    2.07999992
   13.12583351  147.80099487    1.34000003    2.07999992
   13.12888908  144.95399475    1.34000003    2.07999992
   13.13222218  155.22700500    1.33000004    2.09999990
   13.13555527  147.25500488    1.03999996    2.36999989
   13.13861084  152.12500000    1.03999996    2.39000010
   13.14194393  145.57299805    1.03999996    2.36999989
   13.14527798  146.57699585    1.05999994    2.36999989
   13.14555550  145.68099976    1.05999994    2.36999989
   13.14888859  145.91200256    1.05999994    2.36999989
   13.15222168  146.74400330    1.09000003    2.36999989
   13.15527725  149.69799805    1.09000003    2.36999989
   13.16138840  149.69799805    1.03999996    2.39000010
   13.16527748  141.76899719    1.07000005    2.36999989
   13.16861153  153.32600403    1.03999996    2.39000010
   13.17194462  147.53599548    4.90999985    2.39000010
   13.17527771  146.54200745    4.90999985    2.40000010
   13.17833328  149.84100342    2.34999990    2.39000010
   13.17888927  146.11900330    1.78999996    2.39000010
   13.18194485  149.09500122    1.09000003    2.39000010
   13.18527794  149.10499573    1.03999996    2.39000010
   13.18833351  149.22700500    1.01999998    2.36999989
   13.19166660  141.26499939    1.03999996    2.36999989
   13.19472218  147.31799316    1.03999996    2.39000010
   13.19805527  147.13000488    1.03999996    2.39000010
   13.20416641  147.13000488    1.03999996    2.39000010
   13.20833302  148.52999878    1.03999996    2.39000010
   13.21138859  149.22900391    1.01999998    2.39000010
   13.21222210  146.72999573    1.01999998    2.39000010
   13.21500015  146.13299561    1.01999998    2.39000010
   13.21833324  144.66299438    1.01999998    2.39000010
   13.22138882  149.24200439    1.01999998    2.39000010
   13.22472191  145.90199280    1.01999998    2.39000010
   13.22805500  145.95300293    1.01999998    2.39000010
   13.23111057  149.62699890    1.03999996    2.39000010
   13.23444462  150.88000488    1.05999994    2.39000010
   13.23777771  154.22000122    1.03999996    2.40000010
   13.24083328  143.36199951    1.03999996    2.40000010
   13.24694443  143.36199951    1.05999994    2.39000010
   13.26527786  147.90499878    1.30999994    2.39000010
   13.26861095  150.52699280    1.28999996    2.39000010
   13.27194405  153.42900085    1.28999996    2.39000010
   13.27499962  148.84100342    1.16999996    2.39000010
   13.27833271  143.26300049    1.21000004    2.39000010
   13.27916622  149.13000488    1.21000004    2.39000010
   13.28194427  145.96400452    1.21000004    2.39000010
   13.28500080  144.28900146    1.23000002    2.39000010
   13.29000092  144.28900146    1.21000004    2.40000010
   13.29416752  142.10200500    1.19000006    2.40000010
   13.29750061  145.25599670    1.16999996    2.39000010
   13.30055618  143.57800293    1.16999996    2.40000010
   13.30388927  145.70799255    1.16999996    2.40000010
   13.30694485  140.39900208    1.16999996    2.40000010
   13.31027794  148.49200439    1.21000004    2.40000010
   13.31277752  144.34399414    1.23000002    2.40000010
   13.31416702  149.49200439    1.23000002    2.40000010
   13.31750011  145.81599426    1.21000004    2.39000010
   13.32055569  147.93800354    1.11000001    2.40000010
   13.32388878  149.02999878    1.14999998    2.40000010
   13.32694435  150.25900269    1.16999996    2.40000010
   13.33277798  150.25900269    1.14999998    2.40000010
   13.33694458  148.73899841    1.11000001    2.40000010
   13.34027767  145.71899414    1.09000003    2.40000010
   13.34361076  149.99000549    1.09000003    2.40000010
   13.34583282  150.75300598    1.07000005    2.40000010
   13.34749985  145.91400146    1.07000005    2.40000010
   13.35083389  147.33200073    1.07000005    2.40000010
   13.35388947  142.87600708    1.07000005    2.42000008
   13.35722256  144.55400085    1.07000005    2.40000010
   13.36027813  146.94900513    1.07000005    2.40000010
   13.36361122  149.06799316    1.07000005    2.40000010
   13.36694431  141.97300720    1.07000005    2.42000008
   13.36999989  144.23199463    1.07000005    2.42000008
   13.37583351  144.23199463    1.07000005    2.40000010
   13.38000011  144.07000732    1.09000003    2.42000008
   13.38305569  146.98699951    1.09000003    2.42000008
   13.38638878  147.61700439    1.09000003    2.42000008
   13.38944435  144.73599243    1.09000003    2.42000008
   13.39277744  142.88499451    1.09000003    2.42000008
   13.39611053  143.21400452    1.11000001    2.42000008
   13.39916611  145.88800049    1.11000001    2.42000008
   13.40249920  148.61399841    1.11000001    2.42000008
   13.40583324  145.11300659    1.11000001    2.42000008
   13.40888882  143.88499451    1.11000001    2.42000008
   13.41222191  146.00399780    1.11000001    2.42000008
   13.41277695  140.73899841    1.11000001    2.42000008
   13.41861153  140.73899841    1.09000003    2.42000008
   13.42277813  141.05599976    1.07000005    2.42000008
   13.42583370  138.00599670    1.07000005    2.42000008
   13.42916679  140.54200745    1.07000005    2.42000008
   13.43249989  145.12699890    1.05999994    2.42000008
   13.43555546  135.99499512    1.05999994    2.42000008
   13.43888855  140.77499390    1.05999994    2.42000008
   13.44222260  134.65100098    1.03999996    2.44000006
   13.44527817  144.48899841    1.03999996    2.42000008
   13.44611073  135.60600281    1.03999996    2.42000008
   13.44888878  138.18200684    1.03999996    2.42000008
   13.45222187  145.66499329    1.03999996    2.42000008
   13.45527744  141.78799438    1.03999996    2.42000008
   13.46138859  141.78799438    1.03999996    2.44000006
   13.46555519  144.32499695    1.03999996    2.42000008
   13.46888828  141.21899414    1.01999998    2.44000006
   13.47194386  143.44999695    1.01999998    2.44000006
   13.47527695  147.63999939    1.01999998    2.44000006
   13.47861099  142.51899719    1.03999996    2.42000008
   13.47944355  141.62600708    1.03999996    2.42000008
   13.48194408  144.35499573    1.05999994    2.44000006
   13.48527813  139.78500366    1.07000005    2.44000006
   13.48833370  138.45100403    1.05999994    2.44000006
   13.49166679  144.07400513    1.05999994    2.44000006
   13.49499989  143.83299255    1.05999994    2.44000006
   13.49805546  147.51499939    1.05999994    2.44000006
   13.50416660  147.51499939    1.00000000    2.42000008
   13.50833321  147.85600281    0.98000002    2.44000006
   13.51166630  144.89100647    1.00000000    2.46000004
   13.51277733  149.69099426    1.00000000    2.46000004
   13.51527786  140.02999878    1.00000000    2.42000008
   13.51861095  142.85299683    0.98000002    2.44000006
   13.52194405  137.95300293    1.00000000    2.44000006
   13.52499962  142.70599365    0.98000002    2.46000004
   13.52833271  148.84300232    0.98000002    2.46000004
   13.53138828  152.28999329    0.98000002    2.46000004
   13.53472233  140.79400635    0.98000002    2.44000006
   13.53805637  141.94799805    0.98000002    2.46000004
   13.54111195  141.42199707    0.98000002    2.46000004
   13.54722309  141.42199707    0.98000002    2.44000006
   13.55111122  138.72900391    0.98000002    2.46000004
   13.55444431  145.23300171    0.98000002    2.46000004
   13.55777836  138.03799438    0.98000002    2.46000004
   13.56083393  141.84199524    0.94000000    2.46000004
   13.56416702  140.72000122    0.92000002    2.46000004
   13.56750011  136.52099609    0.92000002    2.46000004
   13.57055569  140.27799988    0.92000002    2.46000004
   13.57388878  143.44700623    0.89999998    2.46000004
   13.57694435  143.31599426    0.94000000    2.46000004
   13.57944393  134.60299683    0.94000000    2.46000004
   13.58055592  136.04800415    0.92000002    2.46000004
   13.58388901  140.56100464    0.94000000    2.46000004
   13.59000015  140.56100464    0.94000000    2.46000004
   13.59416676  142.44200134    0.92000002    2.46000004
   13.59722233  146.98300171    0.89999998    2.46000004
   13.60055637  144.06700134    0.88000000    2.46000004
   13.60388947  139.32400513    0.88000000    2.46000004
   13.60694504  140.24499512    0.86000001    2.46000004
   13.61027813  136.37500000    0.86000001    2.46000004
   13.61277771  142.45700073    0.81999999    2.46000004
   13.61388969  139.71099854    0.81999999    2.46000004
   13.61722279  135.27400208    0.81999999    2.46000004
   13.62055588  136.10600281    0.81999999    2.46000004
   13.62361145  139.95899963    0.81999999    2.46000004
   13.62694454  137.36799622    0.81999999    2.48000002
   13.63277817  137.36799622    0.80000001    2.46000004
   13.63694477  141.17500305    0.81999999    2.48000002
   13.64027786  146.09800720    0.81999999    2.48000002
   13.64333344  136.79600525    0.80000001    2.48000002
   13.64611053  140.60200500    0.79000002    2.48000002
   13.64694405  141.54200745    0.79000002    2.48000002
   13.65027714  139.15699768    0.76999998    2.48000002
   13.65361118  140.07699585    0.76999998    2.48000002
   13.65666676  136.34199524    0.76999998    2.46000004
   13.65999985  135.77799988    0.76999998    2.48000002
   13.66333294  139.94900513    0.76999998    2.46000004
   13.66638851  145.94400024    0.76999998    2.46000004
   13.66972256  133.75199890    0.76999998    2.48000002
   13.67583370  133.75199890    0.76999998    2.48000002
   13.67972279  141.28999329    0.73000002    2.48000002
   13.68305588  141.50000000    0.73000002    2.48000002
   13.68638897  138.21000671    0.75000000    2.48000002
   13.68944454  136.51199341    0.75000000    2.48000002
   13.69277763  138.18800354    0.75000000    2.46000004
   13.69583321  139.33700562    0.75000000    2.48000002
   13.69916630  135.62800598    0.75000000    2.48000002
   13.70249939  136.22799683    0.73000002    2.48000002
   13.70555496  135.25300598    0.73000002    2.48000002
   13.70888901  139.42700195    0.73000002    2.48000002
   13.71222210  140.43699646    0.73000002    2.48000002
   13.71277714  141.03999329    0.73000002    2.48000002
   13.71861076  141.03999329    0.70999998    2.48000002
   13.72277737  139.90100098    0.70999998    2.48000002
   13.72583294  135.88999939    0.70999998    2.46000004
   13.72916603  136.58500671    0.70999998    2.48000002
   13.73222160  135.83399963    0.70999998    2.48000002
   13.73555565  135.97099304    0.70999998    2.48000002
   13.73888874  136.73300171    0.69000000    2.50000000
   13.74194431  135.50300598    0.69000000    2.48000002
   13.74527836  135.13099670    0.69000000    2.48000002
   13.74611092  142.10400391    0.69000000    2.48000002
   13.74888897  138.30200195    0.69000000    2.48000002
   13.75222206  141.83900452    0.69000000    2.48000002
   13.75555515  145.04100037    0.69000000    2.48000002
   13.76138878  145.04100037    0.70999998    2.48000002
   13.76555538  134.93099976    0.70999998    2.48000002
   13.76888847  135.70500183    0.70999998    2.48000002
   13.77194405  133.67599487    0.70999998    2.48000002
   13.77527714  139.27600098    0.70999998    2.50000000
   13.77861118  137.14999390    0.75000000    2.50000000
   13.77944374  136.70799255    0.75000000    2.50000000
   13.78222179  136.53500366    0.75000000    2.48000002
   13.78555584  139.61000061    0.75000000    2.48000002
   13.78861141  140.08900452    0.73000002    2.48000002
   13.79194450  133.67500305    0.73000002    2.50000000
   13.79527855  139.28799438    0.73000002    2.50000000
   13.79833412  137.63400269    0.70999998    2.50000000
   13.80416679  137.63400269    0.75000000    2.50000000
   13.80833340  138.03199768    0.73000002    2.50000000
   13.81166649  139.77900696    0.69000000    2.50000000
   13.81277752  135.74899292    0.69000000    2.50000000
   13.81500053  137.99099731    0.69000000    2.50000000
   13.81833363  139.73599243    0.69000000    2.50000000
   13.82166672  144.12600708    0.69000000    2.50000000
   13.82472229  144.47900391    0.69000000    2.50000000
   13.82805538  140.54600525    0.69000000    2.50000000
   13.83138847  146.71600342    0.70999998    2.51999998
   13.83472157  148.08999634    0.70999998    2.50000000
   13.83777714  138.80599976    0.70999998    2.50000000
   13.84111118  143.40100098    0.70999998    2.50000000
   13.84694386  143.40100098    0.73000002    2.50000000
   13.85111141  141.48300171    0.70999998    2.51999998
   13.85444450  143.58200073    0.70999998    2.51999998
   13.85777855  142.46899414    0.70999998    2.50000000
   13.86083412  137.08399963    0.70999998    2.50000000
   13.86416721  136.48599243    0.70999998    2.50000000
   13.86750031  129.63400269    0.70999998    2.50000000
   13.87055588  134.34800720    0.70999998    2.50000000
   13.87388897  138.50599670    0.70999998    2.50000000
   13.87694454  134.70199585    0.70999998    2.51999998
   13.87944412  131.60800171    0.70999998    2.51999998
   13.88083363  134.54200745    0.70999998    2.51999998
   13.88388920  131.29600525    0.70999998    2.51999998
   13.89000034  131.29600525    0.70999998    2.50000000
   13.89416695  140.74299622    0.70999998    2.50000000
   13.89722252  135.87699890    0.73000002    2.51999998
   13.90055561  136.25399780    0.73000002    2.50000000
   13.90361118  138.05900574    0.75000000    2.50000000
   13.90694427  137.58299255    0.73000002    2.51999998
   13.91027737  139.80000305    0.73000002    2.51999998
   13.91277695  144.27000427    0.73000002    2.51999998
   13.91361046  139.28999329    0.73000002    2.51999998
   13.91694450  144.96299744    0.73000002    2.51999998
   13.92027855  145.17799377    0.73000002    2.50000000
   13.92333412  144.20599365    0.73000002    2.50000000
   13.92666721  142.78399658    0.73000002    2.51999998
   13.93277836  142.78399658    0.70999998    2.53999996
   13.93694496  137.30200195    0.70999998    2.51999998
   13.94000053  139.26300049    0.69000000    2.51999998
   13.94333363  143.45199585    0.69000000    2.51999998
   13.94611073  137.15400696    0.73000002    2.51999998
   13.94694424  136.78599548    0.73000002    2.51999998
   13.95027733  135.94999695    0.73000002    2.51999998
   13.95361137  137.68600464    0.73000002    2.51999998
   13.95666695  134.60000610    0.73000002    2.51999998
   13.96000004  132.50100708    0.75000000    2.51999998
   13.96333313  133.77299500    0.75000000    2.51999998
   13.96638870  136.69099426    0.75000000    2.51999998
   13.96972179  133.11900330    0.75000000    2.51999998
   13.97555542  133.11900330    0.75000000    2.51999998
   13.97972202  136.83299255    0.73000002    2.51999998
   13.98305511  138.64399719    0.73000002    2.51999998
   13.98611164  141.62699890    0.73000002    2.51999998
   13.98944473  139.48899841    0.73000002    2.51999998
   13.99277782  135.62899780    0.70999998    2.51999998
   13.99583340  140.87899780    0.69000000    2.51999998
   13.99916649  135.13499451    0.67000002    2.51999998
   14.00249958  131.15800476    0.67000002    2.51999998
   14.00555515  138.60899353    0.69000000    2.53999996
   14.00888920  140.08799744    0.70999998    2.53999996
   14.01194477  135.44299316    0.70999998    2.53999996
   14.01277733  134.86900330    0.70999998    2.51999998
   14.01833344  134.86900330    0.70999998    2.53999996
   14.02250004  138.33299255    0.73000002    2.51999998
   14.02583313  143.60299683    0.73000002    2.51999998
   14.02916622  139.20500183    0.73000002    2.51999998
   14.03222179  140.39599609    0.73000002    2.51999998
   14.03555584  135.83599854    0.73000002    2.51999998
   14.03861141  142.76300049    0.73000002    2.51999998
   14.04194450  133.82899475    0.73000002    2.51999998
   14.04527855  131.76800537    0.75000000    2.51999998
   14.04611111  137.33200073    0.75000000    2.51999998
   14.04888916  136.82099915    0.76999998    2.53999996
   14.05194473  136.58200073    0.75000000    2.51999998
   14.05527782  139.60000610    0.75000000    2.51999998
   14.06138897  139.60000610    0.70999998    2.53999996
   14.06555557  142.36199951    0.70999998    2.51999998
   14.06861115  137.49499512    0.69000000    2.51999998
   14.07194424  142.61099243    0.69000000    2.53999996
   14.07499981  133.63200378    0.70999998    2.53999996
   14.07833290  141.69400024    0.73000002    2.51999998
   14.07944393  145.87399292    0.73000002    2.53999996
   14.08194447  135.16299438    0.73000002    2.53999996
   14.08500004  133.46899414    0.70999998    2.53999996
   14.08833313  139.37500000    0.70999998    2.53999996
   14.09138870  138.67500305    0.69000000    2.55999994
   14.09472179  141.65199280    0.67000002    2.53999996
   14.09805489  142.31900024    0.67000002    2.53999996
   14.10416698  142.31900024    0.67000002    2.53999996
   14.10833359  136.14700317    0.67000002    2.53999996
   14.11138916  137.54899597    0.64999998    2.53999996
   14.11277771  138.98899841    0.64999998    2.53999996
   14.11527824  135.91200256    0.63000000    2.53999996
   14.11833382  136.84700012    0.63000000    2.53999996
   14.12166691  140.08500671    0.63000000    2.53999996
   14.12472248  134.72799683    0.63000000    2.53999996
   14.12805557  136.74899292    0.63000000    2.53999996
   14.13138866  137.38000488    0.63000000    2.53999996
   14.13444424  137.50100708    0.61000001    2.53999996
   14.13777733  142.93800354    0.58999997    2.53999996
   14.14111137  139.50900269    0.58999997    2.53999996
   14.14694405  139.50900269    0.61000001    2.55999994
   14.15111065  133.47900391    0.61000001    2.53999996
   14.15444374  138.37399292    0.61000001    2.53999996
   14.15749931  135.08999634    0.61000001    2.53999996
   14.16083336  137.50599670    0.56999999    2.53999996
   14.16416645  138.18400574    0.55000001    2.53999996
   14.16722298  140.29100037    0.56999999    2.53999996
   14.17055607  141.91499329    0.56999999    2.53999996
   14.17361164  139.36500549    0.58999997    2.53999996
   14.17694473  144.30599976    0.61000001    2.55999994
   14.17944431  141.75100708    0.61000001    2.55999994
   14.18055630  141.91799927    0.61000001    2.55999994
   14.18361092  146.18899536    0.63000000    2.55999994
   14.18972206  146.18899536    0.61000001    2.53999996
   14.19388866  137.35200500    0.63000000    2.53999996
   14.19722271  142.67999268    0.67000002    2.53999996
   14.20055580  146.12399292    0.69000000    2.53999996
   14.20361137  140.90100098    0.69000000    2.53999996
   14.20694447  134.99099731    0.69000000    2.53999996
   14.21027756  145.12199402    0.67000002    2.53999996
   14.21277714  140.88699341    0.69000000    2.55999994
   14.21388912  138.93299866    0.69000000    2.55999994
   14.21694374  137.19500732    0.69000000    2.53999996
   14.22027779  135.84599304    0.73000002    2.53999996
   14.22333336  137.86300659    0.73000002    2.53999996
   14.22666645  135.82499695    0.73000002    2.53999996
   14.23277760  135.82499695    0.69000000    2.53999996
   14.23694515  136.54699707    0.70999998    2.55999994
   14.24000072  139.35499573    0.70999998    2.55999994
   14.24333382  136.94400024    0.75000000    2.55999994
   14.24611092  139.51600647    0.80000001    2.53999996
   14.24694443  142.83799744    0.80000001    2.53999996
   14.25000000  139.55200195    0.76999998    2.53999996
   14.25333309  141.75700378    0.76999998    2.53999996
   14.25638866  136.51600647    0.75000000    2.55999994
   14.25972176  141.47399902    0.76999998    2.55999994
   14.26333332  135.57899475    0.75000000    2.55999994
   14.28583336  135.57899475    0.86000001    2.55999994
   14.29000092  138.37399292    0.86000001    2.53999996
   14.29305553  141.10299683    0.86000001    2.53999996
   14.29638958  136.00900269    0.86000001    2.55999994
   14.29972267  132.25100708    0.86000001    2.55999994
   14.30277824  131.84800720    0.89999998    2.55999994
   14.30611134  128.62500000    0.89999998    2.55999994
   14.30916691  133.90600586    0.92000002    2.53999996
   14.31250000  136.15299988    0.94000000    2.55999994
   14.31583309  139.45300293    0.94000000    2.53999996
   14.31666660  138.86500549    0.94000000    2.53999996
   14.31916618  132.40400696    0.95999998    2.55999994
   14.32250023  137.43600464    0.98000002    2.55999994
   14.32861137  137.43600464    0.98000002    2.55999994
   14.33249950  138.45399475    1.01999998    2.55999994
   14.33583260  135.82299805    1.11000001    2.53999996
   14.33916664  140.61599731    1.09000003    2.53999996
   14.34222221  141.36300659    1.13000000    2.55999994
   14.34555531  132.32099915    1.14999998    2.55999994
   14.34888840  142.13099670    1.11000001    2.55999994
   14.35000038  136.61799622    1.11000001    2.55999994
   14.35222244  136.84599304    1.11000001    2.55999994
   14.35555553  137.20899963    1.16999996    2.53999996
   14.35888958  139.83799744    1.14999998    2.55999994
   14.36194515  132.36300659    1.13000000    2.55999994
   14.36527824  140.92799377    1.13000000    2.55999994
   14.37138939  140.92799377    1.14999998    2.55999994
   14.37555599  133.20700073    1.07000005    2.55999994
   14.37861156  137.89399719    1.05999994    2.55999994
   14.38194466  131.23100281    1.05999994    2.55999994
   14.38333321  132.60899353    1.05999994    2.55999994
   14.38555527  137.55000305    1.01999998    2.57999992
   14.38888836  137.08099365    1.00000000    2.55999994
   14.39194393  139.38999939    1.00000000    2.55999994
   14.39527798  135.23699951    1.03999996    2.55999994
   14.39833355  139.77699280    1.03999996    2.55999994
   14.40166664  135.78100586    1.09000003    2.55999994
   14.40499973  136.77200317    1.14999998    2.53999996
   14.40805531  134.80499268    1.21000004    2.55999994
   14.41416645  134.80499268    1.30999994    2.55999994
   14.41833401  135.55299377    1.26999998    2.55999994
   14.42166710  135.41700745    1.26999998    2.55999994
   14.42472267  135.08099365    1.26999998    2.55999994
   14.42805576  137.79899597    1.25000000    2.55999994
   14.43111134  132.46800232    1.16999996    2.55999994
   14.43444443  137.02999878    1.16999996    2.55999994
   14.43777752  138.75399780    1.11000001    2.55999994
   14.44083309  133.40600586    0.98000002    2.55999994
   14.44416714  136.31199646    0.98000002    2.55999994
   14.44750023  135.14199829    1.01999998    2.55999994
   14.44999981  140.36799622    1.05999994    2.55999994
   14.45083332  140.62800598    1.05999994    2.55999994
   14.45694447  140.62800598    1.16999996    2.55999994
   14.46111107  133.34599304    1.23000002    2.57999992
   14.46444416  136.90600586    1.25000000    2.55999994
   14.46777725  134.37800598    1.23000002    2.57999992
   14.47083282  137.89100647    1.23000002    2.57999992
   14.47416592  136.86000061    1.25000000    2.55999994
   14.47722149  139.20399475    1.33000004    2.55999994
   14.48055553  134.43299866    1.38000000    2.55999994
   14.48333359  131.92999268    1.48000002    2.55999994
   14.48416710  133.23699951    1.48000002    2.55999994
   14.48750019  132.47900391    1.48000002    2.55999994
   14.49055576  135.50700378    1.50000000    2.55999994
   14.49388885  138.55400085    1.53999996    2.55999994
   14.50000000  138.55400085    1.71000004    2.55999994
   14.50416660  133.55400085    1.80999994    2.55999994
   14.50722218  134.67399597    1.76999998    2.55999994
   14.51055527  136.97300720    1.61000001    2.53999996
   14.51361084  134.88200378    1.61000001    2.53999996
   14.51666641  134.70700073    1.71000004    2.55999994
   14.51722240  134.28700256    1.71000004    2.55999994
   14.52055550  135.66799927    1.55999994    2.55999994
   14.52361107  137.11500549    1.63000000    2.57999992
   14.52694416  133.03799438    1.39999998    2.57999992
   14.53027725  136.43800354    1.38000000    2.55999994
   14.53333378  134.68099976    1.33000004    2.55999994
   14.53666687  137.42999268    1.28999996    2.55999994
   14.54277802  137.42999268    1.41999996    2.55999994
   14.54694462  132.55200195    1.41999996    2.55999994
   14.55000019  132.12899780    1.38000000    2.57999992
   14.55055618  134.54800415    1.38000000    2.57999992
   14.55388927  127.50700378    1.48000002    2.55999994
   14.55694485  130.49000549    1.66999996    2.55999994
   14.56027794  133.44000244    1.63000000    2.55999994
   14.56361103  135.97200012    1.53999996    2.55999994
   14.56666660  130.43800354    1.53999996    2.55999994
   14.56999969  133.67500305    1.53999996    2.57999992
   14.57305527  130.72900391    1.69000006    2.55999994
   14.57638836  131.49400330    1.78999996    2.55999994
   14.57972240  129.83999634    1.85000002    2.55999994
   14.58555508  129.83999634    1.94000006    2.55999994
   14.58972168  135.00599670    1.98000002    2.55999994
   14.59305477  126.13099670    1.86000001    2.55999994
   14.59611034  135.85800171    1.86000001    2.55999994
   14.59944439  134.94599915    1.80999994    2.55999994
   14.60249996  130.51800537    1.66999996    2.55999994
   14.60583401  142.51699829    1.60000002    2.55999994
   14.60916710  138.42399597    1.50000000    2.57999992
   14.61222267  130.11799622    1.41999996    2.55999994
   14.61555576  135.20199585    1.44000006    2.57999992
   14.61694431  126.61599731    1.44000006    2.57999992
   14.61916637  130.78999329    1.44000006    2.57999992
   14.62250042  129.15600586    1.41999996    2.55999994
   14.62833309  129.15600586    1.38000000    2.55999994
   14.63249969  129.24299622    1.34000003    2.57999992
   14.63583279  134.72399902    1.39999998    2.57999992
   14.63888836  125.58100128    1.41999996    2.55999994
   14.64222240  131.29699707    1.41999996    2.55999994
   14.64555550  134.16299438    1.44000006    2.55999994
   14.64861107  120.85900116    1.39999998    2.57999992
   14.64999962  125.79599762    1.39999998    2.57999992
   14.65222168  128.97999573    1.50000000    2.57999992
   14.65555477  127.57599640    1.50000000    2.57999992
   14.65861034  125.76599884    1.55999994    2.57999992
   14.66194439  128.52999878    1.55999994    2.57999992
   14.66527748  137.43200684    1.55999994    2.59999990
   14.67138958  137.43200684    1.63000000    2.57999992
   14.67555618  128.30900574    1.58000004    2.55999994
   14.67888927  127.55699921    1.58000004    2.55999994
   14.68194485  126.51799774    1.58000004    2.57999992
   14.68361092  130.30599976    1.51999998    2.57999992
   14.68555546  135.88800049    1.51999998    2.57999992
   14.68888855  127.59500122    1.64999998    2.55999994
   14.69194412  126.09899902    1.55999994    2.57999992
   14.69527817  133.41400146    1.60000002    2.57999992
   14.69833374  125.85399628    1.58000004    2.59999990
   14.70166683  128.83700562    1.58000004    2.59999990
   14.70499992  132.43800354    1.38000000    2.57999992
   14.70805550  129.97799683    1.39999998    2.57999992
   14.71416664  129.97799683    1.36000001    2.59999990
   14.71833324  134.25399780    1.25000000    2.59999990
   14.72138882  137.19400024    1.19000006    2.57999992
   14.72472191  136.19099426    1.16999996    2.59999990
   14.72805500  132.88299561    1.16999996    2.59999990
   14.73111057  136.05499268    1.26999998    2.59999990
   14.73444462  131.91400146    1.33000004    2.57999992
   14.73777771  127.01999664    1.33000004    2.57999992
   14.74083328  133.67100525    1.26999998    2.59999990
   14.74416733  134.39900208    1.26999998    2.57999992
   14.74722290  128.44900513    1.34000003    2.57999992
   14.75027752  129.19500732    1.33000004    2.59999990
   14.75083351  128.39300537    1.33000004    2.59999990
   14.75694466  128.39300537    1.38000000    2.57999992
   14.76111126  133.42700195    1.16999996    2.59999990
   14.76444435  129.89900208    1.16999996    2.59999990
   14.76749992  129.98899841    1.25000000    2.57999992
   14.77083302  134.04499817    1.48000002    2.59999990
   14.77388859  131.08099365    1.36000001    2.59999990
   14.77722168  135.25999451    1.44000006    2.57999992
   14.78055573  132.34399414    1.36000001    2.59999990
   14.78361130  133.39900208    1.36000001    2.59999990
   14.78416729  132.84199524    1.38000000    2.59999990
   14.78750038  133.44999695    1.38000000    2.59999990
   14.79055595  132.13499451    1.33000004    2.59999990
   14.79388905  128.84300232    1.23000002    2.59999990
   14.79972267  128.84300232    1.34000003    2.57999992
   14.80388927  137.94099426    1.46000004    2.59999990
   14.80722237  135.67999268    1.48000002    2.59999990
   14.81027794  132.29800415    1.53999996    2.59999990
   14.81361103  133.52099609    1.53999996    2.59999990
   14.81694412  139.25599670    1.61000001    2.59999990
   14.81722260  131.52499390    1.61000001    2.59999990
   14.82055569  136.95599365    1.51999998    2.59999990
   14.82388878  140.77600098    1.51999998    2.59999990
   14.82694435  131.94500732    1.38000000    2.59999990
   14.83027744  135.63999939    1.46000004    2.59999990
   14.83361053  133.28900146    1.50000000    2.59999990
   14.83666611  131.23599243    1.34000003    2.59999990
   14.84277725  131.23599243    1.14999998    2.59999990
   14.84666634  134.19999695    1.16999996    2.59999990
   14.85000038  133.22300720    1.16999996    2.59999990
   14.85083389  131.41900635    1.16999996    2.59999990
   14.85361195  130.37699890    1.16999996    2.59999990
   14.85694504  128.00999451    1.05999994    2.59999990
   14.86000061  133.40199280    0.95999998    2.59999990
   14.86333370  132.52400208    0.86000001    2.59999990
   14.86666679  131.46299744    0.95999998    2.59999990
   14.86972237  128.99499512    1.00000000    2.59999990
   14.87305546  130.44400024    1.00000000    2.59999990
   14.87638855  133.73100281    1.03999996    2.59999990
   14.87944412  131.24200439    1.01999998    2.59999990
   14.88555527  131.24200439    1.01999998    2.59999990
   14.88972187  129.98399353    1.03999996    2.59999990
   14.89277744  129.40899658    1.05999994    2.59999990
   14.89611053  129.37100220    1.05999994    2.59999990
   14.89944458  127.08999634    0.88000000    2.59999990
   14.90249920  132.98500061    4.90999985    2.59999990
   14.90583324  136.27999878    4.90999985    2.50000000
   14.90916634  130.37199402    4.90999985    2.40000010
   14.91222191  131.60200500    4.90999985    2.55999994
   14.91555500  129.65499878    4.90999985    2.61999989
   14.91722298  127.91699982    3.32999992    2.59999990
   14.91916656  130.96099854    2.03999996    2.61999989
   14.92250061  128.90499878    4.90999985    2.61999989
   14.92833328  128.90499878    4.90999985    2.61999989
   14.93249989  128.03900146    4.90999985    2.61999989
   14.93583298  125.15399933    4.90999985    2.59999990
   14.93888855  122.60099792    4.90999985    2.61999989
   14.94222260  128.84500122    4.90999985    2.59999990
   14.94527817  127.67199707    4.90999985    2.59999990
   14.94861126  131.38499451    4.90999985    2.61999989
   14.95055580  126.21499634    4.90999985    2.61999989
   14.95222187  126.69899750    4.90999985    2.59999990
   14.95555496  127.13899994    4.90999985    2.59999990
   14.95861053  129.13200378    4.90999985    2.61999989
   14.96194458  129.25599670    4.90999985    2.59999990
   14.96527767  124.31199646    4.90999985    2.61999989
   14.97111034  124.31199646    4.90999985    2.61999989
   14.97527695  124.76100159    4.90999985    2.61999989
   14.97861099  132.23699951    4.90999985    2.61999989
   14.98166656  124.58300018    4.90999985    2.61999989
   14.98416710  126.34200287    4.90999985    2.61999989
   14.98527813  127.43900299    4.90999985    2.61999989
   14.98861122  229.04899597    4.90999985    2.55999994
   14.99194431  123.21499634    4.90999985    2.44000006
   14.99499989  128.04400635    4.90999985    2.61999989
   14.99833393  124.77200317    4.90999985    2.59999990
   15.00166702  127.47499847    4.90999985    2.61999989
   15.00472260  125.91799927    4.90999985    2.61999989
   15.00805569  129.22999573    4.90999985    2.61999989
   15.01416683  129.22999573    4.90999985    2.61999989
   15.01805496  129.38099670    4.90999985    2.59999990
   15.02138901  127.32499695    4.90999985    2.59999990
   15.02472210  130.71600342    4.90999985    2.59999990
   15.02777767  131.34800720    4.90999985    2.59999990
   15.03111076  128.87800598    4.90999985    2.59999990
   15.03444481  127.42199707    4.90999985    2.61999989
   15.03750038  129.47799683    4.90999985    2.59999990
   15.04083347  121.83200073    4.90999985    2.59999990
   15.04388905  127.47299957    4.90999985    2.59999990
   15.04722309  124.64199829    4.90999985    2.61999989
   15.05055618  126.62500000    4.90999985    2.59999990
   15.05083370  126.57700348    4.90999985    2.59999990
   15.05694485  126.57700348    4.90999985    2.61999989
   15.06111145  125.93900299    4.90999985    2.59999990
   15.06416702  126.51899719    4.90999985    2.61999989
   15.06750011  125.21199799    4.90999985    2.61999989
   15.07055569  128.49099731    4.90999985    2.61999989
   15.07388878  124.31800079    4.90999985    2.61999989
   15.07722187  128.12800598    4.90999985    2.61999989
   15.08027744  125.06099701    4.90999985    2.59999990
   15.08361053  127.28399658    4.90999985    2.59999990
   15.08416653  126.19400024    4.90999985    2.59999990
   15.08722210  128.66700745    4.90999985    2.59999990
   15.09055519  129.47700500    4.90999985    2.59999990
   15.09361076  126.46299744    4.90999985    2.61999989
   15.09972191  126.46299744    4.90999985    2.59999990
   15.10388947  128.98300171    4.90999985    2.59999990
   15.10694504  128.36000061    4.90999985    2.61999989
   15.11027813  131.05999756    4.90999985    2.61999989
   15.11361122  128.34300232    4.90999985    2.61999989
   15.11666679  127.12100220    4.90999985    2.59999990
   15.11750031  131.39100647    4.90999985    2.59999990
   15.12027836  130.98500061    4.90999985    2.59999990
   15.12361145  127.31199646    4.90999985    2.59999990
   15.12666702  130.07099915    4.90999985    2.59999990
   15.13000011  125.73899841    4.90999985    2.61999989
   15.13333321  127.27200317    4.90999985    2.59999990
   15.13638878  127.25700378    4.90999985    2.59999990
   15.14249992  127.25700378    4.90999985    2.59999990
   15.14666653  125.31199646    4.90999985    2.59999990
   15.14999962  128.73800659    4.90999985    2.59999990
   15.15083313  127.47699738    4.90999985    2.59999990
   15.15361118  126.52600098    4.90999985    2.59999990
   15.15694427  124.55300140    4.90999985    2.59999990
   15.15999985  134.04400635    4.90999985    2.61999989
   15.16333294  129.50999451    4.90999985    2.61999989
   15.16666698  130.98800659    4.90999985    2.61999989
   15.16972256  128.57200623    4.90999985    2.61999989
   15.17305565  129.06199646    4.90999985    2.59999990
   15.17638874  128.04800415    4.90999985    2.59999990
   15.17944431  129.46600342    4.90999985    2.59999990
   15.18555546  129.46600342    4.90999985    2.57999992
   15.18944454  130.95399475    4.90999985    2.57999992
   15.19277763  132.29800415    4.90999985    2.57999992
   15.19611073  126.69300079    4.90999985    2.59999990
   15.19916630  128.13800049    4.90999985    2.59999990
   15.20249939  128.15899658    4.90999985    2.59999990
   15.20583344  129.22999573    4.90999985    2.59999990
   15.20888901  128.42999268    4.90999985    2.61999989
   15.21222210  127.25199890    4.90999985    2.59999990
   15.21527767  126.67400360    4.90999985    2.59999990
   15.21749973  119.62300110    4.90999985    2.59999990
   15.21888828  126.89499664    4.90999985    2.59999990
   15.22222137  131.70799255    4.90999985    2.59999990
   15.22833252  131.70799255    4.90999985    2.59999990
   15.23249912  126.16799927    4.90999985    2.59999990
   15.23555565  127.71700287    4.90999985    2.59999990
   15.23888874  128.25599670    4.90999985    2.59999990
   15.24222279  127.97200012    4.90999985    2.59999990
   15.24527836  128.84500122    4.90999985    2.59999990
   15.24861145  128.69099426    4.90999985    2.59999990
   15.25111103  131.92799377    4.90999985    2.57999992
   15.25222206  126.49400330    4.90999985    2.57999992
   15.25555515  130.64100647    4.90999985    2.57999992
   15.25861073  130.34199524    4.90999985    2.59999990
   15.26194477  127.23100281    4.90999985    2.57999992
   15.26527786  126.51499939    4.90999985    2.57999992
   15.27111053  126.51499939    4.90999985    2.57999992
   15.27527714  129.56700134    4.90999985    2.59999990
   15.27861118  125.63400269    4.90999985    2.57999992
   15.28166676  127.55999756    4.90999985    2.57999992
   15.29916668  130.51499939    4.90999985    2.55999994
   15.30166721  128.36799622    4.90999985    2.55999994
   15.30472279  129.22200012    4.90999985    2.55999994
   15.30805588  129.06799316    4.90999985    2.55999994
   15.31416702  129.06799316    4.90999985    2.55999994
   15.31833363  134.27699280    4.90999985    2.55999994
   15.32138920  129.97300720    4.90999985    2.55999994
   15.32472229  125.76899719    4.90999985    2.53999996
   15.32777786  132.04499817    4.90999985    2.55999994
   15.33111095  127.27100372    4.90999985    2.53999996
   15.33249950  132.69099426    4.90999985    2.53999996
   15.33500004  130.53799438    4.90999985    2.53999996
   15.33805561  135.18499756    4.90999985    2.53999996
   15.34138870  131.57200623    4.90999985    2.53999996
   15.34472179  133.61099243    4.90999985    2.55999994
   15.34777737  132.10299683    4.90999985    2.53999996
   15.35111141  136.60200500    4.90999985    2.55999994
   15.35694504  136.60200500    4.90999985    2.53999996
   15.36111164  134.69500732    4.90999985    2.53999996
   15.36416721  135.35699463    4.90999985    2.53999996
   15.36583328  128.76300049    4.90999985    2.53999996
   15.36805534  132.91900635    4.90999985    2.51999998
   15.37111092  131.74299622    4.90999985    2.51999998
   15.37444496  132.07099915    4.90999985    2.53999996
   15.37777805  129.56900024    4.90999985    2.53999996
   15.38083363  129.08599854    4.90999985    2.53999996
   15.38416672  129.14500427    4.90999985    2.53999996
   15.38749981  129.47500610    4.90999985    2.53999996
   15.39055538  128.27299500    4.90999985    2.51999998
   15.39388847  125.56999969    4.90999985    2.51999998
   15.39972210  125.56999969    4.90999985    2.50000000
   15.40388870  134.57400513    4.90999985    2.50000000
   15.40722179  125.25199890    4.90999985    2.51999998
   15.41027737  130.60400391    4.90999985    2.51999998
   15.41361046  125.60600281    4.90999985    2.53999996
   15.41694450  132.06799316    4.90999985    2.51999998
   15.42000008  136.59199524    4.90999985    2.53999996
   15.42333412  136.38900757    4.90999985    2.51999998
   15.42666721  131.17799377    4.90999985    2.50000000
   15.42972279  133.35699463    4.90999985    2.50000000
   15.43249989  134.12500000    4.90999985    2.50000000
   15.43333340  133.92599487    4.90999985    2.50000000
   15.43638897  132.90699768    4.90999985    2.48000002
   15.44250011  132.90699768    4.90999985    2.48000002
   15.44666672  131.87500000    4.90999985    2.48000002
   15.44999981  139.66200256    4.90999985    2.46000004
   15.45333290  137.12100220    4.90999985    2.46000004
   15.45638847  137.35699463    4.90999985    2.46000004
   15.45972157  140.68699646    4.90999985    2.44000006
   15.46305561  144.24899292    4.90999985    2.42000008
   15.46583271  140.24800110    4.90999985    2.44000006
   15.46666622  146.03100586    4.90999985    2.42000008
   15.46972179  142.56100464    4.90999985    2.39000010
   15.47305489  142.58999634    4.90999985    2.40000010
   15.47638798  151.07400513    4.90999985    2.40000010
   15.47944355  142.70799255    4.90999985    2.40000010
   15.48555565  142.70799255    4.90999985    2.44000006
   15.48972225  141.82800293    4.90999985    2.44000006
   15.49277782  138.81799316    4.90999985    2.44000006
   15.49611092  137.40100098    4.90999985    2.44000006
   15.49916649  136.27900696    4.90999985    2.42000008
   15.49972248  139.97000122    4.90999985    2.42000008
   15.50305557  138.99400330    4.90999985    2.44000006
   15.50611115  140.53100586    4.90999985    2.42000008
   15.50944424  147.50399780    4.90999985    2.40000010
   15.51277733  143.27299500    4.90999985    2.40000010
   15.51583290  146.22999573    4.90999985    2.36999989
   15.51916599  154.64900208    4.90999985    2.36999989
   15.52222157  142.88400269    4.90999985    2.34999990
   15.52833271  142.88400269    4.90999985    2.34999990
   15.53249931  148.47799683    4.90999985    2.36999989
   15.53305531  146.81399536    4.90999985    2.36999989
   15.53611183  144.86099243    4.90999985    2.39000010
   15.53944492  138.30299377    4.90999985    2.36999989
   15.54277802  147.40499878    4.90999985    2.39000010
   15.54583359  138.99200439    4.90999985    2.39000010
   15.54916668  139.48199463    4.90999985    2.40000010
   15.55222225  138.65699768    4.90999985    2.42000008
   15.55555534  143.84500122    4.90999985    2.42000008
   15.55888939  143.93400574    4.90999985    2.40000010
   15.56194496  144.79699707    4.90999985    2.40000010
   15.56527805  144.19099426    4.90999985    2.40000010
   15.56638908  144.49099731    4.90999985    2.40000010
   15.57111073  144.49099731    4.90999985    2.42000008
   15.57527733  142.27499390    4.90999985    2.42000008
   15.57861137  148.95599365    4.90999985    2.40000010
   15.58166695  151.46499634    4.90999985    2.40000010
   15.58500004  144.95399475    4.90999985    2.39000010
   15.58833313  151.05499268    4.90999985    2.34999990
   15.59138870  140.61000061    4.90999985    2.40000010
   15.59472179  140.02900696    4.90999985    2.36999989
   15.59777737  147.42500305    4.90999985    2.39000010
   15.59972191  140.35099792    4.90999985    2.39000010
   15.60138893  148.62100220    4.90999985    2.39000010
   15.60472298  149.75000000    4.90999985    2.36999989
   15.60805607  153.50799561    4.90999985    2.36999989
   15.61388969  153.50799561    4.90999985    2.36999989
   15.61805534  142.46200562    4.90999985    2.34999990
   15.62138939  142.42199707    4.90999985    2.39000010
   15.62472248  144.28900146    4.90999985    2.36999989
   15.62777805  143.96499634    4.90999985    2.34999990
   15.63111115  144.84399414    4.90999985    2.36999989
   15.63305569  147.84700012    4.90999985    2.36999989
   15.63444424  144.51699829    4.90999985    2.36999989
   15.63777733  150.30599976    4.90999985    2.36999989
   15.64111137  146.43600464    4.90999985    2.39000010
   15.64416695  143.86500549    4.90999985    2.36999989
   15.64750004  144.72900391    4.90999985    2.39000010
   15.65083313  142.77200317    4.90999985    2.39000010
   15.65694427  142.77200317    4.90999985    2.36999989
   15.66111088  144.26199341    4.90999985    2.36999989
   15.66416645  140.97999573    4.90999985    2.39000010
   15.66638851  140.46800232    4.90999985    2.36999989
   15.66777802  140.38999939    4.90999985    2.39000010
   15.67111111  144.76699829    4.90999985    2.39000010
   15.67444515  141.61799622    4.90999985    2.39000010
   15.67750072  147.99499512    4.90999985    2.40000010
   15.68083382  149.82000732    4.90999985    2.40000010
   15.68416691  149.75799561    4.90999985    2.39000010
   15.68722248  149.49299622    4.90999985    2.36999989
   15.69055557  143.29899597    4.90999985    2.36999989
   15.69361115  151.17300415    4.90999985    2.39000010
   15.69972229  151.17300415    4.90999985    2.36999989
   15.70388889  139.22500610    4.90999985    2.36999989
   15.70694447  137.53500366    4.90999985    2.36999989
   15.71027756  130.97200012    4.90999985    2.39000010
   15.71361065  137.78999329    4.90999985    2.40000010
   15.71666622  135.66900635    4.90999985    2.40000010
   15.71999931  135.32600403    4.90999985    2.44000006
   15.72333336  139.08500671    4.90999985    2.40000010
   15.72638798  135.10600281    4.90999985    2.40000010
   15.72972202  140.17399597    4.90999985    2.40000010
   15.73277760  139.46600342    4.90999985    2.39000010
   15.73333359  141.44299316    4.90999985    2.39000010
   15.73666668  143.74499512    4.90999985    2.39000010
   15.74250031  143.74499512    4.90999985    2.36999989
   15.74666691  148.89999390    4.90999985    2.36999989
   15.75000000  147.37600708    4.90999985    2.34999990
   15.75305557  156.68800354    4.90999985    2.32999992
   15.75638866  156.39799500    4.90999985    2.32999992
   15.75972176  154.90600586    4.90999985    2.32999992
   15.76277733  154.16099548    4.90999985    2.32999992
   15.76611137  150.71499634    4.90999985    2.34999990
   15.76666641  152.22000122    4.90999985    2.34999990
   15.76972198  147.46400452    4.90999985    2.36999989
   15.77305508  150.47300720    4.90999985    2.36999989
   15.77611065  147.67999268    4.90999985    2.36999989
   15.77944374  148.91400146    4.90999985    2.36999989
   15.78527832  148.91400146    4.90999985    2.36999989
   15.78944492  144.96299744    4.90999985    2.36999989
   15.79277802  150.47599792    4.90999985    2.34999990
   15.79611111  146.31300354    4.90999985    2.39000010
   15.79916668  148.94500732    4.90999985    2.36999989
   15.80000019  149.77000427    4.90999985    2.36999989
   15.80277824  141.97799683    4.90999985    2.36999989
   15.80611134  151.58700562    4.90999985    2.34999990
   15.80916691  141.27600098    4.90999985    2.32999992
   15.81250000  146.92799377    4.90999985    2.36999989
   15.81555557  145.68699646    4.90999985    2.36999989
   15.81888866  153.00599670    4.90999985    2.34999990
   15.82222176  153.67300415    4.90999985    2.34999990
   15.82833290  153.67300415    4.90999985    2.36999989
   15.83249950  148.61000061    4.90999985    2.36999989
   15.83333302  152.08799744    4.90999985    2.36999989
   15.83611107  148.67799377    4.90999985    2.36999989
   15.83944416  147.44999695    4.90999985    2.36999989
   15.84249973  147.25000000    4.90999985    2.36999989
   15.84583282  146.90299988    4.90999985    2.36999989
   15.84888840  149.15600586    4.90999985    2.36999989
   15.85222244  150.99899292    4.90999985    2.34999990
   15.85555553  152.17500305    4.90999985    2.34999990
   15.85861111  153.80299377    4.90999985    2.34999990
   15.86194515  152.01100159    4.90999985    2.34999990
   15.86527824  155.97799683    4.90999985    2.36999989
   15.86666679  156.43400574    4.90999985    2.34999990
   15.87111092  156.43400574    4.90999985    2.34999990
   15.87527752  152.46200562    4.90999985    2.36999989
   15.87833309  149.18400574    4.90999985    2.34999990
   15.88166714  148.97300720    4.90999985    2.36999989
   15.88500023  147.24800110    4.90999985    2.36999989
   15.88805580  143.06500244    4.90999985    2.36999989
   15.89138889  148.23399353    4.90999985    2.36999989
   15.89472198  142.95700073    4.90999985    2.36999989
   15.89777756  147.53999329    4.90999985    2.36999989
   15.89999962  141.77400208    4.90999985    2.36999989
   15.90138817  138.97900391    4.90999985    2.36999989
   15.90444374  145.96600342    4.90999985    2.39000010
   15.90777779  147.70799255    4.90999985    2.34999990
   15.91388893  147.70799255    4.90999985    2.34999990
   15.91805553  143.83900452    4.90999985    2.34999990
   15.92138958  152.74499512    4.90999985    2.32999992
   15.92444515  146.55000305    4.90999985    2.32999992
   15.92777824  145.18499756    4.90999985    2.34999990
   15.93111134  155.92900085    4.90999985    2.34999990
   15.93333340  151.71099854    4.90999985    2.34999990
   15.93472195  156.14599609    4.90999985    2.34999990
   15.93805599  150.54299927    4.90999985    2.34999990
   15.94111156  158.78399658    4.90999985    2.34999990
   15.94444466  150.65899658    4.90999985    2.32999992
   15.94750023  155.63999939    4.90999985    2.32999992
   15.95083332  151.02299500    4.90999985    2.32999992
   15.95666695  151.02299500    4.90999985    2.32999992
   15.96083355  149.82400513    4.90999985    2.34999990
   15.96416664  151.75900269    4.90999985    2.32999992
   15.96666622  151.47599792    4.90999985    2.34999990
   15.96777725  141.75799561    4.90999985    2.32999992
   15.97111034  145.91000366    4.90999985    2.34999990
   15.97416592  144.88900757    4.90999985    2.34999990
   15.97749996  155.28100586    4.90999985    2.34999990
   15.98055553  148.83399963    4.90999985    2.34999990
   15.98388958  153.57000732    4.90999985    2.34999990
   15.98722267  159.50000000    4.90999985    2.34999990
   15.99027824  147.45199585    4.90999985    2.34999990
   15.99361134  159.38900757    4.90999985    2.34999990
   15.99972248  159.38900757    4.90999985    2.32999992
   16.00361061  147.46899414    4.90999985    2.36999989
   16.00694466  147.45500183    4.90999985    2.36999989
   16.01027870  151.71499634    4.90999985    2.39000010
   16.01333427  152.53100586    4.90999985    2.39000010
   16.01666641  144.16600037    4.90999985    2.39000010
   16.02000046  147.50799561    4.90999985    2.39000010
   16.02305603  147.96400452    4.90999985    2.39000010
   16.02638817  148.25700378    4.90999985    2.39000010
   16.02944374  145.29699707    4.90999985    2.39000010
   16.03277779  154.36700439    4.90999985    2.39000010
   16.03472137  154.75700378    4.90999985    2.39000010
   16.03638840  146.73100281    4.90999985    2.39000010
   16.04249954  146.73100281    4.90999985    2.40000010
   16.04666710  144.22099304    4.90999985    2.39000010
   16.04972076  142.80599976    4.90999985    2.39000010
   16.05305481  141.07499695    4.90999985    2.39000010
   16.05638885  144.45300293    4.90999985    2.40000010
   16.05944443  148.47700500    4.90999985    2.36999989
   16.06277657  149.61700439    4.90999985    2.39000010
   16.06583214  145.03599548    4.90999985    2.40000010
   16.06805611  147.30400085    4.90999985    2.40000010
   16.06944466  143.31300354    4.90999985    2.40000010
   16.07277870  147.21000671    4.90999985    2.40000010
   16.07583427  193.76499939    4.90999985    2.42000008
   16.07916832  157.76199341    4.90999985    1.94000006
   16.08527756  157.76199341    4.90999985    2.40000010
   16.08944511  165.12100220    4.90999985    2.30999994
   16.09277916  146.54400635    4.90999985    2.40000010
   16.09583473  146.48599243    4.90999985    2.40000010
   16.09916687  143.15800476    4.90999985    2.40000010
   16.10138893  142.44799805    4.90999985    2.42000008
   16.10277748  144.12500000    4.90999985    2.40000010
   16.10611153  138.52499390    4.90999985    2.42000008
   16.10916710  140.98300171    4.90999985    2.39000010
   16.11250114  142.91700745    4.90999985    2.46000004
   16.11555672  135.54600525    4.90999985    2.48000002
   16.11888885  133.62800598    4.90999985    2.46000004
   16.12222290  142.42799377    4.90999985    2.42000008
   16.12805557  142.42799377    4.90999985    2.40000010
   16.13222313  141.49800110    4.90999985    2.34999990
   16.13472176  145.31500244    4.90999985    2.40000010
   16.13583374  141.63900757    4.90999985    2.44000006
   16.13916588  138.16999817    4.90999985    2.44000006
   16.14222145  142.32600403    4.90999985    2.44000006
   16.14555550  142.11300659    4.90999985    2.44000006
   16.14861107  139.27299500    4.90999985    2.39000010
   16.15194321  132.69500732    4.90999985    2.42000008
   16.15527725  135.74600220    4.90999985    2.46000004
   16.15833282  134.83900452    4.90999985    2.46000004
   16.16166687  141.13499451    4.90999985    2.44000006
   16.16499901  146.01800537    4.90999985    2.39000010
   16.17111015  146.01800537    4.90999985    2.44000006
   16.17527771  136.97099304    4.90999985    2.44000006
   16.17833328  135.28399658    4.90999985    2.44000006
   16.18166542  136.61300659    4.90999985    2.44000006
   16.18472099  137.29600525    4.90999985    2.44000006
   16.18805504  136.04600525    4.90999985    2.44000006
   16.19138718  149.89199829    4.90999985    2.42000008
   16.19444275  140.13800049    4.90999985    2.13000011
   16.19777679  141.87899780    4.90999985    2.42000008
   16.20111275  152.27299500    4.90999985    2.28999996
   16.20194435  143.47200012    4.90999985    2.36999989
   16.20472336  133.96400452    4.90999985    2.40000010
   16.20777893  138.83500671    4.90999985    2.42000008
   16.21389008  138.83500671    4.90999985    2.46000004
   16.21805573  133.13299561    4.90999985    2.46000004
   16.22111130  129.87899780    4.90999985    2.46000004
   16.22444534  138.20700073    4.90999985    2.46000004
   16.22777748  136.44099426    4.90999985    2.46000004
   16.23083305  135.39900208    4.90999985    2.46000004
   16.23416710  136.29600525    4.90999985    2.44000006
   16.23527718  134.55400085    4.90999985    2.48000002
   16.23750114  135.41999817    4.90999985    2.48000002
   16.24083328  133.34500122    4.90999985    2.46000004
   16.24416733  135.14599609    4.90999985    2.46000004
   16.24722290  133.37899780    4.90999985    2.48000002
   16.25055504  133.97700500    4.90999985    2.46000004
   16.25666618  133.97700500    4.90999985    2.46000004
   16.26083374  134.59300232    4.90999985    2.46000004
   16.26416588  139.01699829    4.90999985    2.46000004
   16.26722145  137.47999573    4.90999985    2.48000002
   16.26888847  137.56500244    4.90999985    2.46000004
   16.27083397  140.60600281    4.90999985    2.48000002
   16.27416611  151.64999390    4.90999985    2.40000010
   16.27750015   -1.00000000    4.90999985    2.36999989
   16.28055573  184.89500427    4.90999985    1.89999998
   16.28388786  161.39500427    4.90999985    2.25000000
   16.28722191  136.92599487    4.90999985    2.48000002
   16.29027748  134.92599487    4.90999985    2.48000002
   16.29361153   -1.00000000    4.90999985    2.50000000
   16.29944420   -1.00000000    4.90999985    1.85000002
   16.31805611  132.00000000    4.90999985    2.48000002
   16.32111168  141.46899414    4.90999985    2.46000004
   16.32444572  141.00900269    4.90999985    2.46000004
   16.32777786  136.28900146    4.90999985    2.46000004
   16.33083344  137.90299988    4.90999985    2.46000004
   16.33416748  143.71899414    4.90999985    2.44000006
   16.33722305  148.76800537    4.90999985    2.40000010
   16.34250069  148.76800537    4.90999985    2.13000011
   16.34666824  140.03599548    4.90999985    2.39000010
   16.35000038  135.45300293    4.90999985    2.42000008
   16.35083389  138.30599976    4.90999985    2.46000004
   16.35361099  138.00700378    4.90999985    2.46000004
   16.35694504  139.62899780    4.90999985    2.46000004
   16.36000061  135.56399536    4.90999985    2.42000008
   16.36333466  137.71499634    4.90999985    2.42000008
   16.36666679  140.50900269    4.90999985    2.46000004
   16.36972237  138.19200134    4.90999985    2.46000004
   16.37305641  138.61700439    4.90999985    2.46000004
   16.37638855  146.06500244    4.90999985    2.48000002
   16.37944412  138.66099548    4.90999985    2.40000010
   16.38555527  138.66099548    4.90999985    2.46000004
   16.38972282  129.22700500    4.90999985    2.46000004
   16.39277840  138.26100159    4.90999985    2.46000004
   16.39611053  131.44999695    4.90999985    2.46000004
   16.39916611  133.26400757    4.90999985    2.46000004
   16.40250015  134.62500000    4.90999985    2.48000002
   16.40583229  132.84500122    4.90999985    2.48000002
   16.40888786  132.88400269    4.90999985    2.50000000
   16.41222191  133.44599915    4.90999985    2.50000000
   16.41527748  132.14599609    4.90999985    2.48000002
   16.41749954  132.10899353    4.90999985    2.48000002
   16.41888809  137.28300476    4.90999985    2.48000002
   16.42222214  142.56399536    4.90999985    2.48000002
   16.42833328  142.56399536    4.90999985    2.26999998
   16.43249893  137.80400085    4.90999985    2.48000002
   16.43555450  136.65199280    4.90999985    2.50000000
   16.43888855  132.80000305    4.90999985    2.50000000
   16.44194412  135.71800232    4.90999985    2.50000000
   16.44527626  141.42399597    4.90999985    2.50000000
   16.44861031  135.86900330    4.90999985    2.50000000
   16.45083427  134.51899719    4.90999985    2.50000000
   16.45222282  129.85200500    4.90999985    2.48000002
   16.45555687  134.19900513    4.90999985    2.50000000
   16.45861244  131.15100098    4.90999985    2.48000002
   16.46194458  131.69999695    4.90999985    2.48000002
   16.46500015  132.30799866    4.90999985    2.50000000
   16.47111130  132.30799866    4.90999985    2.50000000
   16.47527885  130.24600220    4.90999985    2.51999998
   16.47861099  134.55700684    4.90999985    2.51999998
   16.48166656  134.43200684    4.90999985    2.50000000
   16.48416710  136.78999329    4.90999985    2.50000000
   16.48527718  131.82200623    4.90999985    2.50000000
   16.48861122  133.93899536    4.90999985    2.50000000
   16.49166679  130.49400330    4.90999985    2.48000002
   16.49500084  136.03700256    4.90999985    2.50000000
   16.49833298  132.81900024    4.90999985    2.51999998
   16.50138855  132.91000366    4.90999985    2.51999998
   16.50472260  130.39900208    4.90999985    2.50000000
   16.50777817  133.49299622    4.90999985    2.51999998
   16.51388931  133.49299622    4.90999985    2.51999998
   16.51805496  125.58699799    4.90999985    2.51999998
   16.52138901  127.90000153    4.90999985    2.53999996
   16.52444458  127.19999695    4.90999985    2.51999998
   16.52777672  132.84500122    4.90999985    2.51999998
   16.53111076  131.89799500    4.90999985    2.51999998
   16.53416634  127.84300232    4.90999985    2.51999998
   16.53750038  131.44000244    4.90999985    2.55999994
   16.54083252  130.97399902    4.90999985    2.53999996
   16.54388809  127.11699677    4.90999985    2.53999996
   16.54722214  137.07699585    4.90999985    2.46000004
   16.55027771  135.88299561    4.90999985    2.40000010
   16.55111122  146.62699890    4.90999985    2.40000010
   16.55694389  146.62699890    4.90999985    2.50000000
   16.56083298  136.53999329    4.90999985    2.25000000
   16.56416512  131.25599670    4.90999985    2.48000002
   16.56750107  134.30299377    4.90999985    2.50000000
   16.57055664  135.95899963    4.90999985    2.51999998
   16.57389069  130.16600037    4.90999985    2.53999996
   16.57722282  131.14700317    4.90999985    2.51999998
   16.58027840  139.93800354    4.90999985    2.53999996
   16.58361244  132.30599976    4.90999985    2.51999998
   16.58444595  134.22900391    4.90999985    2.53999996
   16.58694458  168.72300720    4.90999985    2.50000000
   16.59027863  141.30099487    4.90999985    2.07999992
   16.59333420  131.70399475    4.90999985    2.55999994
   16.59972191  131.70399475    4.90999985    2.51999998
   16.60388947  131.25999451    4.90999985    2.53999996
   16.60694504  132.33500671    4.90999985    2.53999996
   16.61027908  131.96000671    4.90999985    2.53999996
   16.61333466  127.96199799    4.90999985    2.51999998
   16.61666679  130.10000610    4.90999985    2.53999996
   16.61777878  132.37899780    4.90999985    2.53999996
   16.62027740  134.66499329    4.90999985    2.51999998
   16.62361145  134.80099487    4.90999985    2.53999996
   16.62694550  134.09500122    4.90999985    2.53999996
   16.63000107  128.37899780    4.90999985    2.53999996
   16.63333321  130.54299927    4.90999985    2.53999996
   16.63638878  139.54600525    4.90999985    2.53999996
   16.64249992  139.54600525    4.90999985    2.53999996
   16.64666748  135.85899353    4.90999985    2.55999994
   16.64972115  138.61099243    4.90999985    2.39000010
   16.65111160  132.47799683    4.90999985    2.53999996
   16.65333366  133.10499573    4.90999985    2.53999996
   16.65666580  135.40499878    4.90999985    2.53999996
   16.65999985  129.94599915    4.90999985    2.55999994
   16.66305542  128.47500610    4.90999985    2.53999996
   16.66638756  129.95500183    4.90999985    2.53999996
   16.66944313  125.51399994    4.90999985    2.55999994
   16.67277718  128.33299255    4.90999985    2.55999994
   16.67611122  129.62100220    4.90999985    2.55999994
   16.67916679  198.25999451    4.90999985    2.53999996
   16.68527603  198.25999451    4.90999985    0.92000002
   16.68944359  129.75999451    4.90999985    2.59999990
   16.69277763  132.48300171    4.90999985    2.51999998
   16.69583321  129.52299500    4.90999985    2.53999996
   16.69916534  129.55599976    4.90999985    2.53999996
   16.70250130  135.19999695    4.90999985    2.53999996
   16.70583344  130.72200012    4.90999985    2.55999994
   16.70888901  125.33100128    4.90999985    2.55999994
   16.71222305  129.82499695    4.90999985    2.55999994
   16.71527863  132.22399902    4.90999985    2.53999996
   16.71777916  129.38400269    4.90999985    2.53999996
   16.71888924  131.52799988    4.90999985    2.55999994
   16.72222328  129.05799866    4.90999985    2.53999996
   16.72833443  129.05799866    4.90999985    2.53999996
   16.73222351  130.22500610    4.90999985    2.53999996
   16.73555565  133.29100037    4.90999985    2.53999996
   16.73888969  133.59500122    4.90999985    2.53999996
   16.74194527  132.59399414    4.90999985    2.55999994
   16.74527740  134.19299316    4.90999985    2.55999994
   16.74861145  133.15600586    4.90999985    2.55999994
   16.75111198  134.66299438    4.90999985    2.53999996
   16.75194359  133.92300415    4.90999985    2.55999994
   16.75527763  134.22799683    4.90999985    2.53999996
   16.75861168  134.83700562    4.90999985    2.55999994
   16.76166725  129.13499451    4.90999985    2.53999996
   16.76499939  128.73800659    4.90999985    2.51999998
   16.77111053  128.73800659    4.90999985    2.55999994
   16.77527809  141.74299622    4.90999985    2.48000002
   16.77833366  135.78700256    4.90999985    2.48000002
   16.78166580  135.32699585    4.90999985    2.50000000
   16.78444481  128.57200623    4.90999985    2.53999996
   16.78527641  128.79100037    4.90999985    2.53999996
   16.78861046  130.79400635    4.90999985    2.51999998
   16.79194450  131.20300293    4.90999985    2.55999994
   16.79500008  131.93600464    4.90999985    2.55999994
   16.79833221  130.30499268    4.90999985    2.53999996
   16.80138779  133.48199463    4.90999985    2.55999994
   16.80472183  129.00199890    4.90999985    2.55999994
   16.80805397  126.80400085    4.90999985    2.55999994
   16.81388855  126.80400085    4.90999985    2.55999994
   16.81805611  133.14799500    4.90999985    2.55999994
   16.82139015  129.10200500    4.90999985    2.53999996
   16.82444572  135.41400146    4.90999985    2.55999994
   16.82777786  132.05900574    4.90999985    2.55999994
   16.83111191  129.82600403    4.90999985    2.53999996
   16.83416748  136.02499390    4.90999985    2.53999996
   16.83750153  131.34199524    4.90999985    2.53999996
   16.84055710  134.27099609    4.90999985    2.53999996
   16.84388924  137.08500671    4.90999985    2.50000000
   16.84722328  131.95399475    4.90999985    2.50000000
   16.85027885  134.88900757    4.90999985    2.53999996
   16.85111237  131.68099976    4.90999985    2.53999996
   16.85666656  131.68099976    4.90999985    2.53999996
   16.86083412  137.77600098    4.90999985    2.53999996
   16.86416626  131.39700317    4.90999985    2.53999996
   16.86722183  128.94000244    4.90999985    2.51999998
   16.87055588  127.58799744    4.90999985    2.55999994
   16.87388992  134.05799866    4.90999985    2.55999994
   16.87722206  128.88000488    4.90999985    2.55999994
   16.88027763  131.26199341    4.90999985    2.55999994
   16.88361168  130.09599304    4.90999985    2.55999994
   16.88444519  123.89099884    4.90999985    2.55999994
   16.88694382  130.00000000    4.90999985    2.55999994
   16.89027786  126.59200287    4.90999985    2.53999996
   16.89361191  129.56500244    4.90999985    2.53999996
   16.89972115  129.56500244    4.90999985    2.53999996
   16.90361023  126.06400299    4.90999985    2.53999996
   16.90694427  126.66999817    4.90999985    2.55999994
   16.91027832  128.30400085    4.90999985    2.55999994
   16.91333389  132.24000549    4.90999985    2.53999996
   16.91666603  133.55099487    4.90999985    2.51999998
   16.91777802  125.67700195    4.90999985    2.53999996
   16.92000008  131.00300598    4.90999985    2.53999996
   16.92333221  130.43899536    4.90999985    2.53999996
   16.92666626  133.42100525    4.90999985    2.55999994
   16.92972183  132.37300110    4.90999985    2.55999994
   16.93305397  131.89500427    4.90999985    2.55999994
   16.93638802  130.81700134    4.90999985    2.55999994
   16.94249916  130.81700134    4.90999985    2.55999994
   16.94666672  128.85699463    4.90999985    2.55999994
   16.94972038  130.87800598    4.90999985    2.53999996
   16.95111275  128.91900635    4.90999985    2.55999994
   16.95333481  127.58399963    4.90999985    2.50000000
   16.95666695  126.23600006    4.90999985    2.53999996
   16.96000099  132.47599792    4.90999985    2.55999994
   16.96333504  130.54800415    4.90999985    2.53999996
   16.96638870  127.80599976    4.90999985    2.53999996
   16.96972275  132.32699585    4.90999985    2.53999996
   16.97277832  128.65600586    4.90999985    2.55999994
   16.97611237  127.34999847    4.90999985    2.55999994
   16.97944450  125.06600189    4.90999985    2.55999994
   16.98527718  125.06600189    4.90999985    2.55999994
   16.98944473  127.48300171    4.90999985    2.55999994
   16.99277878  127.25099945    4.90999985    2.55999994
   16.99583435  135.28500366    4.90999985    2.55999994
   16.99916649  136.04200745    4.90999985    2.55999994
   17.00222206  127.61499786    4.90999985    2.50000000
   17.00555611  125.99800110    4.90999985    2.48000002
   17.00888824  123.62599945    4.90999985    2.53999996
   17.01194382  141.16700745    4.90999985    2.51999998
   17.01527786  156.88200378    4.90999985    2.26999998
   17.01777840  128.14300537    4.90999985    2.19000006
   17.01861000  128.08999634    4.90999985    2.48000002
   17.02194405  133.25999451    4.90999985    2.51999998
   17.02805519  133.25999451    4.90999985    2.51999998
   17.03222275  128.34399414    4.90999985    2.55999994
   17.03555489  126.21399689    4.90999985    2.57999992
   17.03888893  131.66600037    4.90999985    2.57999992
   17.04194450  125.09799957    4.90999985    2.55999994
   17.04527664  127.89700317    4.90999985    2.55999994
   17.04833221  125.01799774    4.90999985    2.55999994
   17.05111122  129.87199402    4.90999985    2.55999994
   17.05194283  127.62400055    4.90999985    2.55999994
   17.05527687  131.66099548    4.90999985    2.51999998
   17.05861092  127.19499969    4.90999985    2.53999996
   17.06166649  127.76100159    4.90999985    2.53999996
   17.06499863  123.59899902    4.90999985    2.55999994
   17.07111168  123.59899902    4.90999985    2.55999994
   17.07500076  124.64399719    4.90999985    2.55999994
   17.07833481  126.12899780    4.90999985    2.48000002
   17.08166695  129.66600037    4.90999985    2.50000000
   17.08444595  128.32099915    4.90999985    2.53999996
   17.08500099  125.09999847    4.90999985    2.53999996
   17.08833313  129.85600281    4.90999985    2.55999994
   17.09166718  126.27100372    4.90999985    2.55999994
   17.09472275  124.07299805    4.90999985    2.53999996
   17.09805679  130.18400574    4.90999985    2.53999996
   17.10138893  128.97300720    4.90999985    2.53999996
   17.10444450  133.64700317    4.90999985    2.55999994
   17.10777855  132.02000427    4.90999985    2.55999994
   17.11388969  132.02000427    4.90999985    2.53999996
   17.11805534  131.28900146    4.90999985    2.53999996
   17.12111092  132.10600281    4.90999985    2.53999996
   17.12444496  132.50000000    4.90999985    2.53999996
   17.12777710  128.49499512    4.90999985    2.53999996
   17.13083267  136.60499573    4.90999985    2.53999996
   17.13416672  128.52099609    4.90999985    2.53999996
   17.13722229  129.89199829    4.90999985    2.51999998
   17.14055634  133.64700317    4.90999985    2.53999996
   17.14388847  135.70700073    4.90999985    2.53999996
   17.14694405  130.43600464    4.90999985    2.53999996
   17.15027809  134.96000671    4.90999985    2.53999996
   17.15111160  128.44099426    4.90999985    2.53999996
   17.15666580  128.44099426    4.90999985    2.46000004
   17.16083336  136.69299316    4.90999985    2.51999998
   17.16416550  133.69599915    4.90999985    2.44000006
   17.16722107  133.76400757    4.90999985    2.53999996
   17.17055511  126.30200195    4.90999985    2.55999994
   17.17361069  131.85800171    4.90999985    2.57999992
   17.17694473  130.75599670    4.90999985    2.44000006
   17.18027687  135.36300659    4.90999985    2.51999998
   17.18333244  129.18299866    4.90999985    2.53999996
   17.18444443  131.42599487    4.90999985    2.51999998
   17.18722153  129.16700745    4.90999985    2.53999996
   17.19027710  128.87500000    4.90999985    2.53999996
   17.19361115  132.33599854    4.90999985    2.53999996
   17.19944382  132.33599854    4.90999985    2.53999996
   17.20361137  133.13200378    4.90999985    2.53999996
   17.20694542  130.40899658    4.90999985    2.53999996
   17.21027946  125.28700256    4.90999985    2.53999996
   17.21333504  128.76800537    4.90999985    2.53999996
   17.21666718  129.00799561    4.90999985    2.55999994
   17.21777916  127.04199982    4.90999985    2.53999996
   17.22027779  127.12999725    4.90999985    2.53999996
   17.22333336  132.59700012    4.90999985    2.53999996
   17.22666740  129.98300171    4.90999985    2.53999996
   17.22972298  131.36900330    4.90999985    2.53999996
   17.23305511  131.08299255    4.90999985    2.53999996
   17.23638916  135.30299377    4.90999985    2.53999996
   17.24250031  135.30299377    4.90999985    2.53999996
   17.24638939  133.36900330    4.90999985    2.53999996
   17.24972153  133.79200745    4.90999985    2.53999996
   17.25111198  131.81599426    4.90999985    2.51999998
   17.25333405  135.41700745    4.90999985    2.51999998
   17.25638962  136.42599487    4.90999985    2.51999998
   17.25972176  135.63299561    4.90999985    2.51999998
   17.26277733  131.50000000    4.90999985    2.51999998
   17.26611137  134.17399597    4.90999985    2.51999998
   17.26944351  128.26800537    4.90999985    2.53999996
   17.27249908  126.98799896    4.90999985    2.53999996
   17.27583313  134.22399902    4.90999985    2.51999998
   17.27916718  135.08200073    4.90999985    2.53999996
   17.28527641  135.08200073    4.90999985    2.51999998
   17.28944397  137.41900635    4.90999985    2.51999998
   17.29249954  129.83599854    4.90999985    2.51999998
   17.29583359  129.24200439    4.90999985    2.51999998
   17.29916573  131.33799744    4.90999985    2.51999998
   17.30222130  131.00300598    4.90999985    2.51999998
   17.30555534  129.14900208    4.90999985    2.51999998
   17.30861092  128.24899292    4.90999985    2.51999998
   17.31194305  131.05099487    4.90999985    2.50000000
   17.31527710  130.46299744    4.90999985    2.51999998
   17.31777954  129.38299561    4.90999985    2.51999998
   17.33833313  129.38299561    4.90999985    2.51999998
   17.34250069  129.82299805    4.90999985    2.50000000
   17.34583473  132.67399597    4.90999985    2.51999998
   17.34889030  131.29800415    4.90999985    2.50000000
   17.35111237  137.33999634    4.90999985    2.50000000
   17.35277748  134.98699951    4.90999985    2.50000000
   17.35583305  132.78900146    4.90999985    2.50000000
   17.35916710  132.42399597    4.90999985    2.50000000
   17.36222267  128.37100220    4.90999985    2.50000000
   17.36555672  126.03600311    4.90999985    2.50000000
   17.36888885  129.71600342    4.90999985    2.50000000
   17.37194443  130.75799561    4.90999985    2.50000000
   17.37527847  130.54800415    4.90999985    2.50000000
   17.38111115  130.54800415    4.90999985    2.51999998
   17.38527679  131.61599731    4.90999985    2.50000000
   17.38833237  134.96200562    4.90999985    2.50000000
   17.39166641  133.64599609    4.90999985    2.48000002
   17.39500046  133.20500183    4.90999985    2.50000000
   17.39805603  132.41499329    4.90999985    2.50000000
   17.40138817  134.98599243    4.90999985    2.48000002
   17.40472221  136.42599487    4.90999985    2.50000000
   17.40777779  126.56700134    4.90999985    2.50000000
   17.41110992  131.93299866    4.90999985    2.50000000
   17.41416550  131.21800232    4.90999985    2.48000002
   17.41749954  133.76800537    4.90999985    2.50000000
   17.41805458  134.85800171    4.90999985    2.50000000
   17.42388916  134.85800171    4.90999985    2.48000002
   17.42805481  131.65699768    4.90999985    2.48000002
   17.43138885  130.94900513    4.90999985    2.48000002
   17.43444443  132.37300110    4.90999985    2.48000002
   17.43777657  130.32400513    4.90999985    2.48000002
   17.44111061  127.90200043    4.90999985    2.48000002
   17.44416618  134.38999939    4.90999985    2.48000002
   17.44749832  128.92799377    4.90999985    2.48000002
   17.45055580  131.78300476    4.90999985    2.48000002
   17.45138931  126.90699768    4.90999985    2.46000004
   17.45416832  127.90399933    4.90999985    2.46000004
   17.45750046  140.07800293    4.90999985    2.46000004
   17.46083450  137.55200195    4.90999985    2.46000004
   17.46666718  137.55200195    4.90999985    2.46000004
   17.47083473  133.26199341    4.90999985    2.46000004
   17.47416687  127.73600006    4.90999985    2.46000004
   17.47750092  130.57899475    4.90999985    2.46000004
   17.48055649  134.71800232    4.90999985    2.46000004
   17.48388863  137.14199829    4.90999985    2.46000004
   17.48472214  139.45599365    4.90999985    2.46000004
   17.48722267  133.57600403    4.90999985    2.46000004
   17.49055672  131.11500549    4.90999985    2.46000004
   17.49388885  133.65100098    4.90999985    2.44000006
   17.49694443  129.89100647    4.90999985    2.42000008
   17.50027847  137.40899658    4.90999985    2.44000006
   17.50361061  131.27600098    4.90999985    2.44000006
   17.50972176  131.27600098    4.90999985    2.42000008
   17.51388931  140.76100159    4.90999985    2.40000010
   17.51694489  138.07600403    4.90999985    2.42000008
   17.51805496  140.43299866    4.90999985    2.42000008
   17.52055550  137.47599792    4.90999985    2.44000006
   17.52388954  136.96099854    4.90999985    2.44000006
   17.52722168  139.79400635    4.90999985    2.42000008
   17.53027725  136.32499695    4.90999985    2.42000008
   17.53361130  136.94200134    4.90999985    2.42000008
   17.53694344  142.91900635    4.90999985    2.42000008
   17.53999901  145.66200256    4.90999985    2.42000008
   17.54333305  144.14399719    4.90999985    2.42000008
   17.54638863  138.86999512    4.90999985    2.44000006
   17.55249977  138.86999512    4.90999985    2.42000008
   17.55666542  143.13099670    4.90999985    2.42000008
   17.55972099  138.51699829    4.90999985    2.40000010
   17.56305504  135.24600220    4.90999985    2.40000010
   17.56638718  155.30000305    4.90999985    2.36999989
   17.56944466  146.29600525    4.90999985    2.32999992
   17.57277870  229.88600159    4.90999985    2.32999992
   17.57611275   -1.00000000    4.90999985    2.28999996
   17.57916832  145.35200500    4.90999985    2.46000004
   17.58250046  141.66000366    4.90999985    2.42000008
   17.58472252  142.50999451    4.90999985    2.42000008
   17.58611107  147.88099670    4.90999985    2.42000008
   17.58916664  142.60499573    4.90999985    2.42000008
   17.59527779  142.60499573    4.90999985    2.40000010
   17.59944534  142.33999634    4.90999985    2.40000010
   17.60277748  144.42799377    4.90999985    2.40000010
   17.60583305  152.43800354    4.90999985    2.40000010
   17.60916710  145.95799255    4.90999985    2.40000010
   17.61250114  146.25199890    4.90999985    2.40000010
   17.61555672  146.97099304    4.90999985    2.40000010
   17.61805534  142.54899597    4.90999985    2.40000010
   17.61944389  147.31599426    4.90999985    2.39000010
   17.62249947  141.44099426    4.90999985    2.39000010
   17.62583351  149.28599548    4.90999985    2.39000010
   17.62888908  149.66700745    4.90999985    2.39000010
   17.63222313  142.86900330    4.90999985    2.25000000
   17.63805580  142.86900330    4.90999985    2.40000010
   17.64222145  145.10000610    4.90999985    2.39000010
   17.64555550  146.93800354    4.90999985    2.40000010
   17.64888954  150.99000549    4.90999985    2.40000010
   17.65138817  146.43699646    4.90999985    2.39000010
   17.75027847   -1.00000000   -1.00000000   -1.00000000
   17.84861183   -1.00000000   -1.00000000   -1.00000000
   17.94972038   -1.00000000   -1.00000000   -1.00000000
   18.86861038   90.80789948    4.90999985    2.40000010
   18.87166595  137.53399658    4.90999985    2.39000010
   18.87500000  132.97900391    4.90999985    1.96000004
   18.87805557   -1.00000000    4.90999985    2.26999998
   18.88138962  134.38200378    4.90999985    2.00000000
   18.88472176  121.15399933    4.90999985    2.25000000
   18.88888931  121.15399933    4.90999985    2.39000010
   18.89277840  130.63299561    4.90999985    2.42000008
   18.89611053  130.61300659    4.90999985    2.36999989
   18.89944458  130.68699646    4.90999985    2.34999990
   18.90194321  142.68800354    4.90999985    2.28999996
   18.90277672  138.07299805    4.90999985    2.26999998
   18.90611076  135.55200195    4.90999985    2.30999994
   18.90916634  138.21699524    4.90999985    2.34999990
   18.91250038  129.69900513    4.90999985    2.36999989
   18.91583252  133.59899902    4.90999985    2.36999989
   18.91888809  134.96400452    4.90999985    2.36999989
   18.92222214  131.51800537    4.90999985    2.36999989
   18.92555428  131.41200256    4.90999985    2.25000000
   18.93166542  131.41200256    4.90999985    2.36999989
   18.93583298  130.24299622    4.90999985    2.34999990
   18.93888855  127.43900299    4.90999985    2.30999994
   18.94222069  133.23699951    4.90999985    2.36999989
   18.94555473  141.97999573    4.90999985    2.36999989
   18.94861031  147.38499451    4.90999985    2.23000002
   18.95194435  203.95500183    4.90999985    1.91999996
   18.95499992   47.06620026    4.90999985    1.36000001
   18.95833397  197.98399353    4.90999985    1.76999998
   18.96166801   -1.00000000    4.90999985    2.17000008
   18.96472359  231.52000427    4.90999985    1.98000002
   18.96805573  256.10299683    4.90999985    1.64999998
   18.96861076  203.47599792    4.90999985    2.03999996
   18.97444534  203.47599792    4.90999985    2.00000000
   18.97861099  174.07899475    4.90999985    2.19000006
   18.98194504  173.05799866    4.90999985    2.23000002
   18.98500061  197.02099609    4.90999985    2.09999990
   18.98833275  220.26300049    4.90999985    2.00000000
   18.99138832  232.48899841    4.90999985    1.91999996
   18.99472237  176.68699646    4.90999985    1.86000001
   18.99805641  222.29699707    4.90999985    1.85000002
   19.00111198  218.21699524    4.90999985    1.94000006
   19.00194359  212.22200012    4.90999985    1.91999996
   19.00472260  196.84899902    4.90999985    1.88000000
   19.00805473  111.33599854    4.90999985    1.78999996
   19.01138878  149.88699341    4.90999985    1.78999996
   19.02138901   -1.00000000    4.90999985    0.41999999
   19.02472115   -1.00000000    4.90999985    0.31999999
   19.02777672   -1.00000000    4.90999985    0.73000002
   19.03111076   -1.00000000    4.90999985    1.30999994
   19.03416634   -1.00000000    4.90999985    1.51999998
   19.03777695   -1.00000000    4.90999985    1.55999994
   19.04111099  133.22399902    4.90999985    1.55999994
   19.04416656  229.25799561    4.90999985    1.71000004
   19.04749870  194.62899780    4.90999985    2.00000000
   19.05083275  180.81500244    4.90999985    2.00000000
   19.05388832  170.56399536    4.90999985    2.05999994
   19.05999947  170.56399536    4.90999985    2.03999996
   19.06416512  231.96899414    4.90999985    1.94000006
   19.06750107  171.91499329    4.90999985    2.01999998
   19.06861115  173.06100464    4.90999985    2.03999996
   19.07111168  191.16099548    4.90999985    2.03999996
   19.07444572  192.83000183    4.90999985    2.05999994
   19.07777786  228.45899963    4.90999985    1.98000002
   19.08083344  235.48100281    4.90999985    1.88000000
   19.08416748  201.15600586    4.90999985    1.91999996
   19.08722305  241.63600159    4.90999985    1.94000006
   19.09055710  239.66900635    4.90999985    1.85000002
   19.09388924  174.85800171    4.90999985    1.88000000
   19.09694481  223.00500488    4.90999985    2.00000000
   19.10305595  223.00500488    4.90999985    1.86000001
   19.10722351  238.30200195    4.90999985    1.86000001
   19.11027908  245.28300476    4.90999985    1.80999994
   19.11361122  232.46899414    4.90999985    1.86000001
   19.11694527  228.08700562    4.90999985    1.58000004
   19.12000084   -1.00000000    4.90999985    1.88000000
   19.12333298   -1.00000000    4.90999985    0.63000000
   19.12638855   -1.00000000    4.90999985    1.01999998
   19.12972260  263.91299438    4.90999985    1.76999998
   19.13305473  193.92300415    4.90999985    1.91999996
   19.13527679  181.48800659    4.90999985    1.98000002
   19.13638878  148.38000488    4.90999985    1.96000004
   19.13972282  169.34300232    4.90999985    2.05999994
   19.14583397  169.34300232    4.90999985    2.11999989
   19.14999962  167.16299438    4.90999985    2.09999990
   19.15333366  201.54400635    4.90999985    2.07999992
   19.15638924  207.08599854    4.90999985    1.94000006
   19.15972137  220.03599548    4.90999985    1.98000002
   19.16277695  203.61999512    4.90999985    1.91999996
   19.16611099  173.72700500    4.90999985    2.00000000
   19.16860962  149.28999329    4.90999985    1.83000004
   19.16972160  157.65199280    4.90999985    1.86000001
   19.17305565   -1.00000000    4.90999985    1.83000004
   19.17638779  131.39500427    4.90999985    1.64999998
   19.17944336   -1.00000000    4.90999985    1.55999994
   19.18277740  127.40299988    4.90999985    1.73000002
   19.18861008  127.40299988    4.90999985    1.86000001
   19.19277763   -1.00000000    4.90999985    1.63000000
   19.19610977   -1.00000000    4.90999985    1.09000003
   19.19916534   -1.00000000    4.90999985    1.53999996
   19.20277786   -1.00000000    4.90999985    1.05999994
   19.20611191   -1.00000000    4.90999985    0.76999998
   19.20916748   -1.00000000    4.90999985    0.25999999
   19.21250153   -1.00000000    4.90999985    0.15000001
   19.21583366   -1.00000000    4.90999985    0.07000000
   19.21888924   -1.00000000    4.90999985    0.20999999
   19.22222328   -1.00000000    4.90999985    0.25000000
   19.22527885   -1.00000000    4.90999985    0.52999997
   19.23555565   -1.00000000    4.90999985    0.19000000
   19.23888969   -1.00000000    4.90999985    0.09000000
   19.24194527   -1.00000000    4.90999985    0.28000000
   19.24527740   -1.00000000    4.90999985    0.07000000
   19.24861145   -1.00000000    4.90999985    0.07000000
   19.25166702   -1.00000000    4.90999985    0.09000000
   19.25499916   -1.00000000    4.90999985    0.20999999
   19.25833321   -1.00000000    4.90999985    0.41999999
   19.26166725   -1.00000000    4.90999985    0.46000001
   19.26472282   -1.00000000    4.90999985    0.15000001
   19.26805496   -1.00000000    4.90999985    0.17000000
   19.27833366   -1.00000000    4.90999985    0.09000000
   19.28166580   -1.00000000    4.90999985    0.03000000
   19.28499985   -1.00000000    3.14000010    0.01000000
   19.28805542   -1.00000000    3.01999998    0.01000000
   19.29138756   -1.00000000    2.86999989    0.01000000
   19.29472160   -1.00000000    2.86999989    0.01000000
   19.29777718   -1.00000000    4.55999994    0.01000000
   19.30111122   -1.00000000    4.90999985    0.05000000
   19.30444336   -1.00000000    4.90999985    0.07000000
   19.30777740   -1.00000000    4.90999985    0.07000000
   19.31083298   -1.00000000    1.26999998    0.01000000
   19.32139015   -1.00000000    4.90999985    0.01000000
   19.32444572   -1.00000000    4.90999985    0.01000000
   19.32777786   -1.00000000    4.90999985    0.03000000
   19.33111191   -1.00000000    4.90999985    0.01000000
   19.33416748   -1.00000000    4.90999985    0.01000000
   19.33777809   -1.00000000    4.90999985    0.01000000
   19.34111214   -1.00000000    4.90999985    0.01000000
   19.34416771   -1.00000000    4.90999985    0.01000000
   19.34749985   -1.00000000    4.90999985    0.01000000
   19.35083389   -1.00000000    4.90999985    0.01000000
   19.35388947   -1.00000000    4.90999985    0.01000000
   19.36416626   -1.00000000    4.90999985    0.03000000
   19.36722183   -1.00000000    4.90999985    0.05000000
   19.37083435   -1.00000000    4.90999985    0.38000000
   19.37416649   -1.00000000    4.90999985    0.67000002
   19.37722206   -1.00000000    4.90999985    1.05999994
   19.38055611   -1.00000000    4.90999985    1.07000005
   19.38388824   -1.00000000    4.90999985    0.50000000
   19.38694382   -1.00000000    4.90999985    1.25000000
   19.39027786   -1.00000000    4.90999985    0.83999997
   19.39361191   -1.00000000    4.90999985    0.47999999
   19.39666748   -1.00000000    4.90999985    0.79000002
   19.40694427   -1.00000000    4.90999985    0.38000000
   19.41027832   -1.00000000    4.90999985    0.17000000
   19.41333389   -1.00000000    4.90999985    0.34000000
   19.41666603   -1.00000000    4.90999985    0.07000000
   19.42000008   -1.00000000    4.90999985    0.05000000
   19.42305565   -1.00000000    3.68000007    0.01000000
   19.42638779   -1.00000000    3.68000007    0.01000000
   19.42944336   -1.00000000    3.68000007    0.01000000
   19.43277740   -1.00000000    3.68000007    0.01000000
   19.43610954   -1.00000000    3.68000007    0.01000000
   19.43944359   -1.00000000    3.68000007    0.01000000
   19.44972038   -1.00000000    4.90999985    0.01000000
   19.45305634   -1.00000000    4.90999985    0.01000000
   19.45639038   -1.00000000    4.90999985    0.05000000
   19.45944595   -1.00000000    4.90999985    0.05000000
   19.46277809   -1.00000000    4.90999985    0.07000000
   19.46583366   -1.00000000    4.90999985    0.13000000
   19.46944427   -1.00000000    4.90999985    0.34000000
   19.47277832   -1.00000000    4.90999985    0.70999998
   19.47583389   -1.00000000    4.90999985    0.25000000
   19.47916794   -1.00000000    4.90999985    0.17000000
   19.48250008   -1.00000000    4.90999985    0.15000001
   19.49277878   -1.00000000    4.26000023    0.01000000
   19.49583435   -1.00000000    4.26000023    0.01000000
   19.49916649   -1.00000000    4.26000023    0.01000000
   19.50250053   -1.00000000    4.26000023    0.01000000
   19.50583267   -1.00000000    4.26000023    0.01000000
   19.50888824   -1.00000000    4.26000023    0.01000000
   19.51222229   -1.00000000    4.26000023    0.01000000
   19.51555634   -1.00000000    4.26000023    0.01000000
   19.51861000   -1.00000000    4.26000023    0.01000000
   19.52194405   -1.00000000    4.26000023    0.01000000
   19.52527809   -1.00000000    4.26000023    0.01000000
   19.53555489   -1.00000000    4.26000023    0.01000000
   19.53861046   -1.00000000    4.26000023    0.01000000
   19.54194450   -1.00000000    4.26000023    0.01000000
   19.54527664   -1.00000000    4.26000023    0.01000000
   19.54833221   -1.00000000    4.26000023    0.01000000
   19.55166626   -1.00000000    4.26000023    0.01000000
   19.55499840   -1.00000000    4.26000023    0.01000000
   19.55805397   -1.00000000    2.30999994    0.01000000
   19.56138802   -1.00000000    4.90999985    0.01000000
   19.56444359   -1.00000000    4.90999985    0.07000000
   19.56777954   -1.00000000    4.90999985    0.05000000
   19.57833481   -1.00000000    4.90999985    0.01000000
   19.58166695   -1.00000000    4.90999985    0.01000000
   19.58472252   -1.00000000    4.90999985    0.01000000
   19.58805656   -1.00000000    4.90999985    0.01000000
   19.59138870   -1.00000000    4.90999985    0.01000000
   19.59444427   -1.00000000    4.90999985    0.01000000
   19.59777832   -1.00000000    4.90999985    0.01000000
   19.60083389   -1.00000000    4.90999985    0.01000000
   19.60444450   -1.00000000    4.90999985    0.01000000
   19.60777855   -1.00000000    4.90999985    0.01000000
   19.61111069   -1.00000000    4.90999985    0.01000000
   19.62111092   -1.00000000    4.90999985    0.03000000
   19.62444496   -1.00000000    4.90999985    0.03000000
   19.62777710   -1.00000000    4.90999985    0.07000000
   19.63083267   -1.00000000    4.90999985    0.09000000
   19.63416672   -1.00000000    4.90999985    0.15000001
   19.63750076   -1.00000000    4.90999985    0.15000001
   19.64083290   -1.00000000    4.90999985    0.15000001
   19.64416695   -1.00000000    4.90999985    0.15000001
   19.64722252   -1.00000000    4.90999985    0.07000000
   19.65055466   -1.00000000    4.90999985    0.05000000
   19.65361023   -1.00000000    4.90999985    0.03000000
   19.66416550   -1.00000000    4.90999985    0.05000000
   19.66722107   -1.00000000    4.90999985    0.05000000
   19.67083359   -1.00000000    4.90999985    0.07000000
   19.67416573   -1.00000000    4.90999985    0.09000000
   19.67749977   -1.00000000    4.90999985    0.30000001
   19.68055534   -1.00000000    4.90999985    2.00000000
   19.68388748   -1.00000000    4.90999985    2.32999992
   19.68694305   -1.00000000    4.90999985    2.30999994
   19.69027710   -1.00000000    4.90999985    2.28999996
   19.69361115   -1.00000000    4.90999985    1.09000003
   19.69666672   -1.00000000    4.90999985    0.50000000
   19.70694542   -1.00000000    4.90999985    0.94000000
   19.71000099   -1.00000000    4.90999985    1.61000001
   19.71333504   -1.00000000    4.90999985    2.25000000
   19.71666718   -1.00000000    4.90999985    2.26999998
   19.71972275   -1.00000000    4.90999985    2.23000002
   19.72305679   -1.00000000    4.90999985    2.28999996
   19.72638893   -1.00000000    4.90999985    2.26999998
   19.72944450   -1.00000000    4.90999985    2.30999994
   19.73277855   -1.00000000    4.90999985    2.19000006
   19.73611069   -1.00000000    4.90999985    2.09999990
   19.73944473   -1.00000000    4.90999985    1.98000002
   19.74972153   -1.00000000    4.90999985    0.88000000
   19.75305557   -1.00000000    4.90999985    1.60000002
   19.75611115   -1.00000000    4.90999985    1.19000006
   19.75944519   -1.00000000    4.90999985    1.51999998
   19.76277733   -1.00000000    4.90999985    2.09999990
   19.76583290   -1.00000000    4.90999985    2.13000011
   19.76944351   -1.00000000    4.90999985    2.05999994
   19.77277756   -1.00000000    4.90999985    2.05999994
   19.77611160   -1.00000000    4.90999985    2.03999996
   19.77916718   -1.00000000    4.90999985    1.19000006
   19.78249931   -1.00000000    4.90999985    1.64999998
   19.79249954   -1.00000000    4.90999985    2.11999989
   19.79583359   -1.00000000    4.90999985    2.13000011
   19.79916573   -1.00000000    4.90999985    2.17000008
   19.80249977   -1.00000000    4.90999985    1.86000001
   19.80583191   -1.00000000    4.90999985    1.76999998
   19.80916595   -1.00000000    4.90999985    2.07999992
   19.81222153   -1.00000000    4.90999985    1.50000000
   19.81555557   -1.00000000    4.90999985    1.16999996
   19.81888962   -1.00000000    4.90999985    2.09999990
   19.82194519   -1.00000000    4.90999985    2.13000011
   19.82527924   -1.00000000    4.90999985    1.98000002
   19.83555603   -1.00000000    4.90999985    2.01999998
   19.83861160   -1.00000000    4.90999985    2.05999994
   19.84194565   -1.00000000    4.90999985    2.07999992
   19.84500122   -1.00000000    4.90999985    2.07999992
   19.84833336   -1.00000000    4.90999985    2.05999994
   19.85166740   -1.00000000    4.90999985    2.01999998
   19.85472298   -1.00000000    4.90999985    2.01999998
   19.85805511   -1.00000000    4.90999985    1.63000000
   19.86138916   -1.00000000    4.90999985    0.28000000
   19.86444473   -1.00000000    4.90999985    0.81999999
   19.86777878   -1.00000000    4.90999985    1.44000006
   19.89333344   -1.00000000    4.90999985    1.26999998
   19.89638901   -1.00000000    4.90999985    1.91999996
   19.89972115   -1.00000000    4.90999985    0.25000000
   19.90305519   -1.00000000    4.90999985    0.07000000
   19.90638924   -1.00000000    4.90999985    0.01000000
   19.90972137   -1.00000000    4.90999985    0.01000000
   19.91277695   -1.00000000    4.90999985    0.01000000
   19.91611099   -1.00000000    4.90999985    0.01000000
   19.91944313   -1.00000000    4.90999985    0.01000000
   19.92249870   -1.00000000    4.90999985    0.01000000
   19.92583275   -1.00000000    4.90999985    0.05000000
   19.93610954   -1.00000000    4.90999985    1.05999994
   19.93916512   -1.00000000    4.90999985    0.67000002
   19.94249916   -1.00000000    4.90999985    0.61000001
   19.94555473   -1.00000000    4.90999985    0.50000000
   19.94888878   -1.00000000    4.90999985    0.79000002
   19.95222282   -1.00000000    4.90999985    1.83000004
   19.95527840   -1.00000000    4.90999985    1.71000004
   19.95861244   -1.00000000    4.90999985    1.86000001
   19.96194458   -1.00000000    4.90999985    1.01999998
   19.96500015   -1.00000000    4.90999985    0.46000001
   19.96833420   -1.00000000    4.90999985    0.41999999
   19.97888947   -1.00000000    4.90999985    0.41999999
   19.98194504   -1.00000000    4.90999985    1.69000006
   19.98527718   -1.00000000    4.90999985    1.07000005
   19.98861122   -1.00000000    4.90999985    2.01999998
   19.99166679   -1.00000000    4.90999985    1.14999998
   19.99500084   -1.00000000    4.90999985    0.25000000
   19.99833298   -1.00000000    4.90999985    0.34000000
   20.00138855   -1.00000000    4.90999985    1.86000001
   20.00499916   -1.00000000    4.90999985    2.15000010
   20.00833321   -1.00000000    4.90999985    2.13000011
   20.01138878   -1.00000000    4.90999985    2.15000010
   20.02166557   -1.00000000    4.90999985    0.11000000
   20.02499962   -1.00000000    4.90999985    0.15000001
   20.02805519   -1.00000000    4.90999985    0.20999999
   20.03138924   -1.00000000    4.90999985    0.15000001
   20.03472137   -1.00000000    4.90999985    1.16999996
   20.03805542   -1.00000000    4.90999985    1.14999998
   20.04138756   -1.00000000    4.90999985    0.17000000
   20.04444313   -1.00000000    4.90999985    0.15000001
   20.04777718   -1.00000000    4.90999985    0.15000001
   20.05111122   -1.00000000    4.90999985    0.17000000
   20.05416679   -1.00000000    4.90999985    0.20999999
   20.06444359   -1.00000000    4.90999985    0.15000001
   20.06777954   -1.00000000    4.90999985    0.13000000
   20.07139015   -1.00000000    4.90999985    0.11000000
   20.07472229   -1.00000000    4.90999985    0.15000001
   20.07777786   -1.00000000    4.90999985    0.20999999
   20.08111191   -1.00000000    4.90999985    0.20999999
   20.08444595   -1.00000000    4.90999985    0.17000000
   20.08750153   -1.00000000    4.90999985    0.25000000
   20.09083366   -1.00000000    4.90999985    0.31999999
   20.09388924   -1.00000000    4.90999985    0.58999997
   20.09722328   -1.00000000    4.90999985    0.51999998
   20.10750008   -1.00000000    4.90999985    0.03000000
   20.11055565   -1.00000000    4.90999985    0.03000000
   20.11388969   -1.00000000    4.90999985    0.03000000
   20.11694527   -1.00000000    2.73000002    0.01000000
   20.12027740   -1.00000000    4.90999985    0.01000000
   20.12361145   -1.00000000    4.90999985    0.03000000
   20.12666702   -1.00000000    4.90999985    0.05000000
   20.13000107   -1.00000000    4.90999985    0.09000000
   20.13333321   -1.00000000    4.90999985    0.11000000
   20.13666725   -1.00000000    4.90999985    0.09000000
   20.13999939   -1.00000000    4.90999985    0.09000000
   20.15027809   -1.00000000    4.90999985    0.03000000
   20.15333366   -1.00000000    4.90999985    0.03000000
   20.15666580   -1.00000000    4.90999985    0.03000000
   20.15999985   -1.00000000    4.90999985    0.03000000
   20.16305542   -1.00000000    4.90999985    0.05000000
   20.16638756   -1.00000000    4.90999985    0.03000000
   20.17000008   -1.00000000    4.90999985    0.07000000
   20.17333221   -1.00000000    4.90999985    0.11000000
   20.17638779   -1.00000000    4.90999985    0.20999999
   20.17972183   -1.00000000    4.90999985    0.55000001
   20.18305397   -1.00000000    4.90999985    0.95999998
   20.19305420   -1.00000000    4.90999985    0.80000001
   20.19638824   -1.00000000    4.90999985    0.30000001
   20.19944382   -1.00000000    4.90999985    0.19000000
   20.20305634   -1.00000000    4.90999985    0.15000001
   20.20639038   -1.00000000    4.90999985    1.01999998
   20.20944595   -1.00000000    4.90999985    0.86000001
   20.21277809   -1.00000000    4.90999985    1.48000002
   20.21611214   -1.00000000    4.90999985    2.01999998
   20.21916771   -1.00000000    4.90999985    1.26999998
   20.22249985   -1.00000000    4.90999985    1.03999996
   20.22555542   -1.00000000    4.90999985    1.21000004
   20.23583412   -1.00000000    4.90999985    0.25000000
   20.23916626   -1.00000000    4.90999985    0.81999999
   20.24250031   -1.00000000    4.90999985    1.89999998
   20.24555588   -1.00000000    4.90999985    2.19000006
   20.24888992   -1.00000000    4.90999985    1.58000004
   20.25194359   -1.00000000    4.90999985    0.63000000
   20.25527763   -1.00000000    4.90999985    0.31999999
   20.25861168   -1.00000000    4.90999985    0.46000001
   20.26166725   -1.00000000    4.90999985    0.28000000
   20.26499939   -1.00000000    4.90999985    0.36000001
   20.26833344   -1.00000000    4.90999985    0.51999998
   20.27888870   -1.00000000    4.90999985    1.33000004
   20.28194427   -1.00000000    4.90999985    1.48000002
   20.28527641   -1.00000000    4.90999985    0.19000000
   20.28833199   -1.00000000    4.90999985    0.15000001
   20.29166603   -1.00000000    4.90999985    0.03000000
   20.29500008   -1.00000000    4.90999985    0.01000000
   20.29805565   -1.00000000    4.90999985    0.01000000
   20.30138779   -1.00000000    4.90999985    0.03000000
   20.30472183   -1.00000000    4.90999985    0.03000000
   20.30805397   -1.00000000    4.90999985    0.03000000
   20.31110954   -1.00000000    4.90999985    0.05000000
   20.32166672   -1.00000000    4.90999985    0.05000000
   20.32472229   -1.00000000    4.90999985    0.07000000
   20.32805634   -1.00000000    4.90999985    0.05000000
   20.33139038   -1.00000000    4.90999985    0.07000000
   20.33444595   -1.00000000    4.90999985    0.13000000
   20.33805656   -1.00000000    4.90999985    1.34000003
   20.34138870   -1.00000000    4.90999985    1.89999998
   20.34444427   -1.00000000    4.90999985    1.30999994
   20.34777832   -1.00000000    4.90999985    1.09000003
   20.35111237   -1.00000000    4.90999985    0.58999997
   20.35416794   -1.00000000    4.90999985    0.07000000
   20.36444473   -1.00000000    4.90999985    0.03000000
   20.36777878   -1.00000000    4.90999985    0.03000000
   20.37111092   -1.00000000    4.90999985    0.05000000
   20.37444496   -1.00000000    4.90999985    0.11000000
   20.37750053   -1.00000000    4.90999985    0.15000001
   20.38083267   -1.00000000    4.90999985    0.41999999
   20.38416672   -1.00000000    4.90999985    0.52999997
   20.38722229   -1.00000000    4.90999985    0.50000000
   20.39055634   -1.00000000    4.90999985    0.55000001
   20.39388847   -1.00000000    4.90999985    0.23000000
   20.39694405   -1.00000000    4.90999985    0.13000000
   20.40722275   -1.00000000    4.90999985    0.41999999
   20.41055489   -1.00000000    4.90999985    0.23000000
   20.41388893   -1.00000000    4.90999985    0.07000000
   20.41694450   -1.00000000    4.90999985    0.07000000
   20.42027664   -1.00000000    4.90999985    0.05000000
   20.42333221   -1.00000000    4.90999985    0.03000000
   20.42666626   -1.00000000    4.90999985    0.01000000
   20.43000031   -1.00000000    4.90999985    0.01000000
   20.43305397   -1.00000000    4.90999985    0.01000000
   20.43666649   -1.00000000    4.90999985    0.01000000
   20.43999863   -1.00000000    4.90999985    0.01000000
   20.45027924   -1.00000000    4.90999985    0.01000000
   20.45333481   -1.00000000    4.90999985    0.01000000
   20.45666695   -1.00000000    4.90999985    0.01000000
   20.45972252   -1.00000000    4.90999985    0.13000000
   20.46305656   -1.00000000    4.90999985    0.13000000
   20.46638870   -1.00000000    4.90999985    0.13000000
   20.46972275   -1.00000000    4.90999985    0.13000000
   20.47305679   -1.00000000    4.90999985    0.13000000
   20.47611237   -1.00000000    4.90999985    0.01000000
   20.47944450   -1.00000000    4.90999985    0.01000000
   20.48277855   -1.00000000    4.90999985    0.01000000
   20.49305534   -1.00000000    4.90999985    0.07000000
   20.49611092   -1.00000000    4.90999985    1.13000000
   20.49944496   -1.00000000    4.90999985    1.46000004
   20.50305557   -1.00000000    4.90999985    1.09000003
   20.50638962   -1.00000000    4.90999985    0.92000002
   20.50944519   -1.00000000    4.90999985    1.51999998
   20.51277733   -1.00000000    4.90999985    1.33000004
   20.51611137   -1.00000000    4.90999985    1.00000000
   20.51916695   -1.00000000    4.90999985    1.51999998
   20.52249908   -1.00000000    4.90999985    0.95999998
   20.52555466   -1.00000000    4.90999985    0.25000000
   20.53583336   -1.00000000    4.90999985    0.05000000
   20.53916550   -1.00000000    4.90999985    0.03000000
   20.54222107   -1.00000000    4.90999985    0.05000000
   20.54555511   -1.00000000    4.90999985    0.05000000
   20.54888916   -1.00000000    4.90999985    0.17000000
   20.55194283   -1.00000000    4.90999985    0.61000001
   20.55527687   -1.00000000    4.90999985    1.53999996
   20.55833244   -1.00000000    4.90999985    1.85000002
   20.56166649   -1.00000000    4.90999985    0.83999997
