    HOUR (UT)   FLARE FACTOR    SKY TESTER    SUN TESTER
   13.72583294   -1.00000000   -1.00000000   -1.00000000
   13.83333302  124.04199982    4.90999985    2.67000008
   13.83638859  141.19099426    4.90999985    2.39000010
   13.83972168  133.05400085    4.90999985    2.13000011
   13.84305477  136.00000000    4.90999985    2.66000009
   13.84611034  149.39900208    4.90999985    2.25000000
   13.84944439  144.49400330    4.90999985    2.19000006
   13.85361195  144.49400330    4.90999985    2.71000004
   13.85750008  120.38099670    4.90999985    2.86999989
   13.86083412  125.20200348    4.90999985    2.64000010
   13.86416721  124.54399872    4.90999985    2.57999992
   13.86638927  118.51399994    4.90999985    2.57999992
   13.86777782  130.43299866    4.90999985    2.50000000
   13.87111092  117.17299652    4.90999985    2.75000000
   13.87416649  114.46199799    4.90999985    2.80999994
   13.87750053  113.77700043    4.90999985    2.73000002
   13.88083363  131.10200500    4.90999985    2.59999990
   13.88416672  122.37000275    4.90999985    2.50000000
   13.88722229  123.18199921    4.90999985    2.73000002
   13.89055538  122.59600067    4.90999985    2.78999996
   13.89638901  122.59600067    4.90999985    2.66000009
   13.90055561  126.42400360    4.90999985    2.66000009
   13.90361118  127.89299774    4.90999985    2.78999996
   13.90694427  126.11699677    4.90999985    2.80999994
   13.91027737  155.05799866    4.90999985    2.61999989
   13.91333294  122.47399902    4.90999985    2.75000000
   13.91666698  115.13800049    4.90999985    2.89000010
   13.91972256  116.36000061    0.73000002    2.86999989
   13.92305565  115.59500122    0.79000002    2.84999990
   13.92638874  113.49400330    0.89999998    2.86999989
   13.92944431  113.25399780    1.41999996    2.84999990
   13.93277836  121.54900360    1.48000002    2.82999992
   13.93333340  116.97599792    1.38000000    2.84999990
   13.93916702  116.97599792    0.80000001    2.84999990
   13.94333363  117.45200348    0.95999998    2.84999990
   13.94666672  116.84400177    1.64999998    2.82999992
   13.94972229  113.91899872    1.69000006    2.84999990
   13.95305538  115.28700256    1.76999998    2.84999990
   13.95611095  116.14199829    4.63999987    2.86999989
   13.95944405  122.66699982    4.90999985    2.78999996
   13.96277714  242.31300354    4.90999985    2.78999996
   13.96583271  202.38800049    4.90999985    2.71000004
   13.96666622  142.16200256    4.90999985    2.64000010
   13.96944427  122.40100098    4.90999985    2.50000000
   13.97277737  117.11900330    4.90999985    2.64000010
   13.97611046  130.43699646    4.90999985    2.59999990
   13.98194408  130.43699646    4.90999985    2.42000008
   13.98611164  157.26699829    4.90999985    2.23000002
   13.98944473  127.60099792    4.90999985    2.13000011
   13.99250031  139.42799377    4.90999985    2.42000008
   13.99583340  116.71399689    4.90999985    2.67000008
   13.99916649  133.59899902    4.90999985    1.88000000
   14.00027752  287.39001465    4.90999985    2.17000008
   14.00305557  163.98399353    4.90999985    1.83000004
   14.00611115  135.97700500    4.90999985    1.91999996
   14.00944424  126.72899628    4.90999985    2.36999989
   14.01249981  126.46900177    4.90999985    2.76999998
   14.01583290  125.69300079    4.90999985    2.19000006
   14.01916599   -1.00000000    4.90999985    1.69000006
   14.02888870   -1.00000000    4.90999985    0.56999999
   14.03222179   -1.00000000    4.90999985    1.36000001
   14.03555584   -1.00000000    4.90999985    0.58999997
   14.03888893  259.89099121    4.90999985    1.94000006
   14.04194450  121.13099670    4.90999985    2.50000000
   14.04527855  121.22799683    4.90999985    2.89000010
   14.04861164  116.13400269    4.90999985    2.89000010
   14.05166721  119.15299988    4.90999985    2.89000010
   14.05500031  138.72500610    4.40999985    2.78999996
   14.05833340  117.45800018    4.90999985    2.89000010
   14.06138897  116.01999664    3.23000002    2.86999989
   14.06777763  116.01999664    1.41999996    2.86999989
   14.07194424  115.70300293    0.95999998    2.86999989
   14.07499981  120.16600037    1.25000000    2.86999989
   14.07833290  122.99900055    4.73999977    2.78999996
   14.08166695  114.24500275    4.90999985    2.75000000
   14.08472157  116.08000183    4.90999985    2.82999992
   14.08805561  113.59300232    4.90999985    2.82999992
   14.09111118  112.89299774    4.90999985    2.91000009
   14.09444427  117.81900024    4.90999985    2.91000009
   14.09777737  117.38200378    4.90999985    2.91000009
   14.10000038  113.07199860    4.90999985    2.93000007
   14.10111141  114.79699707    4.90999985    2.89000010
   14.10444450  113.78399658    4.90999985    2.93000007
   14.11055565  113.78399658    1.55999994    2.89000010
   14.11472225  113.54299927    0.58999997    2.86999989
   14.11805534  114.25299835    0.56999999    2.86999989
   14.12111092  110.70600128    0.56999999    2.84999990
   14.12444496  113.08100128    0.58999997    2.84999990
   14.12750053  114.11100006    0.58999997    2.86999989
   14.13083363  118.50499725    0.63000000    2.86999989
   14.13333321  117.31300354    0.64999998    2.86999989
   14.13444424  116.26799774    0.64999998    2.86999989
   14.13777733  115.06800079    0.67000002    2.86999989
   14.14111137  116.75399780    0.81999999    2.86999989
   14.14416695  117.75099945    1.44000006    2.86999989
   14.14750004  115.83000183    4.86999989    2.76999998
   14.15333271  115.83000183    4.90999985    2.76999998
   14.15749931  119.81800079    4.90999985    2.76999998
   14.16083336  114.24900055    3.18000007    2.84999990
   14.16388893  114.79799652    0.69000000    2.86999989
   14.16666698  118.40899658    0.56999999    2.86999989
   14.16777802  116.18499756    0.56999999    2.86999989
   14.17083359  117.45300293    0.56999999    2.84999990
   14.17416668  115.56500244    0.56999999    2.86999989
   14.17750072  118.46600342    0.56999999    2.86999989
   14.18055630  120.97399902    0.58999997    2.86999989
   14.18388939  121.55100250    0.86000001    2.89000010
   14.18694496  119.64199829    1.94000006    2.86999989
   14.19027805  126.79299927    4.01999998    2.78999996
   14.19638920  126.79299927    4.90999985    2.75000000
   14.20027733  121.95999908    4.61999989    2.82999992
   14.20361137  113.82900238    4.30999994    2.82999992
   14.20694447  109.91799927    2.64000010    2.89000010
   14.21000004  112.04399872    2.34999990    2.89000010
   14.21333313  113.98600006    0.73000002    2.86999989
   14.21666622  112.54599762    0.56999999    2.89000010
   14.21972179  111.03399658    0.56999999    2.86999989
   14.22305489  113.56099701    0.61000001    2.86999989
   14.22611046  111.55100250    0.58999997    2.89000010
   14.22944355  111.16799927    0.58999997    2.86999989
   14.23277760  111.68000031    0.58999997    2.86999989
   14.23333359  112.44400024    0.58999997    2.86999989
   14.23916721  112.44400024    0.55000001    2.86999989
   14.24333382  111.31999969    0.69000000    2.89000010
   14.24638939  110.50499725    4.90999985    2.78999996
   14.24972248  113.29199982    4.36999989    2.82999992
   14.25305557  111.00800323    2.21000004    2.86999989
   14.25611115  117.27799988    1.51999998    2.86999989
   14.25944424  113.16100311    1.38000000    2.86999989
   14.26249981  120.25499725    1.26999998    2.86999989
   14.26583290  118.16799927    1.26999998    2.86999989
   14.26666641  118.55000305    0.92000002    2.86999989
   14.26944447  117.73500061    2.17000008    2.84999990
   14.27250004  119.31700134    2.91000009    2.73000002
   14.27583313  117.10800171    2.21000004    2.84999990
   14.28194427  117.10800171    0.81999999    2.86999989
   14.28611183  118.67500305    0.69000000    2.86999989
   14.28944492  112.98400116    0.67000002    2.86999989
   14.29250050  121.16000366    0.67000002    2.86999989
   14.29583359  120.37200165    0.67000002    2.86999989
   14.29888916  115.30100250    0.67000002    2.86999989
   14.30000019  117.44300079    0.67000002    2.89000010
   14.30277824  111.20099640    0.67000002    2.89000010
   14.30583382  114.17299652    0.67000002    2.89000010
   14.30916691  112.59700012    0.67000002    2.89000010
   14.31222248  106.76100159    0.69000000    2.86999989
   14.31555557  110.73000336    0.69000000    2.89000010
   14.31888866  111.29799652    0.73000002    2.89000010
   14.32472229  111.29799652    0.73000002    2.89000010
   14.32888889  117.03500366    1.33000004    2.89000010
   14.33222198  111.62000275    0.73000002    2.86999989
   14.33333302  111.73100281    0.73000002    2.86999989
   14.33583260  115.41899872    0.73000002    2.89000010
   14.33888817  112.08799744    0.73000002    2.86999989
   14.34222221  117.68199921    0.94000000    2.86999989
   14.34555531  117.20099640    1.23000002    2.89000010
   14.34861088  137.33700562    4.90999985    2.48000002
   14.35194492  119.24099731    4.90999985    2.40000010
   14.35500050  137.94799805    4.90999985    2.51999998
   14.35833359  172.57800293    4.90999985    2.59999990
   14.36166668  152.21200562    4.90999985    1.98000002
   14.36777782  152.21200562    4.90999985    2.44000006
   14.37166691  138.52099609    4.90999985    2.34999990
   14.37500000  112.64199829    4.90999985    2.57999992
   14.37833309  121.27999878    4.90999985    2.48000002
   14.38138866  132.77999878    4.90999985    2.69000006
   14.38472176  116.48400116    4.90999985    2.50000000
   14.38805580  120.05799866    4.90999985    2.86999989
   14.39111137  116.51499939    4.90999985    2.89000010
   14.39444447  126.96600342    4.90999985    2.69000006
   14.39750004  124.00399780    4.90999985    2.51999998
   14.39999962  130.89399719    4.90999985    2.66000009
   14.40138817  120.31999969    4.90999985    2.61999989
   14.40444374  115.08799744    4.90999985    2.82999992
   14.41083336  115.08799744    4.90999985    2.80999994
   14.41499996  113.12699890    4.90999985    2.80999994
   14.41861153  120.65799713    4.90999985    2.67000008
   14.42194462  210.24499512    4.90999985    2.40000010
   14.42500019  134.13800049    4.90999985    2.19000006
   14.42833328  124.49600220    4.90999985    2.82999992
   14.43166733  126.04399872    4.90999985    2.64000010
   14.43333340  131.35800171    4.90999985    2.59999990
   14.43527794  159.99699402    4.90999985    2.55999994
   14.43833351  124.97200012    4.90999985    2.69000006
   14.44166660  117.15499878    4.90999985    2.89000010
   14.44472218  122.72899628    4.90999985    2.80999994
   14.44805527  112.98899841    4.90999985    2.82999992
   14.45333290  112.98899841    0.98000002    2.91000009
   14.45749950  115.65299988    1.03999996    2.86999989
   14.46083355  114.00599670    1.03999996    2.86999989
   14.46388912  120.23300171    0.88000000    2.89000010
   14.46666622  113.34300232    0.94000000    2.89000010
   14.46777725  120.60299683    1.39999998    2.89000010
   14.47083282  120.40599823    1.39999998    2.89000010
   14.47416592  116.08399963    1.48000002    2.89000010
   14.47722149  116.44499969    1.75000000    2.89000010
   14.48055553  121.73300171    1.66999996    2.89000010
   14.48388958  117.96199799    4.90999985    2.91000009
   14.48694515  116.68299866    4.90999985    2.91000009
   14.49027824  116.40000153    3.46000004    2.91000009
   14.49611092  116.40000153    1.09000003    2.89000010
   14.50027752  117.52500153    1.39999998    2.89000010
   14.50361156  116.95999908    1.60000002    2.89000010
   14.50694466  110.37999725    1.14999998    2.86999989
   14.51000023  112.15699768    1.01999998    2.89000010
   14.51333332  114.43599701    1.05999994    2.89000010
   14.51638889  111.66600037    1.11000001    2.89000010
   14.51972198  110.92600250    1.16999996    2.86999989
   14.52305508  114.26100159    1.03999996    2.89000010
   14.52611065  115.20600128    1.05999994    2.89000010
   14.52944374  113.66999817    1.07000005    2.89000010
   14.53277779  113.62200165    1.14999998    2.89000010
   14.53333378  116.70300293    1.14999998    2.89000010
   14.53916740  116.70300293    1.58000004    2.89000010
   14.54305553  119.04799652    1.73000002    2.89000010
   14.54638958  117.71600342    1.51999998    2.86999989
   14.54972267  115.15899658    1.26999998    2.86999989
   14.55277824  117.35199738    1.26999998    2.86999989
   14.55611134  115.72799683    1.33000004    2.89000010
   14.55944443  113.94799805    1.44000006    2.86999989
   14.56250000  118.70800018    1.13000000    2.89000010
   14.56583309  118.93000031    1.03999996    2.89000010
   14.56666660  114.21299744    1.03999996    2.89000010
   14.56944466  117.93399811    1.38000000    2.89000010
   14.57250023  121.63300323    1.30999994    2.86999989
   14.57583332  125.15000153    1.05999994    2.91000009
   14.58194447  125.15000153    0.94000000    2.89000010
   14.58611107  119.40499878    1.01999998    2.89000010
   14.58916664  124.44999695    0.89999998    2.89000010
   14.59249973  124.25099945    0.92000002    2.89000010
   14.59583282  121.30000305    0.95999998    2.89000010
   14.59888840  121.11699677    0.89999998    2.89000010
   14.60000038  125.49700165    0.89999998    2.89000010
   14.60277843  118.62200165    0.86000001    2.89000010
   14.60583401  112.39099884    0.86000001    2.89000010
   14.60916710  119.42900085    0.79000002    2.89000010
   14.61250019  123.42900085    0.80000001    2.89000010
   14.61555576  118.89700317    0.81999999    2.91000009
   14.61888885  116.56500244    0.81999999    2.89000010
   14.62472248  116.56500244    0.83999997    2.89000010
   14.62888908  121.14700317    0.92000002    2.89000010
   14.63222218  117.80300140    0.92000002    2.89000010
   14.63333321  117.21199799    1.00000000    2.89000010
   14.63583279  119.20200348    1.00000000    2.89000010
   14.63888836  116.53600311    1.33000004    2.86999989
   14.64222240  116.46199799    0.98000002    2.89000010
   14.64555550  119.26100159    0.98000002    2.89000010
   14.64861107  119.96700287    0.98000002    2.89000010
   14.65194416  123.14299774    1.01999998    2.89000010
   14.65527725  123.21700287    1.01999998    2.89000010
   14.65833282  116.70200348    1.00000000    2.89000010
   14.66166592  119.15899658    0.94000000    2.89000010
   14.66750050  119.15899658    0.95999998    2.89000010
   14.67166710  125.98300171    0.98000002    2.89000010
   14.67500019  116.55100250    0.98000002    2.89000010
   14.67805576  117.59400177    0.92000002    2.89000010
   14.68138885  125.12999725    1.00000000    2.89000010
   14.68472195  129.76899719    1.13000000    2.89000010
   14.68777752  126.52700043    2.73000002    2.86999989
   14.69111156  122.42900085    3.23000002    2.89000010
   14.69416714  121.51499939    1.28999996    2.89000010
   14.69750023  119.52500153    1.16999996    2.89000010
   14.69999981  114.34200287    1.14999998    2.89000010
   14.70111084  111.59899902    1.14999998    2.89000010
   14.70416641  110.87100220    1.13000000    2.89000010
   14.71027756  110.87100220    1.11000001    2.91000009
   14.71444416  113.45999908    1.13000000    2.91000009
   14.71777725  117.56800079    1.30999994    2.89000010
   14.72111034  112.77799988    1.30999994    2.89000010
   14.72416592  112.21800232    1.26999998    2.89000010
   14.72749996  118.76799774    1.23000002    2.86999989
   14.73055553  115.88400269    1.21000004    2.91000009
   14.73333359  115.96399689    1.16999996    2.89000010
   14.73444462  112.32499695    1.16999996    2.89000010
   14.73750019  117.19100189    1.13000000    2.89000010
   14.74083328  117.62100220    1.11000001    2.89000010
   14.74416733  119.40499878    1.11000001    2.91000009
   14.74722290  115.27300262    1.11000001    2.91000009
   14.75333309  115.27300262    1.09000003    2.91000009
   14.75749969  120.43099976    1.11000001    2.89000010
   14.76055527  125.38999939    1.11000001    2.89000010
   14.76388931  123.47299957    1.14999998    2.89000010
   14.76666641  122.97499847    1.21000004    2.86999989
   14.76749992  125.10800171    1.21000004    2.86999989
   14.77055550  124.38300323    1.13000000    2.89000010
   14.77388859  124.88899994    1.19000006    2.91000009
   14.77722168  122.44999695    2.17000008    2.84999990
   14.78027725  130.02799988    2.82999992    2.91000009
   14.78361130  121.74299622    4.90999985    2.80999994
   14.78694534  568.10498047    4.90999985    2.50000000
   14.78888893  189.51600647    4.90999985    1.88000000
   14.78888893  130.02799988    2.82999992    2.91000009
   14.78888893  121.74299622    4.90999985    2.80999994
   14.78888893  568.10498047    4.90999985    2.50000000
   14.78916740  125.38999939    1.11000001    2.89000010
   14.78916740  123.47299957    1.14999998    2.89000010
   14.78916740  125.10800171    1.21000004    2.86999989
   14.78916740  124.38300323    1.13000000    2.89000010
   14.78944492  124.88899994    1.19000006    2.91000009
   14.78944492  122.44999695    2.17000008    2.84999990
   14.79138947  121.78700256    4.90999985    2.19000006
   14.79444504   -1.00000000    4.90999985    1.53999996
   14.79777813   -1.00000000    4.90999985    0.70999998
   14.80111122   -1.00000000    4.90999985    0.89999998
   14.80416679   -1.00000000    4.90999985    0.52999997
   14.81361103   -1.00000000    4.90999985    1.38000000
   14.81694412   -1.00000000    4.90999985    1.69000006
   14.82027817   -1.00000000    4.90999985    1.21000004
   14.82277775  145.58999634    4.90999985    1.50000000
   14.82361126  137.29899597    4.90999985    1.76999998
   14.82694435  199.08999634    4.90999985    1.91999996
   14.83027744  119.32900238    4.90999985    2.69000006
   14.83333302  122.25599670    3.41000009    2.93000007
   14.85388947  122.25599670    0.89999998    2.89000010
   14.85805607  122.59400177    0.92000002    2.89000010
   14.86138916  116.77700043    0.95999998    2.89000010
   14.86472225  119.23699951    0.98000002    2.89000010
   14.86777782  182.13000488    1.00000000    2.89000010
   14.87111092  125.08100128    1.01999998    2.89000010
   14.87416649  119.28600311    1.03999996    2.89000010
   14.87750053  120.56400299    1.03999996    2.89000010
   14.88083363  116.26300049    1.01999998    2.89000010
   14.88388920  118.01999664    1.01999998    2.89000010
   14.88722229  117.63500214    1.07000005    2.89000010
   14.88972187  119.40599823    1.07000005    2.91000009
   14.89083290  117.84700012    1.07000005    2.91000009
   14.89666653  117.84700012    1.09000003    2.89000010
   14.90083313  117.97100067    1.07000005    2.89000010
   14.90416622  117.59100342    1.09000003    2.89000010
   14.90722179  122.50700378    1.14999998    2.91000009
   14.91055489  114.53800201    1.14999998    2.91000009
   14.91388893  120.50499725    1.14999998    2.89000010
   14.91694450  120.95400238    1.14999998    2.89000010
   15.02305508   -1.00000000   -1.00000000   -1.00000000
   15.17472267   -1.00000000   -1.00000000   -1.00000000
   15.29638958   -1.00000000   -1.00000000   -1.00000000
   15.42750072   76.89019775    1.00000000    2.91000009
   15.43083382  115.55500031    0.98000002    2.91000009
   15.43416691  119.76999664    0.95999998    2.89000010
   15.43722248  118.46099854    0.94000000    2.91000009
   15.44055557  125.20500183    0.95999998    2.91000009
   15.44388866  123.46600342    0.94000000    2.91000009
   15.44777775  123.46600342    0.94000000    2.91000009
   15.45194435  120.09999847    0.94000000    2.91000009
   15.45527744  124.55300140    0.94000000    2.91000009
   15.45861053  125.80500031    0.94000000    2.91000009
   15.46083355  122.42600250    0.94000000    2.91000009
   15.46194458  118.72100067    0.94000000    2.91000009
   15.46527767  119.30799866    0.95999998    2.93000007
   15.46833324  122.19799805    1.00000000    2.91000009
   15.47166634  121.59400177    1.01999998    2.91000009
   15.47472191  126.65799713    1.07000005    2.91000009
   15.47805500  120.60600281    1.07000005    2.91000009
   15.48138809  120.49800110    1.03999996    2.91000009
   15.48444462  123.52600098    1.03999996    2.91000009
   15.49083328  123.52600098    1.05999994    2.91000009
   15.49499989  124.22799683    1.05999994    2.91000009
   15.49805546  117.33599854    1.01999998    2.91000009
   15.50138855  122.04100037    1.03999996    2.91000009
   15.50444412  117.45600128    1.01999998    2.91000009
   15.50777817  120.17199707    1.01999998    2.91000009
   15.51111126  117.88999939    0.89999998    2.91000009
   15.51416683  118.54699707    0.86000001    2.91000009
   15.51749992  118.07700348    0.86000001    2.91000009
   15.52083302  119.65799713    0.86000001    2.91000009
   15.52388859  119.01999664    0.80000001    2.91000009
   15.52722168  115.74400330    0.76999998    2.93000007
   15.52777767  117.86900330    0.76999998    2.93000007
   15.53361130  117.86900330    0.75000000    2.91000009
   15.53777790  117.48400116    0.73000002    2.91000009
   15.54083347  116.89600372    0.70999998    2.91000009
   15.54416752  116.06300354    0.67000002    2.91000009
   15.54750061  115.37999725    0.67000002    2.91000009
   15.55055618  119.93599701    0.67000002    2.91000009
   15.55388927  116.90899658    0.67000002    2.91000009
   15.55722237  116.77500153    0.67000002    2.91000009
   15.56027794  111.20200348    0.67000002    2.91000009
   15.56111145  118.29199982    0.67000002    2.91000009
   15.56388950  117.62799835    0.69000000    2.91000009
   15.56722260  118.16600037    0.70999998    2.91000009
   15.57055569  122.89600372    0.70999998    2.91000009
   15.57638836  122.89600372    0.70999998    2.93000007
   15.58055592  123.76399994    0.69000000    2.91000009
   15.58388901  118.93299866    0.69000000    2.91000009
   15.58694458  111.41500092    0.73000002    2.93000007
   15.59027767  126.38400269    0.73000002    2.93000007
   15.59361076  124.28600311    0.75000000    2.91000009
   15.59444427  121.47799683    0.75000000    2.91000009
   15.59722233  123.13300323    0.73000002    2.91000009
   15.60027790  117.00700378    0.73000002    2.91000009
   15.60361195  118.65599823    0.73000002    2.91000009
   15.60694504  112.14399719    0.73000002    2.91000009
   15.61000061  116.99800110    0.75000000    2.91000009
   15.61333370  114.11399841    0.73000002    2.91000009
   15.61916637  114.11399841    0.75000000    2.91000009
   15.62333393  109.80100250    0.75000000    2.91000009
   15.62666702  119.83000183    0.75000000    2.91000009
   15.62777805  109.78500366    0.75000000    2.91000009
   15.63027763  114.46399689    0.75000000    2.91000009
   15.63333321  114.10700226    0.75000000    2.93000007
   15.63666630  115.01499939    0.75000000    2.93000007
   15.63972187  113.85199738    0.76999998    2.93000007
   15.64305496  113.06400299    0.79000002    2.93000007
   15.64638901  115.44200134    0.76999998    2.91000009
   15.64944458  117.35500336    0.76999998    2.91000009
   15.65277767  112.36199951    0.76999998    2.93000007
   15.65611076  115.43599701    0.76999998    2.93000007
   15.66222191  115.43599701    0.79000002    2.91000009
   15.66638851  118.02899933    0.76999998    2.91000009
   15.66944504  119.87899780    0.79000002    2.93000007
   15.67277813  117.59300232    0.79000002    2.93000007
   15.67583370  114.36599731    0.83999997    2.91000009
   15.67916679  120.82099915    0.89999998    2.91000009
   15.68249989  116.11799622    0.92000002    2.91000009
   15.68555546  118.50399780    0.81999999    2.91000009
   15.68888855  116.22799683    0.81999999    2.91000009
   15.69222260  112.24900055    0.81999999    2.93000007
   15.69444466  113.70999908    0.80000001    2.93000007
   15.69583321  120.18900299    0.80000001    2.93000007
   15.69888878  112.78199768    0.83999997    2.91000009
   15.70499992  112.78199768    0.76999998    2.91000009
   15.70916653  118.14299774    0.76999998    2.93000007
   15.71222210  119.32900238    0.76999998    2.93000007
   15.71555519  113.08999634    0.76999998    2.93000007
   15.71861076  116.26999664    0.75000000    2.93000007
   15.72194386  113.87999725    0.75000000    2.93000007
   15.72527695  117.75700378    0.75000000    2.93000007
   15.72777748  117.63300323    0.75000000    2.93000007
   15.72861099  114.16600037    0.75000000    2.93000007
   15.73194408  115.17800140    0.75000000    2.93000007
   15.73527813  119.73500061    0.75000000    2.91000009
   15.73833370  112.67099762    0.76999998    2.91000009
   15.74166679  113.60900116    0.76999998    2.91000009
   15.74777794  113.60900116    0.76999998    2.91000009
   15.75194454  114.65299988    0.76999998    2.93000007
   15.75500011  111.05000305    0.76999998    2.91000009
   15.75833321  113.03500366    0.75000000    2.91000009
   15.76138878  109.46499634    0.73000002    2.91000009
   15.76222229  111.04799652    0.73000002    2.91000009
   15.76555538  118.13800049    0.73000002    2.93000007
   15.76888847  116.04599762    0.73000002    2.91000009
   15.77194405  116.72299957    0.75000000    2.91000009
   15.77527714  116.36699677    0.75000000    2.91000009
   15.77833271  111.56900024    0.73000002    2.91000009
   15.78166676  114.10500336    0.75000000    2.93000007
   15.78500080  111.23799896    0.75000000    2.91000009
   15.79055595  111.23799896    0.73000002    2.91000009
   15.79472256  113.84300232    0.73000002    2.91000009
   15.79805565  115.29100037    0.73000002    2.93000007
   15.80111122  109.28299713    0.75000000    2.93000007
   15.80444431  114.98400116    0.75000000    2.91000009
   15.80777836  110.33899689    0.75000000    2.93000007
   15.81083393  113.20999908    0.75000000    2.93000007
   15.81416702  117.16000366    0.73000002    2.91000009
   15.81722260  115.43399811    0.73000002    2.93000007
   15.82055569  114.89399719    0.73000002    2.93000007
   15.82388878  112.39399719    0.70999998    2.93000007
   15.82722187  116.87599945    0.70999998    2.93000007
   15.82777786  115.24400330    0.70999998    2.93000007
   15.83361053  115.24400330    0.69000000    2.91000009
   15.83749962  120.90399933    0.69000000    2.91000009
   15.84083271  116.09799957    0.64999998    2.91000009
   15.84416676  112.26799774    0.63000000    2.91000009
   15.84722233  115.42900085    0.63000000    2.93000007
   15.85055637  114.71600342    0.61000001    2.93000007
   15.85361195  109.05400085    0.61000001    2.93000007
   15.85694504  114.49500275    0.63000000    2.93000007
   15.86027813  111.90799713    0.63000000    2.93000007
   15.86111164  112.27200317    0.64999998    2.91000009
   15.86388969  117.04100037    0.64999998    2.91000009
   15.86694431  114.14900208    0.67000002    2.91000009
   15.87027836  111.45200348    0.67000002    2.91000009
   15.87638855  111.45200348    0.64999998    2.93000007
   15.88055611  118.37400055    0.63000000    2.93000007
   15.88361073  112.56800079    0.63000000    2.93000007
   15.88694477  114.23100281    0.61000001    2.93000007
   15.89027786  114.01599884    0.61000001    2.93000007
   15.89333344  114.24099731    0.61000001    2.93000007
   15.89444447  116.40100098    0.61000001    2.93000007
   15.89722252  112.57900238    0.63000000    2.93000007
   15.90027714  114.97399902    0.64999998    2.93000007
   15.90361118  111.91899872    0.64999998    2.91000009
   15.90694427  112.96199799    0.64999998    2.91000009
   15.90999985  111.62500000    0.67000002    2.93000007
   15.91333294  111.92900085    0.67000002    2.93000007
   15.91916656  111.92900085    0.67000002    2.91000009
   15.92333412  109.27799988    0.67000002    2.93000007
   15.92666721  115.44899750    0.67000002    2.93000007
   15.92777824  111.13099670    0.67000002    2.93000007
   15.93027782  111.83899689    0.67000002    2.91000009
   15.93333340  106.54799652    0.67000002    2.91000009
   15.93666649  109.80599976    0.67000002    2.93000007
   15.93972206  111.70500183    0.67000002    2.93000007
   15.94305515  113.05699921    0.67000002    2.91000009
   15.94638920  118.40399933    0.67000002    2.93000007
   15.94944477  114.28299713    0.67000002    2.91000009
   15.95277786  112.34600067    0.64999998    2.93000007
   15.95611095  110.13300323    0.64999998    2.93000007
   15.96194458  110.13300323    0.64999998    2.91000009
   15.96611118  117.48600006    0.64999998    2.93000007
   15.96944427  114.29000092    0.64999998    2.93000007
   15.97277737  112.77899933    0.64999998    2.93000007
   15.97583294  119.44000244    0.63000000    2.93000007
   15.97916603  114.27600098    0.63000000    2.93000007
   15.98222160  116.81099701    0.63000000    2.93000007
   15.98555565  117.03900146    0.63000000    2.93000007
   15.98888874  114.04599762    0.63000000    2.93000007
   15.99194431  122.06900024    0.67000002    2.93000007
   15.99444485  112.44300079    0.67000002    2.93000007
   15.99583340  115.66699982    0.64999998    2.91000009
   15.99888897  113.47100067    0.67000002    2.93000007
   16.00499916  113.47100067    0.64999998    2.93000007
   16.00916672  117.84500122    0.64999998    2.91000009
   16.01222229  116.75099945    0.67000002    2.91000009
   16.01555634  115.05699921    0.64999998    2.93000007
   16.01861000  109.94999695    0.64999998    2.91000009
   16.02194405  107.51999664    0.64999998    2.93000007
   16.02527809  116.72799683    0.64999998    2.93000007
   16.02777672  119.81199646    0.64999998    2.93000007
   16.02888870  117.95300293    0.64999998    2.93000007
   16.03194427  115.26200104    0.64999998    2.93000007
   16.03527641  116.66899872    0.64999998    2.93000007
   16.03861046  114.91100311    0.64999998    2.93000007
   16.04166603  113.80300140    0.64999998    2.93000007
   16.04777718  113.80300140    0.64999998    2.91000009
   16.05194283  117.80400085    0.67000002    2.91000009
   16.05499840  113.70899963    0.67000002    2.91000009
   16.05833244  114.32599640    0.69000000    2.91000009
   16.06110954  119.28600311    0.69000000    2.91000009
   16.06194305  112.91799927    0.69000000    2.93000007
   16.06499863  116.34799957    0.69000000    2.93000007
   16.06833458  116.78600311    0.70999998    2.93000007
   16.07139015  114.76899719    0.69000000    2.93000007
   16.07472229  110.25900269    0.69000000    2.93000007
   16.07805634  118.03600311    0.67000002    2.93000007
   16.08111191  119.55100250    0.64999998    2.93000007
   16.08444595  117.19499969    0.64999998    2.93000007
   16.09055710  117.19499969    0.67000002    2.93000007
   16.09472275  112.92500305    0.67000002    2.93000007
   16.09805679  111.64600372    0.67000002    2.93000007
   16.10111237  114.64700317    0.67000002    2.93000007
   16.10444450  109.71600342    0.70999998    2.93000007
   16.10750008  118.39099884    0.70999998    2.93000007
   16.11083412  115.17099762    0.70999998    2.93000007
   16.11416626  112.00700378    0.67000002    2.93000007
   16.11722183  120.05300140    0.64999998    2.93000007
   16.12055588  119.49700165    0.63000000    2.93000007
   16.12388992  117.74500275    0.61000001    2.93000007
   16.12694550  111.72699738    0.61000001    2.93000007
   16.12805557  113.72499847    0.61000001    2.93000007
   16.13333321  113.72499847    0.61000001    2.93000007
   16.13750076  120.76499939    0.61000001    2.93000007
   16.14083290  113.97399902    0.63000000    2.93000007
   16.14416695  115.00800323    0.63000000    2.93000007
   16.14722252  113.94899750    0.63000000    2.93000007
   16.15055466  111.41500092    0.67000002    2.91000009
   16.15361023  114.44200134    0.67000002    2.91000009
   16.15694427  111.83399963    0.64999998    2.93000007
   16.16027832  111.22899628    0.64999998    2.93000007
   16.16110992  115.34300232    0.64999998    2.93000007
   16.16388893  112.74800110    0.64999998    2.93000007
   16.16694450  114.37899780    0.64999998    2.93000007
   16.17027664  115.59200287    0.67000002    2.93000007
   16.17638779  115.59200287    0.69000000    2.93000007
   16.18055534  112.92199707    0.73000002    2.93000007
   16.18361092  118.55100250    0.76999998    2.91000009
   16.18694305  113.65699768    0.76999998    2.91000009
   16.18999863  111.25399780    0.70999998    2.91000009
   16.19333267  111.34400177    0.69000000    2.93000007
   16.19444275  113.83599854    0.69000000    2.93000007
   16.19694328  110.18499756    0.64999998    2.93000007
   16.20000076  111.23500061    0.63000000    2.93000007
   16.20333481  114.88899994    0.64999998    2.93000007
   16.20666695  111.99800110    0.64999998    2.93000007
   16.20972252  115.02600098    0.63000000    2.91000009
   16.21305656  117.03500366    0.61000001    2.94000006
   16.21916771  117.03500366    0.56999999    2.93000007
   16.22333336  115.92400360    0.55000001    2.93000007
   16.22638893  111.47000122    0.55000001    2.93000007
   16.22777748  111.42900085    0.52999997    2.93000007
   16.23027802  112.50099945    0.52999997    2.93000007
   16.23333359  110.57099915    0.51999998    2.93000007
   16.23666763  109.55999756    0.51999998    2.91000009
   16.23999977  112.21900177    0.52999997    2.93000007
   16.24305534  110.39800262    0.52999997    2.93000007
   16.24638939  109.79100037    0.52999997    2.93000007
   16.24944496  115.09799957    0.52999997    2.93000007
   16.25277710  110.40599823    0.52999997    2.93000007
   16.25611115  113.05699921    0.52999997    2.93000007
   16.26194382  113.05699921    0.55000001    2.93000007
   16.26611137  113.03500366    0.55000001    2.93000007
   16.26944351  113.72200012    0.55000001    2.93000007
   16.27249908  112.05699921    0.55000001    2.93000007
   16.27583313  115.09999847    0.56999999    2.91000009
   16.27916718  121.01399994    0.56999999    2.91000009
   16.28222275  110.99600220    0.56999999    2.91000009
   16.28555489  105.93699646    0.61000001    2.93000007
   16.28861046  111.58300018    0.61000001    2.93000007
   16.29194450  110.65699768    0.61000001    2.93000007
   16.29444313  113.52700043    0.63000000    2.93000007
   16.29555511  113.23799896    0.63000000    2.93000007
   16.29861069  112.62300110    0.61000001    2.93000007
   16.30472183  112.62300110    0.58999997    2.93000007
   16.30888748  112.36000061    0.58999997    2.93000007
   16.31222153  122.03900146    0.58999997    2.91000009
   16.31555557  112.42199707    0.58999997    2.93000007
   16.31861115  120.92400360    0.58999997    2.93000007
   16.32194519  114.95899963    0.58999997    2.93000007
   16.32500076  119.75099945    0.58999997    2.93000007
   16.32777786  111.14700317    0.61000001    2.93000007
   16.32888985  111.74400330    0.61000001    2.93000007
   16.33194542  111.35600281    0.64999998    2.93000007
   16.33527756  116.05500031    0.61000001    2.91000009
   16.33861160  118.32199860    0.58999997    2.93000007
   16.34166718  116.77300262    0.58999997    2.93000007
   16.34777832  116.77300262    0.61000001    2.91000009
   16.35194397  109.32700348    0.63000000    2.93000007
   16.35499954  113.26000214    0.61000001    2.93000007
   16.35833359  115.33899689    0.58999997    2.93000007
   16.36111069  109.50099945    0.58999997    2.93000007
   16.36194420  114.08100128    0.58999997    2.93000007
   16.36527824  111.91999817    0.56999999    2.93000007
   16.36833382  113.07299805    0.56999999    2.93000007
   16.37166595  116.73200226    0.56999999    2.93000007
   16.37472153  113.25700378    0.58999997    2.91000009
   16.37805557  112.15299988    0.51999998    2.91000009
   16.38138962  110.14499664    0.51999998    2.91000009
   16.38444519  110.67900085    0.51999998    2.93000007
   16.39055634  110.67900085    0.50000000    2.93000007
   16.39472198  118.67299652    0.50000000    2.93000007
   16.39777756  115.36900330    0.51999998    2.93000007
   16.40111160  115.68699646    0.55000001    2.91000009
   16.40444374  116.46399689    0.55000001    2.93000007
   16.40749931  112.78600311    0.55000001    2.93000007
   16.41083336  114.42800140    0.52999997    2.93000007
   16.41416550  111.66899872    0.52999997    2.93000007
   16.41722107  111.44699860    0.55000001    2.93000007
   16.42055511  111.15100098    0.55000001    2.93000007
   16.42361069  113.39900208    0.52999997    2.93000007
   16.42694473  128.65199280    0.52999997    2.93000007
   16.42777634  115.61499786    0.52999997    2.93000007
   16.44861031  115.61499786    0.55000001    2.93000007
   16.45277786  113.27300262    0.52999997    2.93000007
   16.45583344  115.52200317    0.52999997    2.93000007
   16.45916748  107.59600067    0.55000001    2.93000007
   16.46111107  111.32700348    0.55000001    2.93000007
   16.46277809  108.06199646    0.56999999    2.93000007
   16.46583366  112.51200104    0.56999999    2.91000009
   16.46916771  109.98100281    0.56999999    2.91000009
   16.47249985  106.50099945    0.56999999    2.93000007
   16.47555542  108.00599670    0.56999999    2.93000007
   16.47888947  111.62999725    0.56999999    2.93000007
   16.48222351  115.20600128    0.56999999    2.93000007
   16.48527718  111.32599640    0.56999999    2.93000007
   16.49138832  111.32599640    0.56999999    2.91000009
   16.49555588  112.34600067    0.56999999    2.91000009
   16.49861145  119.84500122    0.56999999    2.93000007
   16.50194359  112.03299713    0.55000001    2.93000007
   16.50499916  113.39499664    0.55000001    2.93000007
   16.50833321  110.80200195    0.56999999    2.94000006
   16.51166725  114.61299896    0.56999999    2.94000006
   16.51472282  112.50900269    0.56999999    2.93000007
   16.51805496  114.63800049    0.58999997    2.94000006
   16.52111053  113.04699707    0.58999997    2.93000007
   16.52444458  111.49400330    0.61000001    2.91000009
   16.52777672  113.21900177    0.61000001    2.93000007
   16.52833366  110.27700043    0.61000001    2.93000007
   16.53416634  110.27700043    0.67000002    2.94000006
   16.53833199  108.91300201    0.73000002    2.91000009
   16.54138756  113.11399841    0.79000002    2.93000007
   16.54472160  111.13600159    0.83999997    2.93000007
   16.54805565  113.03700256    0.75000000    2.94000006
   16.55111122  110.45999908    0.64999998    2.93000007
   16.55444336  108.41600037    0.64999998    2.93000007
   16.55749893  117.77799988    0.67000002    2.93000007
   16.56083298  112.83100128    0.67000002    2.93000007
   16.56166649  109.81300354    0.67000002    2.91000009
   16.56444359  112.86499786    0.67000002    2.91000009
   16.56777954  109.29900360    0.69000000    2.93000007
   16.57083511  110.29100037    0.67000002    2.93000007
   16.57694626  110.29100037    0.75000000    2.93000007
   16.58111191  113.43399811    0.75000000    2.93000007
   16.58444595  115.88200378    0.69000000    2.93000007
   16.58750153  116.88800049    0.69000000    2.93000007
   16.59083366  120.02700043    0.75000000    2.91000009
   16.59388924  117.47899628    0.70999998    2.93000007
   16.59500122  114.75700378    0.70999998    2.93000007
   16.59777832  113.70999908    0.69000000    2.93000007
   16.60083389  115.38099670    0.63000000    2.93000007
   16.60416794  115.85500336    0.63000000    2.93000007
   16.60750008  115.56800079    0.67000002    2.93000007
   16.61055565  113.05200195    0.69000000    2.93000007
   16.61388969  115.27300262    0.69000000    2.93000007
   16.61972237  115.27300262    0.76999998    2.93000007
   16.62388992  112.64399719    0.83999997    2.93000007
   16.62722206  109.34200287    0.80000001    2.93000007
   16.62833405  109.92800140    0.80000001    2.93000007
   16.63055611  112.60199738    0.80000001    2.93000007
   16.63388824  108.34799957    0.79000002    2.93000007
   16.63694382  109.99600220    0.73000002    2.93000007
   16.64027786  112.23300171    0.73000002    2.93000007
   16.64361191  111.29199982    0.69000000    2.93000007
   16.64666748  119.73400116    0.69000000    2.93000007
   16.64999962  118.71299744    0.73000002    2.93000007
   16.65333366  114.89199829    0.70999998    2.93000007
   16.65638924  113.38800049    0.69000000    2.93000007
   16.66277695  113.38800049    0.70999998    2.93000007
   16.66666603  114.25299835    0.70999998    2.93000007
   16.67000008  108.42500305    0.73000002    2.93000007
   16.67333221  117.76499939    0.73000002    2.93000007
   16.67638779  114.63200378    0.73000002    2.91000009
   16.67972183  113.16100311    0.73000002    2.93000007
   16.68277740  112.62100220    0.73000002    2.93000007
   16.68610954  114.12400055    0.73000002    2.93000007
   16.68944359  107.17900085    0.70999998    2.93000007
   16.69249916  120.26999664    0.70999998    2.93000007
   16.69499969  112.72100067    0.69000000    2.93000007
   16.69610977  113.78900146    0.69000000    2.93000007
   16.69944382  113.14099884    0.70999998    2.93000007
   16.70555687  113.14099884    0.73000002    2.93000007
   16.70972252  110.78399658    0.75000000    2.93000007
   16.71277809  109.23999786    0.76999998    2.93000007
   16.71611214  114.51200104    0.73000002    2.93000007
   16.71916771  111.12899780    0.73000002    2.93000007
   16.72249985  114.63600159    0.69000000    2.93000007
   16.72583389  111.14299774    0.64999998    2.93000007
   16.72833443  111.03399658    0.64999998    2.93000007
   16.72916794  110.57700348    0.64999998    2.93000007
   16.73250008  118.88500214    0.63000000    2.93000007
   16.73555565  111.36599731    0.61000001    2.93000007
   16.73888969  112.26899719    0.61000001    2.93000007
   16.74222183  111.34100342    0.61000001    2.93000007
   16.74833298  111.34100342    0.61000001    2.93000007
   16.75250053  112.15100098    0.63000000    2.93000007
   16.75555611  114.40299988    0.63000000    2.93000007
   16.75888824  110.89900208    0.64999998    2.93000007
   16.76166725  114.39600372    0.64999998    2.93000007
   16.76250076  113.72599792    0.64999998    2.93000007
   16.76583290  110.10199738    0.67000002    2.93000007
   16.76888847  110.83899689    0.67000002    2.93000007
   16.77222252  110.44000244    0.67000002    2.93000007
   16.77555466  111.32900238    0.64999998    2.93000007
   16.77861023  109.39600372    0.64999998    2.93000007
   16.78194427  110.08499908    0.67000002    2.93000007
   16.78527641  107.61000061    0.69000000    2.93000007
   16.79111099  107.61000061    0.67000002    2.93000007
   16.79527664  113.97899628    0.64999998    2.93000007
   16.79861069  114.14800262    0.67000002    2.93000007
   16.80166626  112.90299988    0.69000000    2.93000007
   16.80499840  113.15000153    0.69000000    2.93000007
   16.80833244  113.91000366    0.69000000    2.93000007
   16.81138802  112.63700104    0.64999998    2.93000007
   16.81472206  110.41400146    0.67000002    2.93000007
   16.81777954  116.47299957    0.67000002    2.93000007
   16.82111168  113.68000031    0.67000002    2.93000007
   16.82444572  114.68299866    0.67000002    2.93000007
   16.82750130  117.71900177    0.61000001    2.93000007
   16.82833481  114.17099762    0.61000001    2.93000007
   16.83388901  114.17099762    0.58999997    2.93000007
   16.83805656  113.34400177    0.58999997    2.94000006
   16.84138870  114.08399963    0.58999997    2.93000007
   16.84472275  113.04599762    0.56999999    2.93000007
   16.84777832  118.11299896    0.61000001    2.93000007
   16.85111237  114.98000336    0.61000001    2.93000007
   16.85416794  114.98600006    0.63000000    2.93000007
   16.85750008  111.71800232    0.63000000    2.93000007
   16.86083412  116.61799622    0.61000001    2.93000007
   16.86166763  112.11499786    0.61000001    2.93000007
   16.86416626  116.08000183    0.61000001    2.93000007
   16.86750031  112.65599823    0.58999997    2.93000007
   16.87083435  115.72799683    0.63000000    2.93000007
   16.87694550  115.72799683    0.67000002    2.93000007
   16.88111115  117.73300171    0.63000000    2.93000007
   16.88416672  115.86699677    0.63000000    2.93000007
   16.88750076  114.50099945    0.61000001    2.93000007
   16.89055634  114.86599731    0.61000001    2.93000007
   16.89388847  115.41400146    0.63000000    2.93000007
   16.89500046  113.70099640    0.63000000    2.93000007
   16.89749908  113.71800232    0.61000001    2.93000007
   16.90083313  119.17199707    0.63000000    2.94000006
   16.90416718  112.56800079    0.64999998    2.93000007
   16.90722275  114.14199829    0.64999998    2.93000007
   16.91055489  112.71099854    0.64999998    2.93000007
   16.91361046  108.09400177    0.64999998    2.93000007
   16.91972160  108.09400177    0.70999998    2.93000007
   16.92388916  119.77400208    0.70999998    2.93000007
   16.92694473  110.39800262    0.73000002    2.93000007
   16.92833328  114.18800354    0.73000002    2.93000007
   16.93055534  124.02899933    0.73000002    2.93000007
   16.93388748  111.24400330    0.75000000    2.93000007
   16.93722153  112.98899841    0.75000000    2.93000007
   16.94027710  115.22499847    0.76999998    2.93000007
   16.94361115  114.62200165    0.76999998    2.93000007
   16.94694328  114.31300354    0.76999998    2.93000007
   16.95000076  113.90399933    0.79000002    2.93000007
   16.95333481  112.92900085    0.79000002    2.93000007
   16.95639038  114.99199677    0.76999998    2.93000007
   16.96250153  114.99199677    0.73000002    2.93000007
   16.96666718  107.98899841    0.70999998    2.93000007
   16.97000122  111.31900024    0.73000002    2.93000007
   16.97305679  111.82900238    0.73000002    2.93000007
   16.97638893  119.46099854    0.88000000    2.94000006
   16.97972298  114.90200043    1.00000000    2.93000007
   16.98277855  110.07900238    1.00000000    2.93000007
   16.98611069  109.19200134    0.81999999    2.93000007
   16.98944473  111.12400055    2.17000008    2.91000009
   16.99250031  137.41900635    4.46999979    2.91000009
   16.99500084  134.36099243    4.90999985    2.55999994
   16.99611092  153.61000061    4.90999985    2.69000006
   16.99944496  211.97599792    4.90999985    2.28999996
   17.00527763  211.97599792    4.90999985    2.40000010
   17.00944519  121.00800323    4.90999985    2.69000006
   17.01277733  118.84500122    4.90999985    2.71000004
   17.01611137  115.78700256    4.90999985    2.89000010
   17.01916695  115.40699768    1.34000003    2.91000009
   17.02249908  111.86100006    1.60000002    2.93000007
   17.02555466  112.84400177    1.88000000    2.91000009
   17.02833366  114.67299652    1.34000003    2.93000007
   17.02916718  115.47200012    1.34000003    2.93000007
   17.03249931  114.18699646    1.19000006    2.91000009
   17.03583336  111.65399933    0.86000001    2.93000007
   17.03888893  113.88200378    0.83999997    2.93000007
   17.04222107  114.69699860    0.83999997    2.93000007
   17.04833221  114.69699860    0.94000000    2.93000007
   17.05249977  116.07599640    0.89999998    2.93000007
   17.05555534  114.61499786    0.86000001    2.91000009
   17.05888748  141.94200134    0.86000001    2.91000009
   17.06166649  152.73199463    1.41999996    2.91000009
   17.06222153  139.37500000    4.90999985    2.57999992
   17.06555557   -1.00000000    4.90999985    2.36999989
   17.06888962   -1.00000000    4.90999985    1.13000000
   17.07194519   -1.00000000    4.90999985    2.00000000
   17.07527924  231.71699524    4.90999985    1.73000002
   17.07833481  206.01100159    4.90999985    2.50000000
   17.08166695  112.95899963    4.90999985    2.89000010
   17.08500099  117.06099701    3.50000000    2.91000009
   17.09111214  117.06099701    2.69000006    2.86999989
   17.09527779  113.83399963    1.53999996    2.93000007
   17.09833336  111.77200317    1.01999998    2.93000007
   17.10166740  109.54799652    1.13000000    2.91000009
   17.10499954  113.99199677    0.73000002    2.93000007
   17.10805511  111.04599762    0.70999998    2.93000007
   17.11138916  118.86000061    0.70999998    2.93000007
   17.11472321  117.06999969    0.95999998    2.93000007
   17.11777878  119.54299927    0.76999998    2.91000009
   17.12111092  120.48000336    0.70999998    2.93000007
   17.12444496  112.66000366    0.73000002    2.93000007
   17.12750053  115.04900360    0.75000000    2.93000007
   17.12833405  113.44599915    0.75000000    2.93000007
   17.13388824  113.44599915    0.75000000    2.93000007
   17.13805580  116.77799988    0.75000000    2.93000007
   17.14138794  112.17800140    0.92000002    2.93000007
   17.14444351  113.78500366    1.05999994    2.91000009
   17.14777756  112.02899933    1.05999994    2.91000009
   17.15083313  109.53199768    0.81999999    2.93000007
   17.15416718  113.73999786    0.75000000    2.93000007
   17.15749931  111.06600189    0.75000000    2.93000007
   17.16055489  110.01799774    0.75000000    2.93000007
   17.16166687  110.41999817    0.75000000    2.93000007
   17.16444397  111.95700073    0.73000002    2.93000007
   17.16749954  112.08999634    0.73000002    2.93000007
   17.17083359  109.05400085    0.73000002    2.93000007
   17.17666626  109.05400085    0.73000002    2.93000007
   17.18083191  108.12400055    0.73000002    2.93000007
   17.18416595  111.41699982    0.75000000    2.94000006
   17.18722153  112.47599792    0.76999998    2.93000007
   17.19055557  112.36499786    0.79000002    2.93000007
   17.19388771  115.37300110    0.79000002    2.93000007
   17.19499969  114.13300323    0.79000002    2.93000007
   17.19722176  120.41699982    0.79000002    2.93000007
   17.20055580  114.88700104    0.80000001    2.93000007
   17.20388985  116.86399841    0.80000001    2.91000009
   17.20694542  111.54499817    0.80000001    2.93000007
   17.21083450  113.36100006    0.80000001    2.93000007
   17.21389008  114.29599762    0.80000001    2.93000007
   17.22000122  114.29599762    0.80000001    2.93000007
   17.22416687  112.89800262    0.86000001    2.93000007
   17.22750092  112.07800293    0.81999999    2.93000007
   17.22861099  116.47699738    0.81999999    2.93000007
   17.23111153  108.82399750    0.79000002    2.93000007
   17.23444557  106.85800171    0.79000002    2.93000007
   17.23750114  114.87899780    0.79000002    2.93000007
   17.24083328  107.91200256    0.86000001    2.93000007
   17.24416733  113.48699951    1.07000005    2.91000009
   17.24722290  126.73799896    1.07000005    2.93000007
   17.25055504  203.71899414    1.60000002    2.91000009
   17.25361061  141.28799438    4.90999985    1.96000004
   17.25694466  125.77899933    4.90999985    2.42000008
   17.26277733  125.77899933    4.90999985    2.59999990
   17.26694489  111.93499756    1.53999996    2.91000009
   17.27027702  112.01100159    1.41999996    2.91000009
   17.27361107  112.55400085    1.00000000    2.91000009
   17.27666664  116.42800140    0.88000000    2.93000007
   17.28000069  116.84300232    0.86000001    2.93000007
   17.28333282  118.75299835    0.88000000    2.93000007
   17.28638840  114.37799835    0.89999998    2.94000006
   17.28972244  118.51300049    0.94000000    2.93000007
   17.29249954  107.96099854    1.00000000    2.93000007
   17.29500008  109.39099884    1.07000005    2.93000007
   17.29611015  115.08499908    1.07000005    2.93000007
   17.29916573  117.59300232    1.11000001    2.91000009
   17.30527687  117.59300232    1.16999996    2.93000007
   17.30944443  108.21499634    1.21000004    2.93000007
   17.31277657  119.26799774    1.26999998    2.93000007
   17.31583214  112.44899750    1.26999998    2.93000007
   17.31916809  104.75499725    1.28999996    2.93000007
   17.32250023  105.24099731    1.36000001    2.93000007
   17.32555580  108.83799744    1.36000001    2.93000007
   17.32833481  109.08100128    1.38000000    2.91000009
   17.32944489  113.37100220    1.38000000    2.91000009
   17.33250046  114.14800262    1.41999996    2.93000007
   17.33583450  107.75700378    1.50000000    2.93000007
   17.33889008  112.24400330    1.50000000    2.93000007
   17.34222221  111.28099823    1.58000004    2.93000007
   17.34805679  111.28099823    1.58000004    2.93000007
   17.35222244  114.54399872    1.53999996    2.91000009
   17.35555649  116.23999786    1.51999998    2.91000009
   17.35888863  112.42099762    1.50000000    2.93000007
   17.36166763  111.25000000    1.50000000    2.93000007
   17.36250114  111.33000183    1.50000000    2.93000007
   17.36555672  117.73600006    1.50000000    2.91000009
   17.36888885  114.48999786    1.51999998    2.91000009
   17.37194443  117.35299683    1.50000000    2.93000007
   17.37527847  115.27400208    1.58000004    2.91000009
   17.37861061  115.00199890    1.60000002    2.91000009
   17.38166618  115.41400146    1.50000000    2.91000009
   17.38500023  121.45400238    1.50000000    2.91000009
   17.39111137  121.45400238    1.38000000    2.93000007
   17.39500046  108.27700043    1.39999998    2.91000009
   17.39833260  110.28399658    1.41999996    2.91000009
   17.40166664  115.54199982    1.53999996    2.93000007
   17.40472221  114.78399658    1.41999996    2.91000009
   17.40805435  114.45899963    1.44000006    2.93000007
   17.41138840  115.23699951    1.36000001    2.93000007
   17.41444397  107.10199738    1.28999996    2.93000007
   17.41777802  113.75800323    1.28999996    2.93000007
   17.42083359  110.84999847    1.36000001    2.91000009
   17.42416573  110.65899658    1.41999996    2.93000007
   17.42749977  113.45600128    1.41999996    2.93000007
   17.42833328  112.60399628    1.39999998    2.91000009
   17.43388748  112.60399628    1.38000000    2.93000007
   17.43805504  113.15200043    1.36000001    2.91000009
   17.44111061  116.89499664    1.36000001    2.93000007
   17.44444275  117.73999786    1.38000000    2.91000009
   17.46194458  116.96099854    1.16999996    2.91000009
   17.46444511  120.60800171    1.14999998    2.91000009
   17.46777916  120.70700073    1.13000000    2.91000009
   17.47083473  109.54699707    1.13000000    2.93000007
   17.47694588  109.54699707    1.13000000    2.93000007
   17.48083305  113.84999847    1.11000001    2.91000009
   17.48416710  108.77500153    1.11000001    2.91000009
   17.48750114  114.82900238    1.05999994    2.93000007
   17.49055672  109.37899780    1.05999994    2.93000007
   17.49388885  112.33899689    1.11000001    2.93000007
   17.49527740  119.33599854    1.11000001    2.93000007
   17.49749947  120.29299927    1.09000003    2.93000007
   17.50055504  112.63099670    1.07000005    2.91000009
   17.50388908  116.34300232    1.09000003    2.91000009
   17.50722313  115.92400360    1.09000003    2.91000009
   17.51027870  115.59700012    1.09000003    2.93000007
   17.51361084  115.08599854    1.09000003    2.93000007
   17.51972198  115.08599854    1.14999998    2.93000007
   17.52388954  116.64099884    1.09000003    2.91000009
   17.52694511  112.00399780    1.03999996    2.93000007
   17.52861023  119.06700134    1.03999996    2.93000007
   17.53083229  111.67199707    1.05999994    2.93000007
   17.53388786  115.42199707    1.07000005    2.91000009
   17.53722191  113.30999756    1.07000005    2.91000009
   17.54027748  115.67800140    1.07000005    2.93000007
   17.54361153  115.58399963    1.00000000    2.93000007
   17.54694366  111.59899902    0.95999998    2.93000007
   17.54999924  118.18599701    0.98000002    2.93000007
   17.55333328  114.87400055    1.01999998    2.93000007
   17.55666542  112.63300323    0.98000002    2.91000009
   17.56250000  112.63300323    0.94000000    2.93000007
   17.56666756  117.06400299    0.92000002    2.93000007
   17.57000160  112.54399872    0.89999998    2.93000007
   17.57305717  110.71800232    0.88000000    2.93000007
   17.57638931  111.60500336    0.88000000    2.93000007
   17.57972336  114.39199829    1.78999996    2.93000007
   17.58277893  122.94200134    1.55999994    2.93000007
   17.58611107  125.88800049    4.90999985    2.84999990
   17.58916664  120.48300171    4.90999985    2.89000010
   17.59250069  110.60600281    3.25000000    2.91000009
   17.59527779  110.25900269    0.95999998    2.93000007
   17.59611130  114.33100128    0.95999998    2.93000007
   17.59916687  112.90599823    0.94000000    2.93000007
   17.60527802  112.90599823    0.86000001    2.93000007
   17.60944557  111.88200378    0.86000001    2.93000007
   17.61277771  111.21299744    0.83999997    2.91000009
   17.61583328  116.69000244    0.86000001    2.91000009
   17.61916733  112.26899719    0.83999997    2.93000007
   17.62249947  117.48999786    1.16999996    2.93000007
   17.62555504  111.03099823    1.34000003    2.93000007
   17.62861061  113.39299774    4.90999985    2.91000009
   17.62944412  118.61000061    4.90999985    2.91000009
   17.63249969  207.87600708    4.90999985    2.80999994
   17.63583374  135.36000061    4.90999985    2.21000004
   17.63888931  120.60099792    4.90999985    2.34999990
   17.64222145  112.47499847    4.90999985    2.94000006
   17.64833260  112.47499847    0.94000000    2.93000007
   17.65222168  119.80300140    0.94000000    2.93000007
   17.65555573  111.97799683    0.98000002    2.93000007
   17.65888786  116.51100159    1.01999998    2.93000007
   17.66194344  111.25499725    1.01999998    2.93000007
   17.66250038  109.20800018    1.03999996    2.93000007
   17.66555595  109.70099640    1.11000001    2.91000009
   17.66888809  106.75099945    1.13000000    2.93000007
   17.67194366  113.93399811    1.09000003    2.93000007
   17.67527771  110.11399841    1.07000005    2.93000007
   17.67860985  112.51899719    1.05999994    2.91000009
   17.68166542  116.15299988    1.05999994    2.91000009
   17.68499947  112.67800140    1.03999996    2.93000007
   17.69111061  112.67800140    1.03999996    2.93000007
   17.69527626  112.53500366    1.03999996    2.93000007
   17.69555473  115.23100281    1.03999996    2.93000007
   17.69888878  114.66600037    1.07000005    2.93000007
   17.70222282  114.96600342    1.11000001    2.93000007
   17.70527840  111.98899841    1.09000003    2.93000007
   17.70861244  115.41999817    1.09000003    2.93000007
   17.71194458  110.15899658    1.09000003    2.91000009
   17.71500015  113.15399933    1.07000005    2.91000009
   17.71833420  110.62599945    1.03999996    2.91000009
   17.72138977  110.69100189    0.98000002    2.93000007
   17.72472191  111.86599731    0.98000002    2.93000007
   17.72805595  114.16300201    0.95999998    2.93000007
   17.72888947  113.87799835    0.95999998    2.93000007
   17.73388863  113.87799835    0.94000000    2.93000007
   17.73805618  112.54499817    0.95999998    2.93000007
   17.74138832  113.31900024    0.94000000    2.93000007
   17.74444389  111.46099854    0.92000002    2.91000009
   17.74777794  111.45999908    0.89999998    2.91000009
   17.75083351  109.06300354    0.92000002    2.91000009
   17.75416756  112.13999939    0.92000002    2.93000007
   17.75749969  111.77600098    0.92000002    2.93000007
   17.76055527  113.79100037    0.92000002    2.93000007
   17.76222229  112.38300323    0.94000000    2.91000009
   17.76416588  118.38999939    0.94000000    2.91000009
   17.76749992  117.83999634    4.90999985    2.84999990
   17.77055550  118.24600220    4.90999985    2.89000010
   17.77666664  118.24600220    4.90999985    2.75000000
   17.78083229  113.17600250    2.76999998    2.93000007
   17.78416634  113.94000244    1.00000000    2.93000007
   17.78722191  108.51799774    0.94000000    2.91000009
   17.79055595  113.25199890    0.92000002    2.91000009
   17.79388809  115.33499908    0.92000002    2.91000009
   17.79555511  114.05300140    0.89999998    2.91000009
   17.79749870  110.83599854    0.89999998    2.93000007
   17.80083275  112.90599823    0.88000000    2.93000007
   17.80388832  111.38700104    0.92000002    2.93000007
   17.80722237  111.60500336    0.89999998    2.93000007
   17.81055450  113.97599792    0.89999998    2.91000009
   17.81361008  112.49099731    0.88000000    2.93000007
   17.81972313  112.49099731    0.89999998    2.93000007
   17.82361221  112.53800201    0.89999998    2.93000007
   17.82694626  117.48200226    0.89999998    2.93000007
   17.82888985  111.93800354    0.89999998    2.91000009
   17.83055687  112.66699982    0.89999998    2.91000009
   17.83388901  111.66000366    0.89999998    2.93000007
   17.83694458  112.01399994    0.89999998    2.93000007
   17.84027863  123.03399658    0.86000001    2.93000007
   17.84361267  112.12100220    0.86000001    2.91000009
   17.84666824  110.40399933    0.89999998    2.91000009
   17.85000038  110.45899963    0.89999998    2.91000009
   17.85333443  111.04599762    0.86000001    2.91000009
   17.85639000  110.65399933    0.86000001    2.91000009
   17.86250114  110.65399933    0.81999999    2.91000009
   17.86666679  112.64099884    0.81999999    2.93000007
   17.86972237  112.19499969    0.83999997    2.93000007
   17.87305641  116.01499939    0.83999997    2.93000007
   17.87638855  109.82800293    0.81999999    2.93000007
   17.87944412  113.74199677    0.81999999    2.93000007
   17.88277817  113.34799957    0.83999997    2.93000007
   17.88611031  116.35800171    0.81999999    2.93000007
   17.88916588  108.34700012    0.79000002    2.93000007
   17.89249992  116.02600098    0.79000002    2.93000007
   17.89583397  116.80400085    0.79000002    2.93000007
   17.89611053  111.04399872    0.79000002    2.93000007
   17.89944458  113.45200348    0.80000001    2.93000007
   17.90527725  113.45200348    0.81999999    2.91000009
   17.90944481  113.37400055    0.79000002    2.91000009
   17.91277695  116.80200195    0.79000002    2.91000009
   17.91583252  111.98400116    0.79000002    2.91000009
   17.91916656  112.79000092    0.76999998    2.93000007
   17.92222214  112.06199646    0.75000000    2.91000009
   17.92555428  112.23600006    0.75000000    2.91000009
   17.92888832  114.11900330    0.80000001    2.93000007
   17.92916679  114.89700317    0.80000001    2.93000007
   17.93249893  113.38899994    0.83999997    2.93000007
   17.93583298  115.52200317    0.86000001    2.91000009
   17.93916512  113.79100037    0.86000001    2.91000009
   17.94222069  113.22599792    0.81999999    2.93000007
   17.94805527  113.22599792    0.76999998    2.93000007
   17.95222282  118.49900055    0.76999998    2.91000009
   17.95555687  114.28800201    3.70000005    2.91000009
   17.95861244  112.46099854    0.94000000    2.93000007
   17.96194458  113.22299957    1.85000002    2.93000007
   17.96250153  110.35800171    1.85000002    2.93000007
   17.96555710  114.06600189    4.34999990    2.89000010
   17.96888924  112.55899811    4.90999985    2.71000004
   17.97222328  112.29599762    4.90999985    2.84999990
   17.97527885  115.44100189    4.90999985    2.84999990
   17.97861099  113.91799927    4.90999985    2.94000006
   17.98194504  115.52899933    0.80000001    2.91000009
   17.98500061  112.41000366    0.80000001    2.93000007
   17.99111176  112.41000366    0.80000001    2.93000007
   17.99500084  111.94699860    0.80000001    2.93000007
   17.99583435  115.89099884    0.80000001    2.93000007
   17.99861145  108.92800140    0.80000001    2.93000007
   18.00194359  115.00000000    0.81999999    2.91000009
   18.00499916  111.51100159    0.83999997    2.91000009
   18.00833321  113.93900299    0.95999998    2.91000009
   18.01166725  115.20899963    0.95999998    2.91000009
   18.01499939  110.18699646    0.98000002    2.91000009
   18.01805496  114.25399780    0.98000002    2.91000009
   18.02138901  115.54199982    1.05999994    2.91000009
   18.02444458  117.33999634    1.00000000    2.91000009
   18.02777672  113.37699890    1.09000003    2.91000009
   18.02944374  111.36499786    1.11000001    2.91000009
   18.03388786  111.36499786    1.00000000    2.91000009
   18.03805542  109.89099884    0.95999998    2.91000009
   18.04111099  111.40200043    0.89999998    2.91000009
   18.04444313  109.76699829    0.89999998    2.93000007
   18.04777718  108.96499634    0.89999998    2.91000009
   18.05083275  111.26100159    0.89999998    2.93000007
   18.05416679  112.88800049    0.95999998    2.91000009
   18.05749893  114.85700226    0.95999998    2.91000009
   18.06055450  112.81300354    0.94000000    2.91000009
   18.06277657  111.13899994    0.92000002    2.91000009
   18.06416512  110.27700043    0.92000002    2.91000009
   18.06750107  111.75599670    0.94000000    2.91000009
   18.07083511  113.07700348    0.95999998    2.91000009
   18.07666779  113.07700348    1.09000003    2.91000009
   18.08083344  112.42500305    1.03999996    2.91000009
   18.08388901  116.27899933    0.94000000    2.91000009
   18.08722305  115.75499725    0.94000000    2.91000009
   18.09055710  114.41600037    1.11000001    2.93000007
   18.09361267  109.91699982    1.07000005    2.91000009
   18.09611130  111.87200165    1.07000005    2.91000009
   18.09722328  112.72299957    1.07000005    2.91000009
   18.10055542  110.84200287    1.09000003    2.91000009
   18.10361099  115.52999878    1.09000003    2.91000009
   18.10694504  113.74299622    1.16999996    2.91000009
   18.11027908  112.69000244    1.26999998    2.91000009
   18.11333466  110.41699982    1.33000004    2.91000009
   18.11944389  110.41699982    1.30999994    2.91000009
   18.12361145  109.37799835    1.28999996    2.91000009
   18.12694550  109.09999847    1.28999996    2.91000009
   18.12944412  110.26200104    1.46000004    2.91000009
   18.13055611  111.35099792    1.46000004    2.91000009
   18.13388824  112.07099915    1.60000002    2.91000009
   18.13694382  112.22599792    2.00000000    2.91000009
   18.14027786  110.31800079    1.86000001    2.91000009
   18.14361191  113.88700104    1.83000004    2.91000009
   18.14666748  111.90499878    1.83000004    2.91000009
   18.14999962  114.00900269    1.51999998    2.91000009
   18.15333366  109.80000305    1.39999998    2.91000009
   18.15638924  114.69300079    2.53999996    2.91000009
   18.16250038  114.69300079    1.44000006    2.93000007
   18.16638756  115.33799744    1.51999998    2.89000010
   18.16972160  114.19000244    1.48000002    2.89000010
   18.17305565  117.30400085    1.36000001    2.89000010
   18.17611122  112.61100006    1.21000004    2.91000009
   18.17944336  112.96299744    1.14999998    2.91000009
   18.18277740  112.53099823    1.13000000    2.91000009
   18.18583298  113.41000366    1.19000006    2.91000009
   18.18916512  116.93000031    1.19000006    2.91000009
   18.19222069  109.08200073    1.11000001    2.91000009
   18.19555473  112.04499817    1.11000001    2.91000009
   18.19749832  110.63400269    1.11000001    2.91000009
   18.19916534  107.90699768    1.11000001    2.91000009
   18.20527840  107.90699768    1.11000001    2.91000009
   18.20944595  112.81500244    1.30999994    2.91000009
   18.21250153  109.20600128    1.30999994    2.91000009
   18.21583366  115.10900116    1.30999994    2.91000009
   18.21916771  110.95700073    1.30999994    2.91000009
   18.22222328  113.38200378    1.26999998    2.91000009
   18.22555542  112.03700256    1.23000002    2.91000009
   18.22888947  111.97699738    1.25000000    2.91000009
   18.23083305  107.36100006    1.25000000    2.91000009
   18.23222351  109.83300018    1.48000002    2.91000009
   18.23555565  116.37100220    1.48000002    2.91000009
   18.23861122  110.06999969    1.63000000    2.89000010
   18.24194527  112.11299896    1.71000004    2.91000009
   18.24805641  112.11299896    2.48000002    2.89000010
   18.25222206  113.12500000    2.82999992    2.89000010
   18.25555611  114.69899750    3.07999992    2.91000009
   18.25861168  112.18199921    3.07999992    2.89000010
   18.26194382  115.11599731    2.96000004    2.89000010
   18.26416588  115.45999908    2.78999996    2.89000010
   18.26555634  114.82299805    2.67000008    2.89000010
   18.26888847  112.72899628    2.32999992    2.89000010
   18.27194405  118.01999664    2.17000008    2.89000010
   18.27527809  113.51100159    2.17000008    2.89000010
   18.27833366  114.03600311    2.19000006    2.91000009
   18.28166580  116.17099762    2.19000006    2.89000010
   18.28499985  111.91899872    2.05999994    2.89000010
   18.29083252  111.91899872    1.98000002    2.89000010
   18.29500008  112.97200012    2.48000002    2.89000010
   18.29749870  111.67199707    3.16000009    2.89000010
   18.29861069  113.97200012    3.36999989    2.86999989
   18.30194283  113.23000336    3.41000009    2.86999989
   18.30499840  113.55500031    1.96000004    2.91000009
   18.30833244  113.08100128    1.89999998    2.89000010
   18.31138802  111.23100281    1.89999998    2.86999989
   18.31472206  109.27799988    2.09999990    2.86999989
   18.31805611  109.30500031    2.69000006    2.89000010
   18.32111168  114.98400116    4.51000023    2.86999989
   18.32444572  111.43699646    3.03999996    2.91000009
   18.32777786  117.22100067    2.23000002    2.91000009
   18.33388901  117.22100067    2.13000011    2.91000009
   18.33777809  113.20200348    1.83000004    2.89000010
   18.34111214  111.48500061    1.76999998    2.89000010
   18.34444427  113.70600128    1.73000002    2.89000010
   18.34749985  114.75099945    1.73000002    2.91000009
   18.35083389  117.36199951    1.76999998    2.89000010
   18.35416794  115.06700134    1.78999996    2.89000010
   18.35722351  111.50000000    1.73000002    2.89000010
   18.36055565  109.93499756    1.73000002    2.89000010
   18.36361122  110.33599854    1.73000002    2.89000010
   18.36472321  111.09899902    1.73000002    2.89000010
   18.36750031  112.93499756    1.76999998    2.89000010
   18.37055588  111.26999664    1.76999998    2.89000010
   18.37666702  111.26999664    1.55999994    2.89000010
   18.38083267   -1.00000000    4.90999985    2.66000009
   18.38416672  173.86500549    4.90999985    2.03999996
   18.38722229  118.93699646    4.90999985    2.46000004
   18.39055634  127.87200165    4.90999985    2.84999990
   18.39388847  123.03800201    4.90999985    2.84999990
   18.39694405  111.93900299    4.90999985    2.50000000
   18.39805603  114.57299805    4.90999985    2.75000000
   18.40055466  110.03600311    4.90999985    2.91000009
   18.40388870  115.32499695    3.34999990    2.89000010
   18.40722275  117.49099731    3.97000003    2.75000000
   18.41027832  114.10700226    3.55999994    2.86999989
   18.41361046  233.64199829    3.30999994    2.89000010
   18.41944313  233.64199829    2.94000006    2.91000009
   18.42361069  115.59500122    2.19000006    2.86999989
   18.42694473  114.45899963    2.76999998    2.86999989
   18.43000031  112.16200256    2.28999996    2.86999989
   18.43166542  113.59500122    1.88000000    2.86999989
   18.43361092  113.13600159    1.63000000    2.86999989
   18.43694305  113.55300140    1.50000000    2.91000009
   18.43999863  117.84700012    1.46000004    2.91000009
   18.44333267  113.12100220    1.53999996    2.91000009
   18.44666672  115.72100067    1.75000000    2.91000009
   18.44972038  109.78099823    1.73000002    2.91000009
   18.45305634  112.45700073    1.85000002    2.91000009
   18.45639038  112.31099701    1.85000002    2.91000009
   18.46222305  112.31099701    1.89999998    2.91000009
   18.48055649  115.72000122    3.73000002    2.86999989
   18.48388863  114.85399628    4.90999985    2.80999994
   18.48722267  113.27799988    4.90999985    2.80999994
   18.49027824  116.17400360    4.90999985    2.80999994
   18.49361229  116.54900360    4.90999985    2.75000000
   18.49694443  112.91999817    4.90999985    2.84999990
   18.50000000  144.44099426    4.90999985    2.75000000
   18.50527763  144.44099426    4.90999985    2.67000008
   18.50944519  127.65399933    4.90999985    2.78999996
   18.51277733   -1.00000000    4.90999985    2.05999994
   18.51361084  208.92199707    4.90999985    1.38000000
   18.51638794  213.95899963    4.90999985    2.03999996
   18.51972198  150.67599487    4.90999985    2.03999996
   18.52277756  131.86500549    4.90999985    2.61999989
   18.52611160  115.66000366    4.90999985    2.82999992
   18.52916718  128.12399292    4.90999985    2.51999998
   18.53249931  123.73100281    4.90999985    2.51999998
   18.53583336  116.36100006    4.90999985    2.53999996
   18.53888893  119.67099762    4.90999985    2.64000010
   18.54222107  118.84899902    4.90999985    2.76999998
   18.54805565  118.84899902    4.90999985    2.75000000
   18.55222130  114.46299744    4.90999985    2.80999994
   18.55555534  112.38999939    4.90999985    2.82999992
   18.55888748  112.00000000    4.90999985    2.78999996
   18.56194305  122.47000122    4.90999985    2.80999994
   18.56527710  119.12000275    4.90999985    2.76999998
   18.56861115  126.38099670    4.90999985    2.67000008
   18.57194519  120.40799713    4.90999985    2.66000009
   18.57500076  116.61000061    4.90999985    2.75000000
   18.57833481  111.84200287    4.90999985    2.86999989
   18.58027840  115.81400299    4.19999981    2.89000010
   18.58194542  111.70899963    3.34999990    2.89000010
   18.58527756  111.97799683    3.23000002    2.86999989
   18.59111214  111.97799683    2.96000004    2.86999989
   18.59527779  109.07599640    2.94000006    2.89000010
   18.59833336  109.23400116    2.50000000    2.89000010
   18.60166740  116.86299896    2.11999989    2.89000010
   18.60472298  110.77500153    1.88000000    2.91000009
   18.60805511  113.25000000    1.96000004    2.89000010
   18.61138916  179.89700317    2.01999998    2.89000010
   18.61361122  112.34600067    1.89999998    2.89000010
   18.61499977  112.30200195    1.94000006    2.89000010
   18.61833382  115.54499817    2.13000011    2.89000010
   18.62138939  110.26999664    2.42000008    2.89000010
   18.62472153  113.91999817    2.69000006    2.91000009
   18.62805557  116.81700134    2.82999992    2.89000010
   18.63388824  116.81700134    2.93000007    2.89000010
   18.63805580  116.73799896    2.96000004    2.89000010
   18.64111137  111.56199646    3.14000010    2.89000010
   18.64444351  118.98999786    3.57999992    2.89000010
   18.64694405  115.63099670    4.90999985    2.91000009
   18.64805603  110.14900208    4.90999985    2.91000009
   18.65138817  110.66100311    4.90999985    2.94000006
   18.65472221  115.01799774    4.90999985    2.86999989
   18.65777779  116.61199951    4.90999985    2.82999992
   18.66110992  204.75199890    4.90999985    2.75000000
   18.66416550  128.39399719    4.90999985    2.07999992
   18.66749954  114.57199860    4.90999985    2.40000010
   18.67083359   -1.00000000    4.90999985    1.69000006
   18.67666626   -1.00000000    4.90999985    1.03999996
   18.68083191   -1.00000000    4.90999985    2.51999998
   18.68416595   -1.00000000    4.90999985    1.14999998
   18.68722153   -1.00000000    4.90999985    1.86000001
   18.69055557   -1.00000000    4.90999985    0.98000002
   18.69416618   -1.00000000    4.90999985    0.81999999
   18.69722176   -1.00000000    4.90999985    0.79000002
   18.70055580   -1.00000000    4.90999985    0.80000001
   18.70388985   -1.00000000    4.90999985    0.52999997
   18.70694542   -1.00000000    4.90999985    0.83999997
   18.71027946   94.63590240    4.90999985    1.61000001
   18.71361160   86.51540375    4.90999985    1.41999996
   18.71389008  239.43899536    4.90999985    1.48000002
   18.71972275  239.43899536    4.90999985    1.19000006
   18.72361183   -1.00000000    4.90999985    1.48000002
   18.72694588   -1.00000000    4.90999985    1.05999994
   18.73027802   -1.00000000    4.90999985    0.55000001
   18.73333359   -1.00000000    4.90999985    0.44000000
   18.73666763   -1.00000000    4.90999985    1.46000004
   18.73972321   -1.00000000    4.90999985    1.36000001
   18.74305534   -1.00000000    4.90999985    1.05999994
   18.74638939   -1.00000000    4.90999985    0.52999997
   18.75000000   -1.00000000    4.90999985    1.14999998
   18.75305557   -1.00000000    4.90999985    1.50000000
   18.75638962   -1.00000000    4.90999985    0.52999997
   18.76638794   -1.00000000    4.90999985    1.55999994
   18.76972198   -1.00000000    4.90999985    1.05999994
   18.77305603   -1.00000000    4.90999985    0.92000002
   18.77611160   -1.00000000    4.90999985    0.67000002
   18.77944374   -1.00000000    4.90999985    0.28000000
   18.78305435   -1.00000000    4.90999985    1.38000000
   18.78610992   -1.00000000    4.90999985    0.89999998
   18.78944397   -1.00000000    4.90999985    1.09000003
   18.79277802   -1.00000000    4.90999985    0.51999998
   18.79583359   -1.00000000    4.90999985    0.34000000
   18.79916573   -1.00000000    4.90999985    0.88000000
   18.80944443   -1.00000000    4.90999985    0.34000000
   18.81250000  127.28399658    4.90999985    0.63000000
   18.81388855  207.88600159    4.90999985    1.07000005
   18.81611061   -1.00000000    4.90999985    2.17000008
   18.81944466   -1.00000000    4.90999985    1.00000000
   18.82250023  156.77000427    4.90999985    2.32999992
   18.82583427  152.91999817    4.90999985    2.13000011
   18.82916832  176.01699829    4.90999985    2.84999990
   18.83222389   -1.00000000    4.90999985    1.75000000
   18.83555603   -1.00000000    4.90999985    0.55000001
   18.83861160   -1.00000000    4.90999985    0.89999998
   18.84194565  196.28199768    4.90999985    0.86000001
   18.85222244   -1.00000000    4.90999985    1.14999998
   18.85555649   -1.00000000    4.90999985    1.14999998
   18.85861206   -1.00000000    4.90999985    1.19000006
   18.86222267   -1.00000000    4.90999985    1.00000000
   18.86555672   -1.00000000    4.90999985    0.61000001
   18.86861038   -1.00000000    4.90999985    1.03999996
   18.87194443   -1.00000000    4.90999985    1.34000003
   18.87500000   -1.00000000    4.90999985    1.07000005
   18.87833405   -1.00000000    4.90999985    1.58000004
   18.88194466  116.31600189    4.90999985    1.30999994
   18.88500023   -1.00000000    4.90999985    1.23000002
   18.89500046   -1.00000000    4.90999985    1.11000001
   18.89833260   -1.00000000    4.90999985    1.23000002
   18.90138817   -1.00000000    4.90999985    1.69000006
   18.90472221   -1.00000000    4.90999985    1.51999998
   18.90805435   -1.00000000    4.90999985    1.25000000
   18.91110992   -1.00000000    4.90999985    1.48000002
   18.91472244   -1.00000000    4.90999985    1.83000004
   18.91777802   -1.00000000    4.90999985    1.11000001
   18.92111015   -1.00000000    4.90999985    1.58000004
   18.92444420   -1.00000000    4.90999985    1.36000001
   18.92749977   -1.00000000    4.90999985    1.30999994
   18.93388748   -1.00000000    4.90999985    1.64999998
   18.93805504  100.55599976    4.90999985    1.88000000
   18.94111061   -1.00000000    4.90999985    1.80999994
   18.94444275   -1.00000000    4.90999985    1.19000006
   18.94805527   -1.00000000    4.90999985    1.21000004
   18.95111275   -1.00000000    4.90999985    1.05999994
   18.95444489  177.05400085    4.90999985    1.86000001
   18.95777893   -1.00000000    4.90999985    1.91999996
   18.96083450   -1.00000000    4.90999985    0.89999998
   18.96416664   -1.00000000    4.90999985    0.76999998
   18.96750069   -1.00000000    4.90999985    0.61000001
   18.97055626   -1.00000000    4.90999985    0.69000000
   18.98083305   -1.00000000    4.90999985    1.51999998
   18.98388863   -1.00000000    4.90999985    0.25999999
   18.98722267   -1.00000000    4.90999985    0.98000002
   18.99055672  139.29400635    4.90999985    1.44000006
   18.99361229  164.56399536    4.90999985    1.83000004
   18.99694443   -1.00000000    4.90999985    2.19000006
   19.00000000   -1.00000000    4.90999985    1.25000000
   19.00333405   -1.00000000    4.90999985    0.81999999
   19.00666618  109.27200317    4.90999985    1.76999998
   19.00972176   -1.00000000    4.90999985    1.13000000
   19.01305580   -1.00000000    4.90999985    0.41999999
   19.02361107   -1.00000000    4.90999985    0.51999998
   19.02666664   -1.00000000    4.90999985    0.73000002
   19.03000069   -1.00000000    4.90999985    0.94000000
   19.03333282   -1.00000000    4.90999985    0.63000000
   19.03638840   -1.00000000    4.90999985    1.61000001
   19.03972244   -1.00000000    4.90999985    1.51999998
   19.04305458   -1.00000000    4.90999985    0.61000001
   19.04611015   -1.00000000    4.90999985    0.36000001
   19.04972076   -1.00000000    4.90999985    0.15000001
   19.05305481   -1.00000000    4.90999985    0.70999998
   19.05611038   -1.00000000    4.90999985    0.23000000
   19.06638718   -1.00000000    4.90999985    0.44000000
   19.06972313   -1.00000000    4.90999985    0.23000000
   19.07277870   -1.00000000    4.90999985    0.15000001
   19.07611275   -1.00000000    4.90999985    0.15000001
   19.07944489   -1.00000000    4.90999985    0.13000000
   19.08277893   -1.00000000    2.07999992    0.01000000
   19.08611107   -1.00000000    3.05999994    0.01000000
   19.08916664   -1.00000000    4.90999985    0.03000000
   19.09250069   -1.00000000    4.90999985    0.05000000
   19.09555626   -1.00000000    4.90999985    0.25000000
   19.09889030   -1.00000000    4.90999985    1.11000001
   19.10916710   -1.00000000    4.90999985    0.55000001
   19.11250114   -1.00000000    4.90999985    1.44000006
   19.11611176   -1.00000000    4.90999985    0.63000000
   19.11944389   -1.00000000    4.90999985    0.41999999
   19.12249947   -1.00000000    4.90999985    0.50000000
   19.12583351   -1.00000000    4.90999985    0.31999999
   19.12888908   -1.00000000    4.90999985    0.15000001
   19.13222313   -1.00000000    4.90999985    0.25000000
   19.13555527   -1.00000000    4.90999985    0.51999998
   19.13861084  226.11799622    4.90999985    0.64999998
   19.14194489  141.08999634    4.90999985    2.53999996
   19.15222168   -1.00000000    4.90999985    1.34000003
   19.15527725   -1.00000000    4.90999985    0.17000000
   19.15861130   -1.00000000    4.90999985    0.25999999
   19.16194344   -1.00000000    4.90999985    0.17000000
   19.16499901   -1.00000000    4.90999985    0.40000001
   19.16833305   -1.00000000    4.90999985    0.80000001
   19.17138863   -1.00000000    4.90999985    0.28000000
   19.17472076   -1.00000000    4.90999985    0.20999999
   19.17805481   -1.00000000    4.90999985    0.03000000
   19.18166542   -1.00000000    4.90999985    0.05000000
   19.18472099   -1.00000000    4.90999985    0.09000000
   19.19499969   -1.00000000    4.90999985    0.03000000
   19.19833183   -1.00000000    4.90999985    0.05000000
   19.20138931   -1.00000000    4.90999985    0.03000000
   19.20472336   -1.00000000    4.90999985    0.03000000
   19.20777893   -1.00000000    4.90999985    0.03000000
   19.21111107   -1.00000000    4.90999985    0.03000000
   19.21472359   -1.00000000    4.90999985    0.05000000
   19.21777916   -1.00000000    4.90999985    0.07000000
   19.22111130   -1.00000000    4.90999985    0.30000001
   19.22444534   -1.00000000    4.90999985    0.09000000
   19.22750092   -1.00000000    4.90999985    0.13000000
   19.23777771   -1.00000000    4.90999985    0.13000000
   19.24111176   -1.00000000    4.90999985    0.30000001
   19.24416733   -1.00000000    4.90999985    0.79000002
   19.24777794   -1.00000000    4.90999985    0.13000000
   19.25111198   -1.00000000    4.90999985    0.09000000
   19.25416756   -1.00000000    4.90999985    0.05000000
   19.25749969   -1.00000000    4.90999985    0.52999997
   19.26055527  184.63000488    4.90999985    0.98000002
   19.26388931  133.05200195    4.90999985    2.36999989
   19.26722145   -1.00000000    4.90999985    2.11999989
   19.27027702   -1.00000000    4.90999985    1.44000006
   19.28111076   -1.00000000    4.90999985    0.13000000
   19.28444481   -1.00000000    4.90999985    0.11000000
   19.28750038   -1.00000000    4.90999985    0.03000000
   19.29083252   -1.00000000    1.38000000    0.01000000
   19.29388809   -1.00000000    2.93000007    0.01000000
   19.29722214   -1.00000000    4.90999985    0.03000000
   19.30055428   -1.00000000    4.90999985    0.13000000
   19.30360985  179.20300293    4.90999985    0.41999999
   19.30694389   -1.00000000    4.90999985    1.46000004
   19.31027794   -1.00000000    4.90999985    0.28000000
   19.31333351   -1.00000000    4.90999985    0.25999999
   19.32361221  308.47299194    4.90999985    1.73000002
   19.32666779   -1.00000000    4.90999985    2.07999992
   19.33000183   -1.00000000    4.90999985    1.01999998
   19.33333397  165.99899292    4.90999985    0.70999998
   19.33666801  128.32899475    4.90999985    1.98000002
   19.33972359  194.29800415    4.90999985    2.44000006
   19.34305573   -1.00000000    4.90999985    2.30999994
   19.34611130   -1.00000000    4.90999985    0.28000000
   19.34972191   -1.00000000    4.90999985    0.03000000
   19.35305595   -1.00000000    4.90999985    0.05000000
   19.35611153   -1.00000000    4.90999985    1.73000002
   20.83555603  120.51699829    4.90999985    2.66000009
   20.83889008  172.18699646    4.90999985    2.84999990
   20.84194565  105.89199829    4.90999985    2.64000010
   20.84527779  167.22099304    4.90999985    2.42000008
   20.84861183  140.12399292    4.90999985    2.21000004
   20.85166740   90.85959625    4.90999985    2.84999990
   20.85583305   90.85959625    4.90999985    1.71000004
   20.86000061   -1.00000000    4.90999985    1.58000004
   20.86333466  119.37000275    4.90999985    1.14999998
   20.86638832   -1.00000000    4.90999985    2.71000004
   20.86888885  138.00399780    4.90999985    1.60000002
   20.87000084  117.66200256    4.90999985    2.55999994
   20.87305641  126.32199860    4.90999985    2.40000010
   20.87638855  127.25299835    4.90999985    1.78999996
   20.87972260  127.64800262    4.90999985    2.17000008
   20.88277817   -1.00000000    4.90999985    2.89000010
   20.88611031  270.91900635    4.90999985    1.34000003
   20.88944435   -1.00000000    4.90999985    1.01999998
   20.89249992   -1.00000000    4.90999985    1.13000000
   20.89861107   -1.00000000    4.90999985    1.34000003
   20.90277672   -1.00000000    4.90999985    0.61000001
   20.90611076  178.46600342    4.90999985    1.36000001
   20.90916634  175.91700745    4.90999985    2.01999998
   20.91250038   -1.00000000    4.90999985    2.21000004
   20.91583252   -1.00000000    4.90999985    1.51999998
   20.91888809   -1.00000000    4.90999985    1.25000000
   20.92222214   -1.00000000    4.90999985    0.98000002
   20.92555428  158.41400146    4.90999985    2.01999998
   20.92860985   -1.00000000    4.90999985    0.44000000
   20.93194389   -1.00000000    4.90999985    0.52999997
   20.93499947  206.60299683    4.90999985    1.64999998
   20.93555450  135.20199585    4.90999985    1.91999996
   20.94166565  135.20199585    4.90999985    1.36000001
   20.94555473  180.60000610    4.90999985    1.26999998
   20.94888878  143.62899780    4.90999985    2.57999992
   20.95222282   90.52960205    4.90999985    2.75000000
   20.95527840  135.79899597    4.90999985    1.58000004
   20.95861244   -1.00000000    4.90999985    1.46000004
   20.96194458  140.92999268    4.90999985    2.40000010
   20.96500015  143.18800354    4.90999985    1.96000004
   20.96833420  170.71800232    4.90999985    2.13000011
   20.96888924  119.56400299    4.90999985    2.28999996
   20.97194481   -1.00000000    4.90999985    1.71000004
   20.97500038   -1.00000000    4.90999985    1.36000001
   20.97833443   -1.00000000    4.90999985    2.13000011
   20.98444557   -1.00000000    4.90999985    1.46000004
   20.98861122   -1.00000000    4.90999985    0.67000002
   20.99166679   -1.00000000    4.90999985    1.01999998
   20.99500084   -1.00000000    4.90999985    0.98000002
   20.99833298   -1.00000000    4.90999985    1.19000006
   21.00138855  150.40800476    4.90999985    1.21000004
   21.00222206  195.78999329    4.90999985    1.21000004
   21.00499916  167.80799866    4.90999985    1.60000002
   21.00833321  112.18699646    4.90999985    2.03999996
   21.01138878   98.94750214    4.90999985    2.78999996
   21.01472282  121.31500244    4.90999985    2.32999992
   21.01777840  110.75900269    4.90999985    2.64000010
   21.02111053  138.05000305    4.90999985    2.69000006
   21.03138924  235.31500244    4.90999985    1.36000001
   21.03444481   -1.00000000    4.90999985    2.05999994
   21.03805542   -1.00000000    4.90999985    1.01999998
   21.04111099   -1.00000000    4.90999985    1.36000001
   21.04444313   -1.00000000    4.90999985    1.53999996
   21.04777718   -1.00000000    4.90999985    1.33000004
   21.05083275   -1.00000000    4.90999985    1.26999998
   21.05416679  143.48500061    4.90999985    1.33000004
   21.05722237  131.64599609    4.90999985    2.39000010
   21.06055450  160.38400269    4.90999985    2.30999994
   21.06388855  145.52000427    4.90999985    1.96000004
   21.07000160  145.52000427    4.90999985    2.51999998
   21.07416725  182.75700378    4.90999985    1.71000004
   21.07750130  130.76400757    4.90999985    2.13000011
   21.08055687  126.51499939    4.90999985    2.61999989
   21.08388901  237.04200745    4.90999985    2.26999998
   21.08722305  113.43399811    4.90999985    2.07999992
   21.09027863   -1.00000000    4.90999985    2.55999994
   21.09361267  124.11900330    4.90999985    1.44000006
   21.09694481  133.39300537    4.90999985    1.61000001
   21.10000038  125.52600098    4.90999985    1.69000006
   21.10222244  137.00199890    4.90999985    2.15000010
   21.10361099  124.44599915    4.90999985    2.15000010
   21.10694504  151.46299744    4.90999985    1.98000002
   21.11694527  150.54299927    4.90999985    1.33000004
   21.12027740  147.09199524    4.90999985    2.34999990
   21.12361145   -1.00000000    4.90999985    1.51999998
   21.12666702  206.89300537    4.90999985    0.79000002
   21.13000107   84.73719788    4.90999985    1.48000002
   21.13305473  127.37300110    4.90999985    1.33000004
   21.13555527  150.48800659    4.90999985    2.26999998
   21.13666725  121.84899902    4.90999985    2.26999998
   21.13999939  119.83300018    4.90999985    1.78999996
   21.14305496   -1.00000000    4.90999985    1.80999994
   21.14638901   -1.00000000    4.90999985    0.44000000
   21.14944458   -1.00000000    4.90999985    0.92000002
   21.15999985   -1.00000000    4.90999985    0.40000001
   21.16305542   -1.00000000    4.90999985    0.81999999
   21.16638756   -1.00000000    4.90999985    0.75000000
   21.17000008   76.82129669    4.90999985    1.03999996
   21.17333221   -1.00000000    4.90999985    1.34000003
   21.17638779  106.42099762    4.90999985    1.50000000
   21.17972183  142.59700012    4.90999985    1.60000002
   21.18305397  175.02000427    4.90999985    2.36999989
   21.18610954   -1.00000000    4.90999985    2.21000004
   21.18944359   -1.00000000    4.90999985    1.34000003
   21.19249916   -1.00000000    4.90999985    0.89999998
   21.20277786  191.66400146    4.90999985    1.33000004
   21.20583344  129.37699890    4.90999985    2.17000008
   21.20916748  105.14800262    4.90999985    2.57999992
   21.21250153  164.59100342    4.90999985    2.36999989
   21.21555710  274.90600586    4.90999985    1.86000001
   21.21888924  128.91900635    4.90999985    2.23000002
   21.22222328  113.02500153    4.90999985    2.40000010
   21.22527885  113.99299622    4.90999985    2.64000010
   21.22861099  145.52799988    4.90999985    2.69000006
   21.23166656  158.43699646    4.90999985    2.21000004
   21.23500061   -1.00000000    4.90999985    2.09999990
   21.23555565   44.41199875    4.90999985    2.19000006
   21.24138832   44.41199875    4.90999985    1.69000006
   21.24555588   37.46340179    4.90999985    1.63000000
   21.24888992  199.67700195    4.90999985    1.76999998
   21.25194359   -1.00000000    4.90999985    1.71000004
   21.25527763   -1.00000000    4.90999985    1.21000004
   21.25861168   -1.00000000    4.90999985    1.30999994
   21.26166725   49.98270035    4.90999985    1.33000004
   21.26499939  196.29100037    4.90999985    1.73000002
   21.26833344   -1.00000000    4.90999985    1.78999996
   21.27166557   -1.00000000    4.90999985    1.26999998
   21.27472115   -1.00000000    4.90999985    1.07000005
   21.27805519   -1.00000000    4.90999985    1.34000003
   21.28833199   -1.00000000    4.90999985    0.98000002
   21.29166603  155.95399475    4.90999985    1.03999996
   21.29500008   -1.00000000    4.90999985    1.71000004
   21.29805565   -1.00000000    4.90999985    1.34000003
   21.30138779   -1.00000000    4.90999985    1.64999998
   21.30499840   -1.00000000    4.90999985    1.51999998
   21.30805397   -1.00000000    4.90999985    1.51999998
   21.31138802   -1.00000000    4.90999985    1.71000004
   21.31472206  162.29800415    4.90999985    1.53999996
   21.31777954  163.92999268    4.90999985    1.60000002
   21.32111168  253.28500366    4.90999985    1.83000004
   21.32722282  253.28500366    4.90999985    1.78999996
   21.33139038  112.88800049    4.90999985    1.50000000
   21.33444595  159.74099731    4.90999985    1.64999998
   21.33805656   -1.00000000    4.90999985    1.58000004
   21.34138870  201.42500305    4.90999985    1.73000002
   21.34444427   -1.00000000    4.90999985    1.73000002
   21.34777832   85.18810272    4.90999985    1.71000004
   21.35111237  228.75100708    4.90999985    1.63000000
   21.35416794  167.25500488    4.90999985    1.88000000
   21.35750008  140.63400269    4.90999985    1.91999996
   21.36055565  107.08799744    4.90999985    2.23000002
   21.36388969  149.41299438    4.90999985    2.32999992
   21.37000084  149.41299438    4.90999985    2.42000008
   21.37416649  159.96000671    4.90999985    2.40000010
   21.37750053  185.52299500    4.90999985    2.17000008
   21.38055611  167.91499329    4.90999985    2.05999994
   21.38388824  143.98399353    4.90999985    1.80999994
   21.38694382   -1.00000000    4.90999985    1.78999996
   21.39027786  161.96400452    4.90999985    1.61000001
   21.39361191  143.68800354    4.90999985    2.01999998
   21.39666748   -1.00000000    4.90999985    1.85000002
   21.39999962  128.77699280    4.90999985    1.66999996
   21.40222168  147.51800537    4.90999985    2.07999992
   21.40361023  192.12699890    4.90999985    2.26999998
   21.40694427  152.67399597    4.90999985    1.75000000
   21.41277695  152.67399597    4.90999985    1.34000003
   21.41694450  163.38800049    4.90999985    2.30999994
   21.42027664   -1.00000000    4.90999985    1.85000002
   21.42333221   -1.00000000    4.90999985    1.46000004
   21.42666626   -1.00000000    4.90999985    1.55999994
   21.43000031  154.97300720    4.90999985    1.39999998
   21.43305397   -1.00000000    4.90999985    1.76999998
   21.43555450  159.77000427    4.90999985    1.46000004
   21.43666649  189.42399597    4.90999985    1.51999998
   21.43999863  139.00300598    4.90999985    1.85000002
   21.44305420   -1.00000000    4.90999985    1.61000001
   21.44638824   -1.00000000    4.90999985    1.30999994
   21.44972038   -1.00000000    4.90999985    1.36000001
   21.45972252   -1.00000000    4.90999985    1.46000004
   21.46305656   -1.00000000    4.90999985    1.33000004
   21.46638870   -1.00000000    4.90999985    1.51999998
   21.46972275   -1.00000000    4.90999985    1.55999994
   21.47277832   -1.00000000    4.90999985    1.38000000
   21.47611237   -1.00000000    4.90999985    1.61000001
   21.47944450  243.22999573    4.90999985    1.61000001
   21.48250008   -1.00000000    4.90999985    1.58000004
   21.48583412   -1.00000000    4.90999985    1.85000002
   21.48916626   -1.00000000    4.90999985    1.58000004
   21.49222183   -1.00000000    4.90999985    1.73000002
   21.49861145   -1.00000000    4.90999985    1.75000000
   21.50277710   -1.00000000    4.90999985    1.44000006
   21.50583267   -1.00000000    4.90999985    1.50000000
   21.50916672   -1.00000000    4.90999985    1.16999996
   21.51250076   -1.00000000    4.90999985    1.16999996
   21.51555634   -1.00000000    4.90999985    1.21000004
   21.51888847   -1.00000000    4.90999985    1.66999996
   21.52222252   -1.00000000    4.90999985    1.86000001
   21.52527809   -1.00000000    4.90999985    1.26999998
   21.52861023   -1.00000000    4.90999985    1.66999996
   21.53166580   -1.00000000    4.90999985    1.80999994
   21.53499985   -1.00000000    4.90999985    1.09000003
   21.54555511   -1.00000000    4.90999985    1.38000000
   21.54861069   -1.00000000    4.90999985    1.21000004
   21.55194283   -1.00000000    4.90999985    1.25000000
   21.55527687   -1.00000000    4.90999985    1.30999994
   21.55833244   -1.00000000    4.90999985    1.44000006
   21.56166649   -1.00000000    4.90999985    1.25000000
   21.56499863   -1.00000000    4.90999985    1.58000004
   21.56805611   -1.00000000    4.90999985    1.60000002
   21.57166672   -1.00000000    4.90999985    2.34999990
   21.57500076   -1.00000000    4.90999985    2.53999996
   21.57805634   -1.00000000    4.90999985    2.59999990
   21.58833313   -1.00000000    4.90999985    2.55999994
   21.59166718   -1.00000000    4.90999985    2.55999994
   21.59472275   -1.00000000    4.90999985    2.53999996
   21.59805679   -1.00000000    4.90999985    2.50000000
   21.60138893   -1.00000000    4.90999985    2.53999996
   21.60472298   -1.00000000    4.90999985    2.53999996
   21.60805511   -1.00000000    4.90999985    2.53999996
   21.61111069   -1.00000000    4.90999985    2.55999994
   21.61444473   -1.00000000    4.90999985    2.53999996
   21.61750031   -1.00000000    4.90999985    2.53999996
