    HOUR (UT)   FLARE FACTOR    SKY TESTER    SUN TESTER
   11.98083305   -1.00000000   -1.00000000   -1.00000000
   12.06055546  164.86099243    1.14999998    2.11999989
   12.06361103  150.62899780    1.14999998    2.11999989
   12.06694412  158.01499939    1.14999998    2.11999989
   12.07027817  148.81599426    1.14999998    2.11999989
   12.07333374  154.80799866    1.14999998    2.11999989
   12.07666683  156.79600525    1.14999998    2.11999989
   12.08083344  156.79600525    1.14999998    2.11999989
   12.08500004  153.72999573    1.14999998    2.11999989
   12.08833313  147.78999329    1.14999998    2.11999989
   12.09166622  150.35099792    1.14999998    2.11999989
   12.09361076  150.54100037    1.14999998    2.11999989
   12.09499931  153.43899536    1.14999998    2.11999989
   12.09833336  159.13400269    1.09000003    2.13000011
   12.10138893  150.67199707    1.09000003    2.13000011
   12.10472298  147.97700500    1.69000006    2.15000010
   12.10805607  148.54200745    1.69000006    2.15000010
   12.11111164  149.52299500    1.14999998    2.15000010
   12.11444473  148.15400696    1.05999994    2.15000010
   12.11750031  147.47399902    1.03999996    2.15000010
   12.12361145  147.47399902    1.05999994    2.15000010
   12.12777805  149.13000488    1.03999996    2.15000010
   12.13083363  149.22700500    1.03999996    2.15000010
   12.13416672  153.63999939    1.03999996    2.17000008
   12.13749981  161.12600708    1.01999998    2.17000008
   12.14055538  158.83799744    1.01999998    2.17000008
   12.14388847  148.94599915    1.01999998    2.15000010
   12.14694405  157.44500732    1.01999998    2.15000010
   12.15027714  148.17599487    1.01999998    2.17000008
   12.15361118  161.19999695    1.01999998    2.17000008
   12.15666676  149.83099365    1.01999998    2.17000008
   12.15999985  141.19299316    1.01999998    2.19000006
   12.16055489  145.00199890    1.01999998    2.19000006
   12.16638851  145.00199890    1.01999998    2.17000008
   12.17055607  144.24699402    1.01999998    2.17000008
   12.17388916  152.12199402    1.01999998    2.19000006
   12.17694473  161.14999390    1.01999998    2.19000006
   12.18027782  155.60600281    1.01999998    2.19000006
   12.18333340  161.79699707    1.01999998    2.19000006
   12.18666649  147.30999756    1.01999998    2.19000006
   12.19000053  170.14599609    1.01999998    2.19000006
   12.19305515  154.40699768    1.01999998    2.19000006
   12.19388866  149.43800354    1.01999998    2.19000006
   12.19666672  154.09800720    1.01999998    2.19000006
   12.19999981  149.45100403    1.01999998    2.21000004
   12.20333290  153.02799988    1.01999998    2.21000004
   12.20916653  153.02799988    1.01999998    2.19000006
   12.21333313  141.20500183    1.01999998    2.21000004
   12.21666622  147.69299316    1.01999998    2.21000004
   12.21972179  144.44799805    1.01999998    2.21000004
   12.22305489  148.20399475    1.01999998    2.21000004
   12.22638798  145.69099426    1.00000000    2.23000002
   12.22722149  143.92999268    1.00000000    2.21000004
   12.22972202  150.10600281    1.00000000    2.21000004
   12.23305511  142.89300537    1.00000000    2.23000002
   12.23638916  153.86000061    0.98000002    2.23000002
   12.23944473  147.93499756    0.98000002    2.23000002
   12.24277782  143.29499817    0.98000002    2.23000002
   12.24611092  145.35200500    0.98000002    2.23000002
   12.25222206  145.35200500    0.98000002    2.23000002
   12.25638866  144.09899902    0.98000002    2.23000002
   12.25944424  145.67700195    0.94000000    2.23000002
   12.26055527  148.77600098    0.94000000    2.23000002
   12.26305580  142.85099792    0.94000000    2.25000000
   12.26638889  142.89199829    0.94000000    2.25000000
   12.26972198  139.05000305    0.94000000    2.23000002
   12.27277756  144.18899536    0.94000000    2.23000002
   12.27611065  139.65400696    0.94000000    2.25000000
   12.27944374  138.89199829    0.94000000    2.25000000
   12.28249931  144.70500183    0.94000000    2.23000002
   12.28583336  141.59300232    0.94000000    2.23000002
   12.28888893  142.05799866    0.94000000    2.25000000
   12.29500008  142.05799866    0.95999998    2.25000000
   12.29916668  143.35200500    0.95999998    2.25000000
   12.30222225  145.09100342    0.98000002    2.25000000
   12.30555534  144.10099792    0.98000002    2.25000000
   12.30861092  141.89799500    0.98000002    2.25000000
   12.31194496  144.90199280    0.98000002    2.25000000
   12.31527805  138.78100586    1.00000000    2.26999998
   12.31861115  140.85699463    1.00000000    2.25000000
   12.32166672  142.69000244    1.00000000    2.25000000
   12.32499981  142.38800049    1.00000000    2.25000000
   12.32722187  139.91900635    0.98000002    2.26999998
   12.32833290  136.72799683    0.98000002    2.26999998
   12.33166695  140.64900208    0.98000002    2.26999998
   12.33777714  140.64900208    0.95999998    2.26999998
   12.34194374  146.09800720    0.95999998    2.26999998
   12.34499931  140.60699463    0.94000000    2.25000000
   12.34833336  139.95199585    0.94000000    2.26999998
   12.35166740  147.07800293    0.94000000    2.26999998
   12.35472298  141.58399963    0.94000000    2.26999998
   12.35805607  142.52999878    0.94000000    2.28999996
   12.36055565  136.80200195    0.94000000    2.26999998
   12.36166668  142.90600586    0.94000000    2.26999998
   12.36500072  142.67999268    0.94000000    2.28999996
   12.36833382  142.70500183    0.94000000    2.26999998
   12.37138939  138.85899353    0.94000000    2.26999998
   12.37472248  140.69700623    0.94000000    2.28999996
   12.38055611  140.69700623    0.94000000    2.28999996
   12.38472176  142.61500549    0.94000000    2.28999996
   12.38805580  147.89599609    0.94000000    2.28999996
   12.39111137  144.24000549    0.94000000    2.28999996
   12.39388847  144.27099609    0.94000000    2.28999996
   12.39472198  144.11999512    0.92000002    2.28999996
   12.39805508  142.31500244    0.92000002    2.28999996
   12.40138817  147.57600403    0.94000000    2.28999996
   12.40444374  138.83099365    0.94000000    2.28999996
   12.40777779  145.50799561    0.94000000    2.30999994
   12.41111088  134.93600464    0.94000000    2.30999994
   12.41416645  141.27999878    0.94000000    2.30999994
   12.41750050  148.24800110    0.94000000    2.30999994
   12.42361164  148.24800110    0.94000000    2.30999994
   12.42750072  146.16000366    0.94000000    2.30999994
   12.43083382  141.83200073    0.94000000    2.30999994
   12.43416691  135.85000610    0.94000000    2.30999994
   12.43722248  134.51300049    0.94000000    2.30999994
   12.44055557  136.59700012    0.94000000    2.30999994
   12.44361115  135.37100220    0.94000000    2.30999994
   12.44694424  131.33799744    0.94000000    2.32999992
   12.45027733  147.40800476    0.94000000    2.30999994
   12.45333290  146.37699890    0.94000000    2.32999992
   12.45666695  149.07600403    0.95999998    2.32999992
   12.46000004  145.63400269    0.95999998    2.32999992
   12.46055508  140.25300598    0.98000002    2.32999992
   12.46638870  140.25300598    0.98000002    2.32999992
   12.47055531  149.93299866    1.01999998    2.32999992
   12.47361088  142.43800354    1.03999996    2.32999992
   12.47694397  138.85899353    1.07000005    2.32999992
   12.48027706  157.39900208    1.11000001    2.32999992
   12.48333359  135.81500244    1.11000001    2.32999992
   12.48666668  146.05099487    1.14999998    2.32999992
   12.48972225  135.35499573    1.16999996    2.32999992
   12.49333382  138.10899353    1.16999996    2.32999992
   12.49388885  135.75199890    1.16999996    2.32999992
   12.49694443  133.80499268    1.16999996    2.32999992
   12.50027752  143.79100037    1.16999996    2.32999992
   12.50361156  139.88499451    1.16999996    2.34999990
   12.50916672  139.88499451    1.16999996    2.32999992
   12.51333332  143.62899780    1.16999996    2.32999992
   12.51638889  140.80900574    1.14999998    2.34999990
   12.51972198  141.84700012    1.14999998    2.32999992
   12.52305508  136.59500122    1.14999998    2.34999990
   12.52611065  141.72599792    1.14999998    2.34999990
   12.52722168  143.07699585    1.14999998    2.34999990
   12.52999973  136.88000488    1.14999998    2.34999990
   12.53305531  148.41000366    1.14999998    2.34999990
   12.53638935  144.81300354    1.11000001    2.34999990
   12.53972244  139.02400208    1.09000003    2.34999990
   12.54277802  143.25599670    1.07000005    2.34999990
   12.54611111  141.61700439    1.05999994    2.34999990
   12.55194473  141.61700439    1.05999994    2.34999990
   12.55611134  139.83599854    1.03999996    2.36999989
   12.55944443  134.89700317    1.03999996    2.36999989
   12.56055546  141.32099915    1.03999996    2.36999989
   12.56305599  161.53700256    1.03999996    2.36999989
   12.56611156  140.60800171    1.03999996    2.34999990
   12.56944466  145.96899414    1.05999994    2.36999989
   12.57277775  137.39999390    1.05999994    2.34999990
   12.57583332  141.25199890    1.05999994    2.34999990
   12.57916641  141.74200439    1.05999994    2.36999989
   12.58222198  137.32699585    1.07000005    2.39000010
   12.58555508  135.17900085    1.07000005    2.36999989
   12.58888817  142.57899475    1.07000005    2.39000010
   12.59472179  142.57899475    1.07000005    2.39000010
   12.59888840  136.88999939    1.07000005    2.36999989
   12.60222244  133.03399658    1.05999994    2.39000010
   12.60555553  136.71699524    1.05999994    2.39000010
   12.60861111  132.63999939    1.01999998    2.36999989
   12.61194515  131.68499756    1.00000000    2.39000010
   12.61500072  130.09199524    1.00000000    2.39000010
   12.61833382  135.29800415    0.98000002    2.39000010
   12.62166691  135.61999512    0.95999998    2.39000010
   12.62472248  136.14999390    0.95999998    2.39000010
   12.62722206  134.16299438    0.95999998    2.39000010
   12.62861156  133.99299622    0.95999998    2.39000010
   12.63166714  137.02999878    0.94000000    2.39000010
   12.63777733  137.02999878    0.94000000    2.39000010
   12.64166641  135.37100220    0.95999998    2.39000010
   12.64499950  136.29899597    0.95999998    2.39000010
   12.64833355  133.64999390    0.98000002    2.39000010
   12.65166664  135.92199707    1.00000000    2.39000010
   12.65472221  133.47799683    1.00000000    2.39000010
   12.65805531  136.64199829    1.00000000    2.39000010
   12.66055489  139.52900696    1.01999998    2.39000010
   12.66166592  131.40600586    1.01999998    2.39000010
   12.66472149  133.23699951    1.03999996    2.40000010
   12.66805553  135.02299500    1.09000003    2.40000010
   12.67138958  134.75900269    1.07000005    2.40000010
   12.67444515  136.94000244    1.07000005    2.40000010
   12.68055630  136.94000244    1.07000005    2.40000010
   12.68472195  135.10499573    1.05999994    2.42000008
   12.68777752  139.87899780    1.05999994    2.40000010
   12.69111156  130.05700684    1.05999994    2.42000008
   12.69388866  137.65299988    1.05999994    2.42000008
   12.69472218  140.76199341    1.05999994    2.40000010
   12.69777775  135.70799255    1.05999994    2.40000010
   12.70111084  139.58700562    1.03999996    2.40000010
   12.70444393  136.46099854    1.03999996    2.40000010
   12.70749950  132.03300476    1.03999996    2.42000008
   12.71083355  133.22000122    1.01999998    2.40000010
   12.71388912  136.72000122    1.00000000    2.42000008
   12.71722221  129.93600464    1.00000000    2.40000010
   12.72333336  129.93600464    0.98000002    2.40000010
   12.72749996  134.01499939    0.98000002    2.40000010
   12.73083305  131.75500488    0.98000002    2.42000008
   12.73388958  132.51600647    0.95999998    2.40000010
   12.73722267  130.36999512    0.95999998    2.42000008
   12.74027824  135.38000488    0.95999998    2.42000008
   12.74361134  132.40899658    0.95999998    2.42000008
   12.74694443  130.84199524    0.95999998    2.42000008
   12.75000000  143.92300415    0.95999998    2.42000008
   12.75333309  134.10699463    0.95999998    2.42000008
   12.75666714  129.10699463    0.95999998    2.42000008
   12.75972176  133.59100342    1.00000000    2.42000008
   12.76055527  139.72900391    1.00000000    2.42000008
   12.76611137  139.72900391    1.01999998    2.42000008
   12.77027798  140.61099243    1.00000000    2.44000006
   12.77361107  127.53500366    1.00000000    2.44000006
   12.77666664  141.44500732    1.00000000    2.42000008
   12.77999973  149.68299866    1.00000000    2.44000006
   12.78333378  133.19999695    1.00000000    2.44000006
   12.78638935  143.66099548    1.00000000    2.42000008
   12.78972244  142.23300171    1.00000000    2.44000006
   12.79305553  138.56199646    1.00000000    2.42000008
   12.79388905  148.58399963    1.00000000    2.42000008
   12.79666710  137.30599976    1.00000000    2.42000008
   12.79972267  134.07000732    1.00000000    2.44000006
   12.80305576  137.71800232    1.01999998    2.44000006
   12.80916691  137.71800232    1.00000000    2.44000006
   12.81305599  136.60400391    1.00000000    2.42000008
   12.81638908  151.16000366    1.00000000    2.42000008
   12.81972218  135.37100220    1.01999998    2.46000004
   12.82277775  137.67900085    1.01999998    2.46000004
   12.82611084  142.10899353    1.01999998    2.44000006
   12.82722187  144.19299316    1.01999998    2.44000006
   12.82972240  154.23300171    1.01999998    2.44000006
   12.83277798  142.62300110    1.01999998    2.44000006
   12.83611107  155.04200745    1.00000000    2.44000006
   12.83944416  134.29400635    1.00000000    2.46000004
   12.84249973  130.86700439    1.00000000    2.44000006
   12.84583282  128.80799866    1.00000000    2.46000004
   12.85194492  128.80799866    1.00000000    2.44000006
   12.85611153  135.88200378    1.00000000    2.44000006
   12.85944462  135.96299744    1.00000000    2.44000006
   12.86083412  135.60299683    1.00000000    2.44000006
   12.86305618  136.56300354    1.00000000    2.46000004
   12.86638927  136.23399353    1.00000000    2.46000004
   12.86972237  136.68699646    0.98000002    2.44000006
   12.87277794  135.66600037    0.98000002    2.46000004
   12.87611103  132.84100342    0.98000002    2.46000004
   12.87916660  147.01199341    0.98000002    2.46000004
   12.88249969  146.86199951    1.00000000    2.46000004
   12.88583279  138.13299561    1.00000000    2.46000004
   12.88888836  131.58700562    1.00000000    2.46000004
   12.89472198  131.58700562    1.00000000    2.44000006
   12.89888859  143.50500488    0.98000002    2.46000004
   12.90222168  135.22200012    0.95999998    2.46000004
   12.90527725  130.19299316    0.94000000    2.46000004
   12.90861034  141.92100525    0.94000000    2.46000004
   12.91194439  142.19999695    0.94000000    2.46000004
   12.91499996  128.98500061    0.92000002    2.48000002
   12.91833401  137.13299561    0.92000002    2.46000004
   12.92138958  132.34899902    0.94000000    2.46000004
   12.92472267  138.69099426    0.94000000    2.46000004
   12.92722225  139.02900696    0.94000000    2.46000004
   12.92833328  137.71099854    0.94000000    2.46000004
   12.93138885  138.90600586    0.94000000    2.48000002
   12.93750000  138.90600586    0.94000000    2.48000002
   12.94166660  135.97200012    0.94000000    2.46000004
   12.94499969  147.96099854    0.95999998    2.46000004
   12.94833374  142.00300598    0.94000000    2.46000004
   12.95138836  134.75599670    0.94000000    2.46000004
   12.95472240  133.81900024    0.94000000    2.46000004
   12.95805550  131.51199341    0.94000000    2.48000002
   12.96055508  128.94900513    0.94000000    2.46000004
   12.96166611  146.03999329    0.94000000    2.46000004
   12.96500015  134.01199341    0.95999998    2.46000004
   12.96805477  130.92900085    0.95999998    2.48000002
   12.97138882  129.82499695    0.95999998    2.48000002
   12.97444439  129.38400269    0.95999998    2.48000002
   12.98055553  129.38400269    0.98000002    2.48000002
   12.98472214  128.34100342    0.98000002    2.48000002
   12.98777771  132.54800415    0.98000002    2.48000002
   12.99111176  143.25399780    0.98000002    2.48000002
   12.99388885  146.34700012    0.94000000    2.48000002
   12.99472237  134.41299438    0.94000000    2.48000002
   12.99777794  134.21200562    0.94000000    2.48000002
   13.00111103  147.86099243    0.95999998    2.50000000
   13.00444412  131.39300537    0.98000002    2.48000002
   13.00777817  128.53999329    1.00000000    2.48000002
   13.01111126  137.91200256    1.00000000    2.48000002
   13.01444435  125.87999725    0.98000002    2.50000000
   13.01749992  133.73599243    0.98000002    2.50000000
   13.02333355  133.73599243    0.94000000    2.48000002
   13.02750015  134.53300476    0.92000002    2.48000002
   13.03055573  132.32600403    0.89999998    2.50000000
   13.03388977  133.20100403    0.88000000    2.50000000
   13.03722286  133.16200256    0.89999998    2.50000000
   13.04027843  144.58900452    0.89999998    2.50000000
   13.04361153  136.44700623    0.92000002    2.50000000
   13.04694462  139.93200684    0.92000002    2.50000000
   13.05000019  134.00799561    0.94000000    2.50000000
   13.05333328  135.04299927    0.94000000    2.50000000
   13.05666733  136.32499695    0.94000000    2.50000000
   13.06000042  131.70599365    0.94000000    2.50000000
   13.06055546  132.31799316    0.94000000    2.51999998
   13.08111095  132.31799316    0.92000002    2.50000000
   13.08527756  129.21800232    0.92000002    2.50000000
   13.08861065  131.03900146    0.92000002    2.50000000
   13.09194374  136.68899536    0.92000002    2.50000000
   13.09388828  131.18200684    0.92000002    2.50000000
   13.09555531  148.34199524    0.92000002    2.50000000
   13.09888840  138.47799683    0.92000002    2.51999998
   13.10194492  143.77499390    0.92000002    2.51999998
   13.10527802  149.99400330    0.92000002    2.50000000
   13.10861111  143.22500610    0.92000002    2.51999998
   13.11166668  134.72099304    0.92000002    2.51999998
   13.11500072  137.84800720    0.89999998    2.50000000
   13.11833382  136.82400513    0.89999998    2.50000000
   13.12388897  136.82400513    0.94000000    2.51999998
   13.12805557  141.48100281    0.94000000    2.50000000
   13.13138866  133.17500305    0.94000000    2.50000000
   13.13444424  132.14799500    0.94000000    2.51999998
   13.13777733  128.76100159    0.95999998    2.51999998
   13.14111137  146.02400208    0.98000002    2.51999998
   13.14416695  130.77799988    0.98000002    2.51999998
   13.14750004  133.16700745    1.00000000    2.53999996
   13.15083313  133.80299377    1.00000000    2.53999996
   13.15388870  149.79400635    1.00000000    2.51999998
   13.15722179  133.27499390    0.98000002    2.50000000
   13.16027737  150.20100403    0.95999998    2.51999998
   13.16083336  139.04800415    0.95999998    2.51999998
   13.16694450  139.04800415    0.95999998    2.53999996
   13.17083359  134.10600281    0.95999998    2.51999998
   13.17416668  131.41499329    0.95999998    2.53999996
   13.17750072  139.96299744    0.95999998    2.53999996
   13.18055630  135.77499390    0.95999998    2.53999996
   13.18388939  127.96700287    0.98000002    2.53999996
   13.18722248  142.14199829    0.98000002    2.51999998
   13.19027805  121.05799866    0.98000002    2.53999996
   13.19361115  134.76300049    0.95999998    2.51999998
   13.19416714  129.65800476    0.95999998    2.51999998
   13.19722271  139.16799927    0.95999998    2.51999998
   13.20027733  143.04699707    0.95999998    2.51999998
   13.20361137  138.24099731    0.94000000    2.53999996
   13.20972157  138.24099731    0.94000000    2.53999996
   13.21388912  137.25100708    0.94000000    2.51999998
   13.21694374  147.04899597    0.94000000    2.53999996
   13.22027779  133.98500061    0.94000000    2.53999996
   13.22361088  133.08299255    0.94000000    2.53999996
   13.22666645  139.47000122    0.95999998    2.53999996
   13.22749996  133.55900574    0.95999998    2.53999996
   13.23027706  136.95799255    0.95999998    2.53999996
   13.23333359  141.36199951    0.95999998    2.53999996
   13.23666668  129.05999756    0.95999998    2.53999996
   13.24000072  146.35200500    0.95999998    2.53999996
   13.24305534  130.09800720    0.95999998    2.53999996
   13.24638939  141.77400208    0.95999998    2.53999996
   13.25249958  141.77400208    0.95999998    2.53999996
   13.25666714  137.20599365    0.95999998    2.53999996
   13.26000023  124.84500122    0.98000002    2.53999996
   13.26083374  126.95600128    0.98000002    2.53999996
   13.26361084  131.30900574    0.98000002    2.53999996
   13.26694393  129.83299255    0.98000002    2.53999996
   13.26999950  130.57800293    0.98000002    2.53999996
   13.27333355  137.09800720    0.95999998    2.53999996
   13.27638817  128.02600098    0.98000002    2.53999996
   13.27972221  136.67399597    0.98000002    2.53999996
   13.28305531  130.74899292    0.98000002    2.53999996
   13.28611183  126.76599884    0.98000002    2.53999996
   13.28944492  132.49600220    0.98000002    2.53999996
   13.29527855  132.49600220    0.98000002    2.55999994
   13.29944515  132.18899536    0.98000002    2.53999996
   13.30277824  129.71499634    0.98000002    2.53999996
   13.30583382  124.87599945    0.95999998    2.55999994
   13.30916691  131.83000183    0.95999998    2.53999996
   13.31250000  134.31500244    0.94000000    2.53999996
   13.31555557  127.84899902    0.94000000    2.53999996
   13.31888866  133.89700317    0.92000002    2.57999992
   13.32222176  132.03300476    0.92000002    2.55999994
   13.32527733  121.94699860    0.92000002    2.53999996
   13.32750034  125.49299622    0.92000002    2.53999996
   13.32888889  128.21200562    0.92000002    2.53999996
   13.33194447  127.05500031    0.92000002    2.55999994
   13.33805561  127.05500031    0.92000002    2.55999994
   13.34222221  129.10699463    0.89999998    2.55999994
   13.34555531  124.33999634    0.89999998    2.55999994
   13.34888840  120.90799713    0.89999998    2.55999994
   13.35194492  122.56199646    0.92000002    2.55999994
   13.35527802  129.39199829    0.89999998    2.55999994
   13.35833359  128.88600159    0.88000000    2.55999994
   13.36083412  127.36699677    0.88000000    2.55999994
   13.36194515  130.62600708    0.88000000    2.55999994
   13.36527824  124.87799835    0.88000000    2.55999994
   13.36833382  128.44999695    0.88000000    2.55999994
   13.37166691  135.54100037    0.86000001    2.55999994
   13.37472248  128.26499939    0.86000001    2.55999994
   13.38111115  128.26499939    0.88000000    2.57999992
   13.38527775  140.76600647    0.89999998    2.55999994
   13.38833332  127.41400146    0.89999998    2.55999994
   13.39166641  128.07099915    0.89999998    2.55999994
   13.39444447  132.98300171    0.92000002    2.55999994
   13.39527798  132.92599487    0.92000002    2.55999994
   13.39861107  126.01100159    0.92000002    2.55999994
   13.40194416  122.12599945    0.92000002    2.55999994
   13.40499973  134.12800598    0.89999998    2.55999994
   13.40833282  128.55200195    0.89999998    2.55999994
   13.41166592  130.00300598    0.89999998    2.57999992
   13.41472149  129.99699402    0.88000000    2.57999992
   13.41805553  127.66300201    0.88000000    2.55999994
   13.42388916  127.66300201    0.86000001    2.57999992
   13.42805576  132.01100159    0.83999997    2.55999994
   13.43138885  125.77200317    0.83999997    2.55999994
   13.43444443  122.08799744    0.86000001    2.57999992
   13.43777752  121.06800079    0.86000001    2.57999992
   13.44083309  124.61599731    0.88000000    2.57999992
   13.44416714  130.27499390    0.89999998    2.55999994
   13.44750023  129.36500549    0.89999998    2.57999992
   13.45055580  120.14299774    0.92000002    2.57999992
   13.45388889  131.76499939    0.92000002    2.57999992
   13.45722198  135.94599915    0.92000002    2.57999992
   13.46027756  127.54599762    0.94000000    2.55999994
   13.46083355  129.02200317    0.94000000    2.55999994
   13.46666622  129.02200317    0.94000000    2.57999992
   13.47083282  123.26300049    0.94000000    2.55999994
   13.47416592  128.06100464    0.94000000    2.57999992
   13.47722149  128.56100464    0.94000000    2.57999992
   13.48055553  123.21199799    0.94000000    2.57999992
   13.48388958  134.20899963    0.94000000    2.55999994
   13.48694515  123.56099701    0.92000002    2.59999990
   13.49027824  127.01599884    0.92000002    2.57999992
   13.49333382  126.80300140    0.92000002    2.57999992
   13.49416733  127.51899719    0.89999998    2.57999992
   13.49694443  126.23999786    0.89999998    2.57999992
   13.50027752  128.58399963    0.88000000    2.57999992
   13.50333309  123.98899841    0.88000000    2.59999990
   13.50944424  123.98899841    0.88000000    2.57999992
   13.51361084  122.24299622    0.86000001    2.59999990
   13.51694393  121.89700317    0.86000001    2.59999990
   13.52027798  120.66799927    0.86000001    2.59999990
   13.52333355  120.90699768    0.86000001    2.57999992
   13.52666664  128.77999878    0.86000001    2.57999992
   13.52750015  124.21499634    0.86000001    2.57999992
   13.53027725  130.02999878    0.86000001    2.57999992
   13.53361130  124.40299988    0.86000001    2.59999990
   13.53666687  123.78600311    0.86000001    2.57999992
   13.54000092  125.73100281    0.86000001    2.57999992
   13.54333401  123.74099731    0.86000001    2.57999992
   13.54638958  120.80999756    0.88000000    2.57999992
   13.55249977  120.80999756    0.89999998    2.59999990
   13.55666733  120.29799652    0.89999998    2.59999990
   13.55972195  123.90299988    0.89999998    2.57999992
   13.56083393  125.68699646    0.89999998    2.57999992
   13.56333351  124.89600372    0.88000000    2.59999990
   13.56666660  117.07299805    0.88000000    2.57999992
   13.56972218  135.68600464    0.88000000    2.57999992
   13.57305527  122.98999786    0.88000000    2.57999992
   13.57638836  128.36900330    0.88000000    2.59999990
   13.57944393  121.09999847    0.88000000    2.59999990
   13.58277798  121.65000153    0.88000000    2.57999992
   13.58583260  119.37599945    0.86000001    2.59999990
   13.58916664  124.05500031    0.86000001    2.59999990
   13.59527779  124.05500031    0.83999997    2.59999990
   13.59944439  121.11399841    0.83999997    2.59999990
   13.60277843  124.51999664    0.83999997    2.59999990
   13.60583401  125.69499969    0.81999999    2.59999990
   13.60916710  124.33799744    0.83999997    2.59999990
   13.61222267  125.03299713    0.83999997    2.59999990
   13.61555576  125.20200348    0.83999997    2.59999990
   13.61888885  122.40799713    0.83999997    2.59999990
   13.62194443  128.81599426    0.83999997    2.59999990
   13.62527752  121.60199738    0.83999997    2.59999990
   13.62750053  118.67700195    0.83999997    2.59999990
   13.62888908  122.10299683    0.83999997    2.59999990
   13.63222218  123.48300171    0.83999997    2.59999990
   13.63805580  123.48300171    0.83999997    2.59999990
   13.64222240  123.93800354    0.83999997    2.59999990
   13.64555550  122.52100372    0.81999999    2.59999990
   13.64861107  127.83200073    0.80000001    2.59999990
   13.65194416  119.98200226    0.80000001    2.59999990
   13.65527725  122.23200226    0.80000001    2.59999990
   13.65833282  120.10199738    0.80000001    2.59999990
   13.66083336  121.01000214    0.79000002    2.59999990
   13.66194439  119.83000183    0.79000002    2.59999990
   13.66527748  115.94300079    0.79000002    2.61999989
   13.66833401  120.19999695    0.79000002    2.61999989
   13.67166710  119.13600159    0.80000001    2.59999990
   13.67472267  120.79599762    0.80000001    2.61999989
   13.68111134  120.79599762    0.79000002    2.59999990
   13.68500042  120.62599945    0.79000002    2.59999990
   13.68833351  125.64900208    0.79000002    2.59999990
   13.69166660  124.17900085    0.79000002    2.61999989
   13.69416714  119.23799896    0.79000002    2.59999990
   13.69527817  121.25000000    0.79000002    2.59999990
   13.69861126  120.18800354    0.79000002    2.61999989
   13.70166683  123.36799622    0.76999998    2.61999989
   13.70499992  124.64600372    0.79000002    2.59999990
   13.70805550  124.48899841    0.79000002    2.61999989
   13.71138859  123.14399719    0.79000002    2.61999989
   13.71472168  120.08899689    0.79000002    2.59999990
   13.71777725  123.14299774    0.79000002    2.61999989
   13.72388840  123.14299774    0.79000002    2.61999989
   13.72805500  117.51999664    0.79000002    2.61999989
   13.73111057  119.44699860    0.79000002    2.59999990
   13.73444462  120.44699860    0.80000001    2.59999990
   13.73777771  120.37899780    0.80000001    2.59999990
   13.74083328  114.37400055    0.80000001    2.59999990
   13.74416733  125.71199799    0.80000001    2.64000010
   13.74750042  120.12999725    0.79000002    2.59999990
   13.75055599  119.97399902    0.80000001    2.59999990
   13.75388908  117.25499725    0.80000001    2.59999990
   13.75694466  121.74700165    0.81999999    2.61999989
   13.76027775  121.96399689    0.81999999    2.61999989
   13.76111126  122.21399689    0.81999999    2.61999989
   13.76666641  122.21399689    0.81999999    2.61999989
   13.77083302  125.10099792    0.81999999    2.61999989
   13.77388859  120.65599823    0.81999999    2.61999989
   13.77722168  119.56800079    0.81999999    2.59999990
   13.78055573  118.70899963    0.80000001    2.61999989
   13.78388977  123.33100128    0.80000001    2.61999989
   13.78694534  122.46399689    0.80000001    2.61999989
   13.79027843  117.97599792    0.80000001    2.61999989
   13.79333401  117.24600220    0.80000001    2.61999989
   13.79416752  117.59700012    0.80000001    2.61999989
   13.79694462  120.63999939    0.80000001    2.61999989
   13.80027771  114.97299957    0.80000001    2.61999989
   13.80333328  118.57299805    0.80000001    2.61999989
   13.80944443  118.57299805    0.80000001    2.61999989
   13.81361103  122.73100281    0.81999999    2.61999989
   13.81694412  121.19200134    0.81999999    2.61999989
   13.81999969  119.20700073    0.81999999    2.59999990
   13.82333374  116.06400299    0.81999999    2.61999989
   13.82666683  121.38500214    0.81999999    2.61999989
   13.82750034  119.75599670    0.80000001    2.61999989
   13.82999992  119.12200165    0.80000001    2.61999989
   13.83333302  117.52700043    0.80000001    2.61999989
   13.83638859  117.52700043    0.79000002    2.64000010
   13.83972168  119.70600128    0.76999998    2.61999989
   13.84305477  115.66500092    0.76999998    2.61999989
   13.84611034  119.25599670    0.76999998    2.61999989
   13.85222244  119.25599670    0.76999998    2.64000010
   13.85638905  117.33899689    0.76999998    2.61999989
   13.85972214  115.26899719    0.76999998    2.64000010
   13.86083412  115.98100281    0.76999998    2.64000010
   13.86333370  119.77100372    0.76999998    2.64000010
   13.86666679  117.34799957    0.76999998    2.61999989
   13.86999989  121.29000092    0.75000000    2.64000010
   13.87333393  116.07900238    0.75000000    2.61999989
   13.87638855  114.70600128    0.75000000    2.64000010
   13.87972260  115.34799957    0.75000000    2.64000010
   13.88305569  117.95999908    0.76999998    2.61999989
   13.88611126  120.99500275    0.75000000    2.61999989
   13.88944435  118.54399872    0.76999998    2.61999989
   13.89527798  118.54399872    0.76999998    2.64000010
   13.89944458  117.41400146    0.76999998    2.61999989
   13.90249920  115.45099640    0.76999998    2.61999989
   13.90583324  117.70400238    0.76999998    2.64000010
   13.90888882  125.34100342    0.75000000    2.64000010
   13.91222191  119.10900116    0.75000000    2.61999989
   13.91555500  119.20600128    0.75000000    2.64000010
   13.91861153  117.44300079    0.75000000    2.64000010
   13.92194462  117.19200134    0.73000002    2.61999989
   13.92527771  114.48500061    0.73000002    2.64000010
   13.92750072  120.46399689    0.70999998    2.64000010
   13.92861176  118.43699646    0.70999998    2.64000010
   13.93194485  117.77899933    0.70999998    2.61999989
   13.93805599  117.77899933    0.70999998    2.64000010
   13.94222260  112.08999634    0.70999998    2.64000010
   13.94527817  114.00900269    0.70999998    2.64000010
   13.94861126  113.94999695    0.70999998    2.64000010
   13.95194435  115.29000092    0.70999998    2.64000010
   13.95499992  111.31600189    0.70999998    2.64000010
   13.95833302  114.79900360    0.70999998    2.64000010
   13.96111107  114.83200073    0.69000000    2.64000010
   13.96194458  116.59100342    0.69000000    2.64000010
   13.96527767  117.58100128    0.69000000    2.64000010
   13.96833324  117.01599884    0.69000000    2.64000010
   13.97166634  114.37300110    0.69000000    2.64000010
   13.97499943  116.61199951    0.69000000    2.64000010
   13.98083305  116.61199951    0.69000000    2.64000010
   13.98500061  116.77300262    0.70999998    2.64000010
   13.98833370  118.13899994    0.70999998    2.64000010
   13.99138927  119.15299988    0.70999998    2.64000010
   13.99416733  116.69899750    0.73000002    2.64000010
   13.99499989  115.44799805    0.73000002    2.64000010
   13.99833393  118.32399750    0.73000002    2.64000010
   14.00138855  116.02999878    0.73000002    2.64000010
   14.00472260  118.92900085    0.73000002    2.64000010
   14.00805569  114.99700165    0.73000002    2.64000010
   14.01111126  121.49600220    0.70999998    2.64000010
   14.01444435  121.42099762    0.70999998    2.64000010
   14.01777744  125.08200073    0.70999998    2.64000010
   14.02388859  125.08200073    0.70999998    2.64000010
   14.02777767  119.69699860    0.70999998    2.64000010
   14.03111076  119.40200043    0.70999998    2.64000010
   14.03444481  118.08799744    0.70999998    2.64000010
   14.03750038  123.17500305    0.70999998    2.66000009
   14.04083347  117.67800140    0.70999998    2.64000010
   14.04416752  119.22699738    0.70999998    2.64000010
   14.04722309  119.79599762    0.70999998    2.64000010
   14.05055618  115.55200195    0.70999998    2.64000010
   14.05361176  115.58300018    0.70999998    2.64000010
   14.05694485  118.57199860    0.70999998    2.66000009
   14.06027794  118.67900085    0.69000000    2.66000009
   14.06111145  118.01200104    0.69000000    2.66000009
   14.06666660  118.01200104    0.69000000    2.64000010
   14.07083321  115.22499847    0.69000000    2.64000010
   14.07388878  120.54299927    0.69000000    2.64000010
   14.07722187  113.81400299    0.70999998    2.66000009
   14.09472179  121.12100220    0.69000000    2.64000010
   14.09694386  117.19599915    0.69000000    2.64000010
   14.10027790  113.49299622    0.70999998    2.66000009
   14.10361195  118.65000153    0.70999998    2.66000009
   14.10972214  118.65000153    0.70999998    2.66000009
   14.11361122  117.51300049    0.70999998    2.64000010
   14.11722279  115.64199829    0.73000002    2.64000010
   14.12027836  117.54399872    0.73000002    2.64000010
   14.12361145  118.67800140    0.73000002    2.64000010
   14.12694454  119.52999878    0.73000002    2.66000009
   14.12805557  116.77700043    0.73000002    2.66000009
   14.13027763  117.84799957    0.70999998    2.66000009
   14.13361073  118.43900299    0.70999998    2.66000009
   14.13694477  118.76499939    0.70999998    2.66000009
   14.14000034  117.95899963    0.70999998    2.66000009
   14.14333344  112.97399902    0.70999998    2.66000009
   14.14666653  112.63099670    0.70999998    2.66000009
   14.15249920  112.63099670    0.69000000    2.66000009
   14.15666676  113.59200287    0.69000000    2.67000008
   14.15972137  112.48200226    0.69000000    2.66000009
   14.16111088  111.62999725    0.69000000    2.66000009
   14.16333294  114.27500153    0.70999998    2.66000009
   14.16666698  117.38999939    0.70999998    2.66000009
   14.16972256  119.76000214    0.70999998    2.66000009
   14.17305565  115.47100067    0.69000000    2.66000009
   14.17638874  115.10399628    0.70999998    2.66000009
   14.17944431  115.37100220    0.69000000    2.67000008
   14.18277836  115.08399963    0.69000000    2.66000009
   14.18611145  111.41699982    0.70999998    2.66000009
   14.18916702  113.77100372    0.69000000    2.66000009
   14.19527817  113.77100372    0.69000000    2.66000009
   14.19944477  116.08000183    0.70999998    2.66000009
   14.20249939  119.29599762    0.70999998    2.66000009
   14.20583344  120.21800232    0.69000000    2.66000009
   14.20916653  120.55200195    0.70999998    2.64000010
   14.21222210  115.78900146    0.69000000    2.66000009
   14.21555519  124.07399750    0.69000000    2.66000009
   14.21861076  111.81600189    0.70999998    2.64000010
   14.22194386  114.69100189    0.69000000    2.67000008
   14.22527695  113.88400269    0.70999998    2.66000009
   14.22805500  118.14399719    0.70999998    2.66000009
   14.22861099  118.51799774    0.70999998    2.66000009
   14.23194408  116.34799957    0.70999998    2.66000009
   14.23805618  116.34799957    0.70999998    2.66000009
   14.24222279  119.39199829    0.69000000    2.67000008
   14.24555588  112.87000275    0.69000000    2.67000008
   14.24861145  115.71700287    0.69000000    2.66000009
   14.25194454  124.20800018    0.69000000    2.66000009
   14.25527763  119.47000122    0.69000000    2.66000009
   14.25833321  114.13600159    0.70999998    2.66000009
   14.26138878  114.54299927    0.70999998    2.66000009
   14.26194477  115.77300262    0.70999998    2.66000009
   14.26527786  118.94100189    0.70999998    2.66000009
   14.26833344  122.99500275    0.70999998    2.66000009
   14.27166653  116.88700104    0.70999998    2.66000009
   14.27499962  123.73600006    0.69000000    2.67000008
   14.28083324  123.73600006    0.69000000    2.67000008
   14.28500080  117.53900146    0.69000000    2.67000008
   14.28833389  124.22000122    0.69000000    2.66000009
   14.29166698  120.62200165    0.70999998    2.67000008
   14.29472256  120.34100342    0.70999998    2.66000009
   14.29500008  120.03700256    0.70999998    2.66000009
   14.29833412  122.97299957    0.70999998    2.67000008
   14.30166721  116.55500031    0.70999998    2.67000008
   14.30472279  114.67400360    0.73000002    2.67000008
   14.30805588  112.44400024    0.73000002    2.67000008
   14.31138897  116.08599854    0.73000002    2.67000008
   14.31444454  117.62999725    0.73000002    2.66000009
   14.31777763  122.30799866    0.73000002    2.66000009
   14.32388878  122.30799866    0.73000002    2.67000008
   14.32805538  114.00199890    0.73000002    2.67000008
   14.32833290  118.31999969    0.73000002    2.67000008
   14.33166695  114.78399658    0.73000002    2.69000006
   14.33472157  117.25700378    0.73000002    2.66000009
   14.33805561  117.62599945    0.73000002    2.66000009
   14.34138870  118.49800110    0.73000002    2.66000009
   14.34444427  118.12200165    0.73000002    2.66000009
   14.34777737  113.69200134    0.73000002    2.66000009
   14.35111141  116.70400238    0.73000002    2.66000009
   14.35416698  115.15299988    0.73000002    2.67000008
   14.35750008  115.90899658    0.73000002    2.67000008
   14.36055565  123.97499847    0.73000002    2.67000008
   14.36138916  122.35700226    0.73000002    2.67000008
   14.36666679  122.35700226    0.73000002    2.66000009
   14.37083340  124.36900330    0.73000002    2.67000008
   14.37388897  117.91200256    0.73000002    2.67000008
   14.37722206  117.66100311    0.73000002    2.67000008
   14.38055611  119.02600098    0.73000002    2.67000008
   14.38361073  115.42099762    0.73000002    2.67000008
   14.38694477  120.56199646    0.70999998    2.66000009
   14.39000034  115.22299957    0.70999998    2.66000009
   14.39333344  121.97100067    0.73000002    2.66000009
   14.39472198  123.83699799    0.73000002    2.67000008
   14.39694405  122.51000214    0.73000002    2.67000008
   14.40027714  114.94000244    0.73000002    2.67000008
   14.40361118  116.84400177    0.73000002    2.67000008
   14.40944386  116.84400177    0.70999998    2.69000006
   14.41361046  118.13600159    0.70999998    2.67000008
   14.41694450  115.69100189    0.70999998    2.66000009
   14.42000008  114.34700012    0.70999998    2.66000009
   14.42333412  116.19499969    0.70999998    2.67000008
   14.42666721  112.29299927    0.73000002    2.67000008
   14.42805576  112.64700317    0.73000002    2.67000008
   14.43000031  117.63899994    0.73000002    2.67000008
   14.43333340  115.86699677    0.73000002    2.67000008
   14.43666649  113.58000183    0.70999998    2.67000008
   14.43972206  113.87300110    0.70999998    2.66000009
   14.44305515  117.95200348    0.70999998    2.66000009
   14.44611073  116.65399933    0.70999998    2.67000008
   14.45249939  116.65399933    0.70999998    2.67000008
   14.45638847  115.02500153    0.69000000    2.67000008
   14.45972157  119.28700256    0.69000000    2.66000009
   14.46138859  117.56500244    0.69000000    2.67000008
   14.46333313  116.74800110    0.69000000    2.67000008
   14.46666622  118.87699890    0.69000000    2.67000008
   14.46999931  122.12000275    0.70999998    2.67000008
   14.47305489  115.57499695    0.70999998    2.67000008
   14.47638798  117.99800110    0.70999998    2.67000008
   14.47944355  118.18199921    0.70999998    2.67000008
   14.48277760  118.24099731    0.70999998    2.67000008
   14.48611164  117.65299988    0.70999998    2.67000008
   14.48916721  118.01200104    0.70999998    2.67000008
   14.49527836  118.01200104    0.73000002    2.67000008
   14.49944496  116.26200104    0.73000002    2.67000008
   14.50249958  111.61000061    0.73000002    2.67000008
   14.50583363  113.53700256    0.73000002    2.67000008
   14.50916672  119.03299713    0.73000002    2.67000008
   14.51222229  118.48699951    0.70999998    2.67000008
   14.51555538  128.00700378    0.70999998    2.67000008
   14.51861095  117.43499756    0.70999998    2.67000008
   14.52194405  119.44200134    0.70999998    2.69000006
   14.52527714  117.70700073    0.70999998    2.69000006
   14.52805519  120.26899719    0.70999998    2.67000008
   14.52861118  122.22200012    0.70999998    2.67000008
   14.53194427  120.16200256    0.69000000    2.67000008
   14.53805637  120.16200256    0.69000000    2.67000008
   14.54222298  118.30500031    0.69000000    2.67000008
   14.54555607  126.70400238    0.69000000    2.67000008
   14.54861164  120.96700287    0.69000000    2.69000006
   14.55194473  121.38500214    0.69000000    2.67000008
   14.55527782  120.90499878    0.69000000    2.67000008
   14.55833340  117.66300201    0.70999998    2.67000008
   14.56138897  112.71600342    0.69000000    2.67000008
   14.56194496  118.74299622    0.69000000    2.67000008
   14.56527805  114.87200165    0.69000000    2.67000008
   14.56861115  119.86299896    0.69000000    2.69000006
   14.57166672  118.80500031    0.69000000    2.69000006
   14.57499981  116.16600037    0.69000000    2.69000006
   14.58083344  116.16600037    0.69000000    2.69000006
   14.58500004  118.31400299    0.69000000    2.69000006
   14.58833313  119.23699951    0.69000000    2.67000008
   14.59138870  115.84600067    0.69000000    2.67000008
   14.59472179  120.10600281    0.69000000    2.67000008
   14.59499931  117.80999756    0.69000000    2.67000008
   14.59833336  117.23000336    0.69000000    2.67000008
   14.60166740  116.08999634    0.69000000    2.69000006
   14.60472298  115.93000031    0.69000000    2.67000008
   14.60805607  115.31500244    0.69000000    2.67000008
   14.61111164  114.26799774    0.69000000    2.69000006
   14.61444473  116.51899719    0.69000000    2.67000008
   14.61777782  117.39299774    0.69000000    2.66000009
   14.62388897  117.39299774    0.69000000    2.67000008
   14.62777805  115.26000214    0.69000000    2.69000006
   14.62833309  115.51200104    0.69000000    2.69000006
   14.63166714  119.54499817    0.70999998    2.69000006
   14.63500023  119.57499695    0.70999998    2.67000008
   14.63805580  118.39499664    0.70999998    2.67000008
   14.64138889  117.20600128    0.70999998    2.69000006
   14.64444447  118.03199768    0.70999998    2.69000006
   14.64777756  120.05799866    0.70999998    2.69000006
   14.65111065  119.04000092    0.70999998    2.69000006
   14.65416622  121.07499695    0.76999998    2.67000008
   14.65749931  118.42900085    0.76999998    2.69000006
   14.66083336  114.97399902    0.76999998    2.67000008
   14.66166592  120.56400299    0.76999998    2.67000008
   14.66666698  120.56400299    0.76999998    2.67000008
   14.67083359  116.19300079    0.80000001    2.67000008
   14.67388916  114.08100128    0.76999998    2.69000006
   14.67722225  116.76599884    0.76999998    2.69000006
   14.68027782  122.94300079    0.76999998    2.69000006
   14.68361092  120.05000305    0.79000002    2.69000006
   14.68694496  112.98799896    0.79000002    2.69000006
   14.69000053  117.21099854    0.79000002    2.69000006
   14.69333363  116.31500244    0.76999998    2.69000006
   14.69499969  119.76999664    0.75000000    2.69000006
   14.69694424  122.28800201    0.75000000    2.69000006
   14.70027733  117.73999786    0.75000000    2.69000006
   14.70333290  119.00399780    0.73000002    2.69000006
   14.70944405  119.00399780    0.70999998    2.69000006
   14.71361065  119.98300171    0.70999998    2.69000006
   14.71694374  113.45200348    0.70999998    2.69000006
   14.71999931  118.26699829    0.70999998    2.69000006
   14.72333336  118.24099731    0.70999998    2.69000006
   14.72638798  115.33799744    1.03999996    2.69000006
   14.72833252  117.18800354    1.03999996    2.69000006
   14.72999954  113.60900116    1.03999996    2.69000006
   14.73305511  114.80899811    0.73000002    2.69000006
   14.73638916  116.80300140    0.75000000    2.69000006
   14.73972225  116.29499817    0.79000002    2.69000006
   14.74277782  111.60500336    0.79000002    2.67000008
   14.74611092  111.83399963    0.79000002    2.67000008
   14.75222206  111.83399963    0.76999998    2.69000006
   14.75638866  114.23400116    0.75000000    2.69000006
   14.75972176  117.63200378    0.75000000    2.69000006
   14.76166630  115.02300262    0.75000000    2.69000006
   14.76333332  111.57499695    0.75000000    2.69000006
   14.76666641  115.88500214    0.81999999    2.69000006
   14.76972198  114.89600372    0.75000000    2.69000006
   14.77305508  113.63600159    0.75000000    2.69000006
   14.77611065  111.44200134    0.75000000    2.69000006
   14.77944374  115.53299713    0.75000000    2.69000006
   14.78277779  122.72100067    0.73000002    2.69000006
   14.78583336  117.38400269    0.73000002    2.69000006
   14.78916740  118.16300201    0.75000000    2.69000006
   14.79500008  118.16300201    0.73000002    2.69000006
   14.79916668  113.79100037    0.73000002    2.69000006
   14.80249977  118.45600128    0.73000002    2.69000006
   14.80583382  120.84300232    0.73000002    2.69000006
   14.80888939  118.46900177    0.73000002    2.69000006
   14.81222248  116.96800232    0.70999998    2.69000006
   14.81555557  114.30699921    0.73000002    2.69000006
   14.81861115  114.62000275    0.73000002    2.69000006
   14.82194424  122.09700012    0.73000002    2.69000006
   14.82499981  114.70500183    0.73000002    2.69000006
   14.82833290  120.56300354    0.73000002    2.71000004
   14.82888889  115.72799683    0.73000002    2.69000006
   14.83194447  121.06600189    0.73000002    2.69000006
   14.83805561  121.06600189    0.70999998    2.69000006
   14.84222221  120.71700287    0.70999998    2.69000006
   14.84527779  119.94300079    0.69000000    2.69000006
   14.84861088  122.66799927    0.69000000    2.69000006
   14.85166740  115.17199707    0.67000002    2.71000004
   14.85500050  108.84300232    0.67000002    2.69000006
   14.85833359  113.52700043    0.67000002    2.69000006
   14.86138916  120.44599915    0.67000002    2.71000004
   14.86222267  119.07099915    0.67000002    2.71000004
   14.86500072  111.73400116    0.67000002    2.69000006
   14.86833382  116.30899811    0.67000002    2.69000006
   14.87166691  112.66200256    0.69000000    2.69000006
   14.87472248  114.58100128    0.69000000    2.71000004
   14.88083363  114.58100128    0.69000000    2.69000006
   14.88500023  113.31500244    0.69000000    2.69000006
   14.88805580  114.44699860    0.69000000    2.69000006
   14.89138889  111.83799744    0.69000000    2.69000006
   14.89472198  115.00199890    0.69000000    2.69000006
   14.89555550  113.20300293    0.70999998    2.69000006
   14.89833355  116.48999786    0.70999998    2.69000006
   14.90138817  115.44200134    0.70999998    2.71000004
   14.90472221  113.89499664    0.70999998    2.69000006
   14.90805531  115.07800293    0.70999998    2.69000006
   14.91111088  113.93699646    0.70999998    2.69000006
   14.91444397  116.51100159    0.70999998    2.69000006
   14.91777802  111.59799957    0.70999998    2.69000006
   14.92361164  111.59799957    0.70999998    2.69000006
   14.92777824  114.76499939    0.70999998    2.69000006
   14.92888927  120.37100220    0.70999998    2.69000006
   14.93138885  114.61399841    0.70999998    2.69000006
   14.93444443  118.85600281    0.70999998    2.69000006
   14.93777752  119.60299683    0.70999998    2.67000008
   14.94083309  116.37799835    0.70999998    2.69000006
   14.94416714  115.74900055    0.73000002    2.69000006
   14.94750023  115.12999725    0.73000002    2.71000004
   14.95055580  113.20800018    0.73000002    2.71000004
   14.95388889  114.43199921    0.70999998    2.69000006
   14.95722198  113.74099731    0.70999998    2.69000006
   14.96027756  110.21800232    0.70999998    2.69000006
   14.96222210  111.97200012    0.70999998    2.69000006
   14.96638870  111.97200012    0.70999998    2.69000006
   14.97055531  113.75000000    0.70999998    2.69000006
   14.97388840  114.85900116    0.70999998    2.69000006
   14.97722149  112.21499634    0.70999998    2.69000006
   14.98027706  112.31500244    0.70999998    2.69000006
   14.98361111  114.53299713    0.69000000    2.69000006
   14.98694515  109.41799927    0.69000000    2.69000006
   14.99000072  114.79599762    0.69000000    2.71000004
   14.99333382  116.26699829    0.69000000    2.71000004
   14.99555588  116.25000000    0.67000002    2.71000004
   14.99694443  113.34300232    0.67000002    2.71000004
   15.00000000  114.32599640    0.67000002    2.69000006
   15.00333309  113.67500305    0.67000002    2.71000004
   15.00944424  113.67500305    0.67000002    2.69000006
   15.01361084  114.58399963    0.67000002    2.69000006
   15.01666641  114.39399719    0.67000002    2.69000006
   15.01999950  112.60700226    0.69000000    2.69000006
   15.02305508  110.88899994    0.70999998    2.71000004
   15.02638817  116.62799835    0.70999998    2.71000004
   15.02888870  118.68699646    0.70999998    2.71000004
   15.02999973  116.23400116    0.70999998    2.71000004
   15.03305531  115.16300201    0.70999998    2.71000004
   15.03638935  116.22599792    0.73000002    2.69000006
   15.03944492  119.53099823    0.70999998    2.69000006
   15.04277802  113.35099792    0.70999998    2.69000006
   15.04583359  114.10099792    0.73000002    2.69000006
   15.05222225  114.10099792    0.70999998    2.69000006
   15.05638885  112.23200226    0.76999998    2.69000006
   15.05944443  119.02999878    0.76999998    2.69000006
   15.06222248  116.35700226    0.79000002    2.69000006
   15.06333351  115.40499878    0.79000002    2.69000006
   15.06638908  112.00399780    0.79000002    2.69000006
   15.06972218  111.59600067    0.79000002    2.71000004
   15.07277775  119.25399780    0.81999999    2.71000004
   15.07611084  116.13600159    0.83999997    2.69000006
   15.07944393  115.41000366    0.83999997    2.69000006
   15.08249950  117.59799957    0.76999998    2.71000004
   15.08583260  118.12899780    0.83999997    2.71000004
   15.08888817  115.63300323    0.80000001    2.69000006
   15.09499931  115.63300323    0.88000000    2.71000004
   15.11333370  123.11399841    0.79000002    2.71000004
   15.11666679  114.83999634    0.79000002    2.71000004
   15.11999989  116.90599823    0.79000002    2.69000006
   15.12305546  112.86299896    0.80000001    2.71000004
   15.12638855  118.98500061    0.80000001    2.71000004
   15.12972260  119.47699738    0.81999999    2.71000004
   15.13277817  117.78199768    0.76999998    2.71000004
   15.13805580  117.78199768    0.70999998    2.71000004
   15.14222240  113.92099762    0.63000000    2.71000004
   15.14555550  113.65899658    0.63000000    2.71000004
   15.14638901  115.72699738    0.63000000    2.71000004
   15.14916611  118.22899628    0.63000000    2.71000004
   15.15249920  112.11499786    0.63000000    2.69000006
   15.15555477  111.54199982    0.64999998    2.71000004
   15.15888882  119.72399902    0.64999998    2.71000004
   15.16194439  111.36699677    0.67000002    2.71000004
   15.16527748  118.13800049    0.69000000    2.69000006
   15.26222229   -1.00000000   -1.00000000   -1.00000000
   15.37416649   -1.00000000   -1.00000000   -1.00000000
   15.63694477   -1.00000000   -1.00000000   -1.00000000
   15.78388977   -1.00000000   -1.00000000   -1.00000000
   15.81750011   91.50360107    0.69000000    2.71000004
   15.82083321  127.48600006    0.73000002    2.73000002
   15.82416630  126.62000275    0.73000002    2.71000004
   15.82722187  126.23300171    0.70999998    2.71000004
   15.83055592  129.61399841    0.76999998    2.71000004
   15.83388901  128.24800110    0.76999998    2.71000004
   15.83777714  128.24800110    0.86000001    2.71000004
   15.84194374  130.00500488    0.88000000    2.73000002
   15.84527779  125.24600220    0.76999998    2.71000004
   15.84833336  123.80599976    0.79000002    2.71000004
   15.85083389  124.11199951    0.79000002    2.71000004
   15.85194492  120.45600128    0.73000002    2.73000002
   15.85527802  122.59600067    0.73000002    2.73000002
   15.85833359  125.03600311    0.76999998    2.71000004
   15.86166668  124.55999756    0.73000002    2.73000002
   15.86472225  124.05599976    0.64999998    2.71000004
   15.86805534  122.87500000    0.61000001    2.73000002
   15.87138939  120.57700348    0.67000002    2.71000004
   15.87444496  126.41899872    0.70999998    2.73000002
   15.88083363  126.41899872    0.73000002    2.71000004
   15.88472176  122.05400085    0.73000002    2.73000002
   15.88805580  125.55500031    0.70999998    2.71000004
   15.89138889  124.40000153    0.75000000    2.71000004
   15.89444447  126.38999939    0.70999998    2.71000004
   15.89777756  123.21600342    0.86000001    2.73000002
   15.90111065  121.56600189    0.63000000    2.73000002
   15.90416622  118.67600250    0.69000000    2.73000002
   15.90749931  117.76899719    0.69000000    2.73000002
   15.91055489  123.30200195    0.69000000    2.73000002
   15.91388893  121.08599854    0.70999998    2.71000004
   15.91722298  117.77899933    0.80000001    2.71000004
   15.91750050  117.39800262    0.80000001    2.71000004
   15.92361164  117.39800262    0.86000001    2.71000004
   15.92777824  117.65799713    0.79000002    2.71000004
   15.93083382  116.29499817    0.80000001    2.71000004
   15.93416691  116.25099945    0.69000000    2.71000004
   15.93750000  114.73500061    0.69000000    2.71000004
   15.94055557  116.87500000    0.69000000    2.73000002
   15.94388866  117.73100281    0.67000002    2.73000002
   15.94722271  119.70500183    0.70999998    2.73000002
   15.95027733  115.77600098    0.80000001    2.73000002
   15.95083332  116.55000305    0.80000001    2.73000002
   15.95388889  117.43900299    0.76999998    2.73000002
   15.95722198  116.14299774    0.70999998    2.73000002
   15.96027756  117.36799622    0.75000000    2.71000004
   15.96638870  117.36799622    0.75000000    2.73000002
   15.97055531  120.94000244    0.81999999    2.73000002
   15.97388840  120.52999878    0.80000001    2.73000002
   15.97694397  118.17600250    0.80000001    2.73000002
   15.98027706  115.53299713    0.83999997    2.73000002
   15.98333359  118.87999725    0.83999997    2.73000002
   15.98416710  116.80400085    0.83999997    2.73000002
   15.98694515  115.29299927    0.83999997    2.73000002
   15.99027824  115.46700287    0.81999999    2.71000004
   15.99333382  118.19400024    0.81999999    2.71000004
   15.99666691  119.72399902    0.79000002    2.71000004
   16.00000000  119.15899658    0.79000002    2.73000002
   16.00305557  112.48600006    0.86000001    2.71000004
   16.00916672  112.48600006    0.83999997    2.71000004
   16.01333427  114.34999847    0.81999999    2.73000002
   16.01666641  121.19300079    0.83999997    2.71000004
   16.01749992  118.18800354    0.86000001    2.73000002
   16.02027702  112.33499908    0.86000001    2.73000002
   16.02361107  113.92199707    0.88000000    2.73000002
   16.02666664  114.43000031    0.92000002    2.71000004
   16.03000069  112.33000183    1.00000000    2.71000004
   16.03333282  116.40599823    1.00000000    2.71000004
   16.03638840  113.63300323    1.00000000    2.71000004
   16.03972244  113.48000336    1.07000005    2.73000002
   16.04277802  115.79100037    1.03999996    2.71000004
   16.04611015  114.17700195    0.83999997    2.73000002
   16.05222130  114.17700195    0.75000000    2.73000002
   16.05611038  115.12500000    0.69000000    2.73000002
   16.05944443  115.85800171    0.69000000    2.73000002
   16.06277657  121.34999847    0.70999998    2.73000002
   16.06583214  118.17800140    0.75000000    2.73000002
   16.06916809  115.61900330    0.76999998    2.71000004
   16.07250023  117.51599884    0.80000001    2.71000004
   16.07555580  110.63400269    0.79000002    2.73000002
   16.07888985  114.92800140    0.83999997    2.71000004
   16.08222389  113.13800049    0.83999997    2.71000004
   16.08444595  118.12899780    0.86000001    2.71000004
   16.08555603  116.59999847    0.86000001    2.71000004
   16.08889008  115.69999695    0.79000002    2.73000002
   16.09500122  115.69999695    0.73000002    2.73000002
   16.09916687  115.14199829    0.76999998    2.71000004
   16.10222244  117.67700195    0.76999998    2.73000002
   16.10555649  114.26899719    0.75000000    2.73000002
   16.10888863  112.11699677    0.79000002    2.71000004
   16.11194420  110.57900238    0.79000002    2.73000002
   16.11527824  110.81099701    0.79000002    2.73000002
   16.11750031  112.84500122    0.79000002    2.73000002
   16.11888885  113.38099670    0.83999997    2.73000002
   16.12222290  113.43199921    0.83999997    2.73000002
   16.12527847  114.22000122    0.83999997    2.73000002
   16.12861061  116.21900177    0.83999997    2.73000002
   16.13194466  110.97499847    0.79000002    2.73000002
   16.13777733  110.97499847    0.75000000    2.73000002
   16.14194489  114.87699890    0.75000000    2.73000002
   16.14527702  112.57900238    0.69000000    2.73000002
   16.14833260  118.01399994    0.67000002    2.73000002
   16.15111160  116.42700195    0.67000002    2.73000002
   16.15194321  124.51699829    0.67000002    2.73000002
   16.15527725  116.15899658    0.69000000    2.73000002
   16.15833282  115.90799713    0.69000000    2.73000002
   16.16166687  121.13800049    0.69000000    2.73000002
   16.16499901  111.73000336    0.69000000    2.73000002
   16.16805458  115.20999908    0.69000000    2.73000002
   16.17138863  113.65000153    0.69000000    2.73000002
   16.17472076  114.87500000    0.69000000    2.73000002
   16.18055534  114.87500000    0.67000002    2.73000002
   16.18472099  115.25900269    0.64999998    2.73000002
   16.18805504  114.88300323    0.64999998    2.73000002
   16.19111061  116.80699921    0.67000002    2.73000002
   16.19444275  121.58399963    0.67000002    2.73000002
   16.19777679  117.50599670    0.69000000    2.73000002
   16.20083427  117.84799957    0.69000000    2.73000002
   16.20416832  123.99500275    0.67000002    2.73000002
   16.20750046  125.10900116    0.67000002    2.73000002
   16.21055603  121.61599731    0.67000002    2.71000004
   16.21389008  117.58200073    0.64999998    2.71000004
   16.21694565  118.09100342    0.67000002    2.71000004
   16.21777916  120.85900116    0.67000002    2.71000004
   16.22333336  120.85900116    0.69000000    2.71000004
   16.22750092  115.81099701    0.69000000    2.73000002
   16.23083305  119.84799957    0.67000002    2.73000002
   16.23416710  118.15899658    0.67000002    2.73000002
   16.23722267  117.80400085    0.67000002    2.73000002
   16.24055672  117.42900085    0.67000002    2.73000002
   16.24388885  122.58599854    0.64999998    2.73000002
   16.24694443  118.15699768    0.64999998    2.73000002
   16.25027847  120.90299988    0.64999998    2.73000002
   16.25111198  117.00800323    0.67000002    2.73000002
   16.25388908  121.74900055    0.67000002    2.73000002
   16.25722313  123.84999847    0.67000002    2.73000002
   16.26027870  118.51200104    0.67000002    2.73000002
   16.26638794  118.51200104    0.67000002    2.73000002
   16.27055550  124.04100037    0.67000002    2.73000002
   16.27361107  116.29399872    0.67000002    2.71000004
   16.27694511  120.29399872    0.67000002    2.73000002
   16.28027725  120.95899963    0.64999998    2.73000002
   16.28333282  119.65299988    0.64999998    2.73000002
   16.28444481  119.39499664    0.64999998    2.73000002
   16.28694344  119.56800079    0.64999998    2.73000002
   16.29027748  117.41200256    0.64999998    2.73000002
   16.29333305  119.44200134    0.63000000    2.73000002
   16.29666710  120.27999878    0.63000000    2.73000002
   16.29999924  120.81700134    0.63000000    2.73000002
   16.30305481  117.43699646    0.64999998    2.73000002
   16.30916595  117.43699646    0.64999998    2.73000002
   16.31333351  119.85299683    0.64999998    2.73000002
   16.31666756  114.86599731    0.64999998    2.73000002
   16.31777954  115.96399689    0.64999998    2.73000002
   16.32000160  121.77700043    0.64999998    2.73000002
   16.32333374  117.45999908    0.64999998    2.73000002
   16.32638931  125.12000275    0.64999998    2.73000002
   16.32972336  122.06900024    0.64999998    2.73000002
   16.33305550  121.69300079    0.63000000    2.73000002
   16.33611107  124.79299927    0.63000000    2.73000002
   16.33944511  121.84700012    0.63000000    2.73000002
   16.34277916  125.55599976    0.61000001    2.73000002
   16.34583473  122.37999725    0.61000001    2.73000002
   16.35194397  122.37999725    0.63000000    2.73000002
   16.35611153  118.02500153    0.63000000    2.73000002
   16.35944557  117.22799683    0.61000001    2.73000002
   16.36250114  118.70600128    0.61000001    2.73000002
   16.36583328  118.29100037    0.58999997    2.73000002
   16.36916733  123.42099762    0.58999997    2.73000002
   16.37222290  126.05300140    0.58999997    2.73000002
   16.37555504  123.99099731    0.61000001    2.73000002
   16.37861061  125.95300293    0.61000001    2.73000002
   16.38194466  121.48699951    0.61000001    2.73000002
   16.38444519  126.65499878    0.61000001    2.73000002
   16.38555527  125.07399750    0.61000001    2.73000002
   16.38888931  121.55200195    0.58999997    2.73000002
   16.39500046  121.55200195    0.58999997    2.73000002
   16.39888954  125.31099701    0.58999997    2.73000002
   16.40222168  126.01899719    0.61000001    2.73000002
   16.40555573  120.65899658    0.61000001    2.73000002
   16.40861130  128.51800537    0.61000001    2.73000002
   16.41194344  119.03600311    0.58999997    2.73000002
   16.41499901  118.36299896    0.58999997    2.73000002
   16.41777802  117.36599731    0.58999997    2.73000002
   16.41860962  119.87799835    0.58999997    2.73000002
   16.42194366  118.77799988    0.56999999    2.73000002
   16.42527771  124.10399628    0.56999999    2.73000002
   16.42833328  120.31700134    0.56999999    2.73000002
   16.43166542  121.08899689    0.56999999    2.73000002
   16.43777657  121.08899689    0.63000000    2.73000002
   16.44194412  122.37200165    0.58999997    2.73000002
   16.44499969  119.21700287    0.64999998    2.73000002
   16.44833183  122.41899872    0.61000001    2.73000002
   16.45111275  118.99099731    0.61000001    2.73000002
   16.45194435  122.77600098    0.61000001    2.73000002
   16.45527840  122.79199982    0.61000001    2.73000002
   16.45861244  117.80100250    0.58999997    2.73000002
   16.46166801  120.45500183    0.58999997    2.73000002
   16.46500015  119.95800018    0.58999997    2.73000002
   16.46805573  123.98799896    0.58999997    2.73000002
   16.47138977  120.27700043    0.58999997    2.73000002
   16.47472191  117.68099976    0.56999999    2.73000002
   16.48055649  117.68099976    0.55000001    2.73000002
   16.48472214  122.31400299    0.55000001    2.73000002
   16.48805618  121.07599640    0.55000001    2.73000002
   16.49111176  124.68299866    0.55000001    2.73000002
   16.49444389  118.50900269    0.56999999    2.73000002
   16.49777794  126.05100250    0.56999999    2.73000002
   16.50111198  123.02799988    0.56999999    2.73000002
   16.50416756  119.43499756    0.56999999    2.73000002
   16.50749969  118.67700195    0.56999999    2.73000002
   16.51055527  122.12899780    0.56999999    2.73000002
   16.51388931  109.36000061    0.55000001    2.73000002
   16.51722145  126.68599701    0.55000001    2.73000002
   16.51777840  119.97200012    0.56999999    2.73000002
   16.52333260  119.97200012    0.56999999    2.73000002
   16.52750015  122.68800354    0.64999998    2.73000002
   16.53083229  124.44400024    0.64999998    2.73000002
   16.53388786  119.41300201    0.64999998    2.73000002
   16.53722191  120.80300140    0.67000002    2.73000002
   16.54055595  117.51200104    0.61000001    2.73000002
   16.54388809  120.93900299    0.52999997    2.73000002
   16.54722214  121.57299805    0.52999997    2.73000002
   16.55027771  118.73600006    0.52999997    2.73000002
   16.55111122  118.73300171    0.52999997    2.73000002
   16.55388832  119.63200378    0.52999997    2.73000002
   16.55722237  125.96600342    0.51999998    2.73000002
   16.56055450  121.77300262    0.50000000    2.73000002
   16.56611061  121.77300262    0.50000000    2.73000002
   16.57027817  123.51100159    0.51999998    2.73000002
   16.57361221  125.62799835    0.51999998    2.73000002
   16.57694626  123.96600342    0.52999997    2.73000002
   16.58000183  121.72699738    0.52999997    2.73000002
   16.58333397  123.19799805    0.52999997    2.73000002
   16.58444595  124.31600189    0.52999997    2.73000002
   16.58666801  118.47699738    0.55000001    2.73000002
   16.59000015  118.08699799    0.55000001    2.73000002
   16.59305573  119.07499695    0.55000001    2.73000002
   16.59638977  116.95200348    0.55000001    2.73000002
   16.59972191  119.83200073    0.55000001    2.73000002
   16.60277748  121.09100342    0.55000001    2.73000002
   16.60916710  121.09100342    0.56999999    2.73000002
   16.61333466  123.66500092    0.55000001    2.73000002
   16.61638832  121.65699768    0.52999997    2.73000002
   16.61777878  120.76100159    0.52999997    2.73000002
   16.62000084  122.83599854    0.52999997    2.73000002
   16.62333298  122.78500366    0.52999997    2.73000002
   16.62666702  123.04399872    0.52999997    2.73000002
   16.62972260  122.73699951    0.52999997    2.73000002
   16.63305473  117.68499756    0.52999997    2.73000002
   16.63611031  123.77200317    0.52999997    2.73000002
   16.63944435  131.52600098    0.52999997    2.73000002
   16.64277840  130.00900269    0.51999998    2.73000002
   16.64583397  124.86199951    0.55000001    2.73000002
   16.65194321  124.86199951    0.52999997    2.73000002
   16.65611076  120.58399963    0.52999997    2.73000002
   16.65916634  117.66999817    0.52999997    2.73000002
   16.66250038  123.74400330    0.52999997    2.73000002
   16.66583252  119.44999695    0.52999997    2.73000002
   16.66888809  125.99500275    0.51999998    2.73000002
   16.67222214  124.54499817    0.51999998    2.75000000
   16.67555428  124.55899811    0.51999998    2.73000002
   16.67860985  120.40100098    0.51999998    2.73000002
   16.68194389  123.83100128    0.51999998    2.73000002
   16.68444443  124.51200104    0.51999998    2.73000002
   16.68527603  120.82599640    0.51999998    2.73000002
   16.68861008  123.41000366    0.51999998    2.73000002
   16.69472122  123.41000366    0.51999998    2.73000002
   16.69888878  120.87100220    0.51999998    2.73000002
   16.70222282  122.32499695    0.51999998    2.73000002
   16.70527840  123.07199860    0.50000000    2.73000002
   16.70861244  123.73600006    0.50000000    2.73000002
   16.71166801  123.69499969    0.50000000    2.73000002
   16.71500015  119.03500366    0.47999999    2.75000000
   16.71777916  123.78800201    0.47999999    2.73000002
   16.71861076  121.94699860    0.47999999    2.73000002
   16.72194481  121.61199951    0.47999999    2.73000002
   16.72527885  127.83000183    0.47999999    2.73000002
   16.72833443  120.15699768    0.47999999    2.75000000
   16.73166656  123.70200348    0.50000000    2.73000002
   16.73750114  123.70200348    0.51999998    2.75000000
   16.74166679  118.20999908    0.50000000    2.73000002
   16.74500084  121.46800232    0.50000000    2.75000000
   16.74833298  122.57900238    0.50000000    2.73000002
   16.75111198  118.20700073    0.51999998    2.73000002
   16.75194359  121.97599792    0.51999998    2.73000002
   16.75499916  128.14999390    0.51999998    2.73000002
   16.75833321  127.11399841    0.51999998    2.73000002
   16.76138878  119.75700378    0.50000000    2.73000002
   16.76472282  121.80000305    0.47999999    2.73000002
   16.76805496  122.47200012    0.47999999    2.73000002
   16.77111053  124.78299713    0.47999999    2.73000002
   16.77444458  124.99099731    0.51999998    2.73000002
   16.78055573  124.99099731    0.47999999    2.73000002
   16.78472137  122.56600189    0.55000001    2.73000002
   16.78777695  121.58200073    0.55000001    2.73000002
   16.79111099  123.63200378    0.50000000    2.73000002
   16.79416656  122.75199890    0.47999999    2.73000002
   16.79749870  123.58599854    0.47999999    2.73000002
   16.80083275  122.12699890    0.47999999    2.75000000
   16.80388832  125.86100006    0.50000000    2.73000002
   16.80722237  118.21299744    0.47999999    2.73000002
   16.81055450  123.80699921    0.47999999    2.73000002
   16.81361008  124.28099823    0.47999999    2.73000002
   16.81694603  121.81199646    0.50000000    2.73000002
   16.81777954  118.26200104    0.50000000    2.73000002
   16.83861160  118.26200104    0.50000000    2.75000000
   16.84250069  119.39499664    0.50000000    2.73000002
   16.84583473  120.68199921    0.50000000    2.73000002
   16.84916687  124.49199677    0.50000000    2.73000002
   16.85111237  121.42400360    0.50000000    2.73000002
   16.85250092  117.36599731    0.50000000    2.73000002
   16.85583305  121.27300262    0.50000000    2.73000002
   16.85916710  121.36599731    0.47999999    2.75000000
   16.86222267  123.57700348    0.46000001    2.73000002
   16.86555672  119.73600006    0.46000001    2.73000002
   16.86888885  116.45099640    0.46000001    2.73000002
   16.87194443  118.02200317    0.46000001    2.73000002
   16.87527847  118.57800293    0.46000001    2.75000000
   16.88111115  118.57800293    0.47999999    2.73000002
   16.88527679  118.46499634    0.47999999    2.75000000
   16.88861084  117.17400360    0.47999999    2.73000002
   16.89194489  120.45200348    0.47999999    2.73000002
   16.89500046  119.45400238    0.47999999    2.73000002
   16.89833260  118.47399902    0.47999999    2.73000002
   16.90138817  118.75700378    0.47999999    2.75000000
   16.90472221  115.38700104    0.47999999    2.73000002
   16.90805435  117.50099945    0.47999999    2.73000002
   16.91110992  119.42199707    0.47999999    2.75000000
   16.91444397  123.38500214    0.47999999    2.75000000
   16.91749954  122.21099854    0.47999999    2.75000000
   16.91805458  120.43499756    0.47999999    2.75000000
   16.92416573  120.43499756    0.50000000    2.73000002
   16.92805481  118.52100372    0.50000000    2.73000002
   16.93138885  122.24400330    0.47999999    2.73000002
   16.93472099  119.81900024    0.47999999    2.73000002
   16.93777657  120.85299683    0.47999999    2.73000002
   16.94111061  118.98200226    0.47999999    2.75000000
   16.94444275  123.70300293    0.47999999    2.73000002
   16.94749832  120.17900085    0.47999999    2.75000000
   16.95083427  121.82199860    0.46000001    2.73000002
   16.95138931  119.69599915    0.46000001    2.73000002
   16.95444489  117.22899628    0.46000001    2.73000002
   16.95777893  119.46600342    0.46000001    2.73000002
   16.96083450  118.57499695    0.46000001    2.73000002
   16.96694565  118.57499695    0.46000001    2.73000002
   16.97111130  119.39600372    0.46000001    2.75000000
   16.97416687  118.23600006    0.46000001    2.75000000
   16.97750092  123.91799927    0.46000001    2.73000002
   16.98083305  121.27999878    0.47999999    2.73000002
   16.98388863  118.09500122    0.47999999    2.73000002
   16.98472214  113.29299927    0.47999999    2.73000002
   16.98750114  122.73000336    0.47999999    2.75000000
   16.99083328  119.21399689    0.47999999    2.73000002
   16.99388885  118.04599762    0.47999999    2.75000000
   16.99722290  125.26599884    0.47999999    2.73000002
   17.00027847  120.51100159    0.47999999    2.73000002
   17.00361061  123.52200317    0.50000000    2.73000002
   17.00972176  123.52200317    0.50000000    2.73000002
   17.01388931  122.01200104    0.47999999    2.75000000
   17.01722145  121.16300201    0.47999999    2.73000002
   17.01805496  125.91400146    0.47999999    2.75000000
   17.02083397  123.06099701    0.47999999    2.75000000
   17.02416611  119.82399750    0.47999999    2.75000000
   17.02722168  122.19400024    0.50000000    2.73000002
   17.03055573  128.11399841    0.50000000    2.73000002
   17.03361130  124.88300323    0.47999999    2.73000002
   17.03694344  125.78800201    0.47999999    2.73000002
   17.04027748  122.18699646    0.47999999    2.73000002
   17.04333305  125.05599976    0.47999999    2.73000002
   17.04666710  125.73799896    0.47999999    2.73000002
   17.05249977  125.73799896    0.51999998    2.73000002
   17.05666542  121.07800293    0.50000000    2.73000002
   17.05999947  122.27600098    0.51999998    2.73000002
   17.06305504  123.64099884    0.50000000    2.73000002
   17.06638718  120.99299622    0.50000000    2.73000002
   17.06972313  121.57599640    0.51999998    2.73000002
   17.07277870  120.26999664    0.50000000    2.75000000
   17.07611275  122.79699707    0.50000000    2.75000000
   17.07944489  125.08999634    0.51999998    2.75000000
   17.08250046  121.61199951    0.51999998    2.73000002
   17.08472252  120.81500244    0.51999998    2.73000002
   17.08611107  120.38300323    0.55000001    2.75000000
   17.08944511  124.49099731    0.55000001    2.75000000
   17.09555626  124.49099731    0.52999997    2.73000002
   17.09944534  121.75399780    0.52999997    2.73000002
   17.10277748  126.19999695    0.55000001    2.73000002
   17.10639000  125.90200043    0.55000001    2.73000002
   17.11027908  119.62100220    0.56999999    2.73000002
   17.11361122  123.15399933    0.55000001    2.73000002
   17.11694527  120.94200134    0.55000001    2.73000002
   17.11805534  126.49700165    0.55000001    2.73000002
   17.12055588  123.49299622    0.52999997    2.73000002
   17.12388992  125.97000122    0.52999997    2.73000002
   17.12694550  125.25299835    0.51999998    2.73000002
   17.13083267  126.33899689    0.50000000    2.73000002
   17.13388824  127.29900360    0.50000000    2.73000002
   17.13999939  127.29900360    0.51999998    2.73000002
   17.14444351  129.06900024    0.51999998    2.73000002
   17.14777756  127.51899719    0.52999997    2.73000002
   17.15083313  128.50500488    0.52999997    2.73000002
   17.15166664  122.48100281    0.52999997    2.73000002
   17.15472221  127.26200104    0.52999997    2.73000002
   17.15777779  126.03500366    0.52999997    2.73000002
   17.16110992  122.14299774    0.52999997    2.73000002
   17.16444397  118.19599915    0.55000001    2.73000002
   17.16777802  117.83200073    0.55000001    2.73000002
   17.17111015  119.51899719    0.55000001    2.73000002
   17.17444420  122.21700287    0.55000001    2.73000002
   17.18138885  122.21700287    0.61000001    2.73000002
   17.18555450  124.75099945    0.61000001    2.73000002
   17.18861008  120.17299652    0.61000001    2.73000002
   17.19194412  127.24800110    0.61000001    2.73000002
   17.19527626  127.50900269    0.63000000    2.71000004
   17.19861031  123.65599823    0.63000000    2.73000002
   17.20166779  122.66300201    0.63000000    2.73000002
   17.20499992  112.45800018    0.64999998    2.73000002
   17.20833397  119.77100372    0.63000000    2.73000002
   17.21138954  123.29599762    0.63000000    2.73000002
   17.21472359  120.52600098    0.70999998    2.73000002
   17.21805573  122.01000214    0.75000000    2.73000002
   17.21833420  126.78600311    0.75000000    2.73000002
   17.22416687  126.78600311    0.73000002    2.73000002
   17.22833443  125.04900360    0.73000002    2.73000002
   17.23139000  121.23100281    0.69000000    2.73000002
   17.23472214  128.91099548    0.69000000    2.75000000
   17.23777771  124.46299744    0.69000000    2.75000000
   17.24111176  125.19000244    0.70999998    2.73000002
   17.24444389  119.96900177    0.69000000    2.73000002
   17.24749947  119.97299957    0.67000002    2.73000002
   17.25083351  123.69999695    0.70999998    2.73000002
   17.25166702  125.51000214    0.70999998    2.73000002
   17.25444412  119.18800354    0.75000000    2.73000002
   17.25777817  120.48400116    0.81999999    2.71000004
   17.26083374  123.88400269    0.86000001    2.73000002
   17.26694489  123.88400269    0.83999997    2.73000002
   17.27111053  126.73200226    0.75000000    2.73000002
   17.27416611  124.34200287    0.79000002    2.73000002
   17.27750015  121.98999786    0.75000000    2.73000002
   17.28083229  123.88899994    0.79000002    2.73000002
   17.28416634  124.67800140    0.75000000    2.73000002
   17.28499985  123.84200287    0.75000000    2.73000002
   17.28777695  120.34200287    0.75000000    2.73000002
   17.29111099  126.72299957    0.75000000    2.73000002
   17.29416656  124.38200378    0.75000000    2.73000002
   17.29749870  124.52700043    0.76999998    2.73000002
   17.30083275  118.32299805    0.76999998    2.73000002
   17.30388832  120.74800110    0.70999998    2.73000002
   17.30972099  120.74800110    0.70999998    2.73000002
   17.31388855  124.94100189    0.70999998    2.73000002
   17.31722260  119.25900269    0.70999998    2.73000002
   17.31861115  118.37400055    0.69000000    2.73000002
   17.32083511  119.18199921    0.69000000    2.73000002
   17.32416725  124.81800079    0.69000000    2.73000002
   17.32750130  128.47900391    0.70999998    2.73000002
   17.33055687  120.50299835    0.73000002    2.73000002
   17.33388901  119.95500183    0.75000000    2.73000002
   17.33722305  119.65499878    0.75000000    2.73000002
   17.34027863  123.65299988    0.75000000    2.73000002
   17.34361267  122.02899933    0.88000000    2.73000002
   17.34694481  118.11399841    0.89999998    2.73000002
   17.35250092  118.11399841    0.89999998    2.73000002
   17.35666656  120.42199707    0.92000002    2.73000002
   17.36000061  126.11599731    0.92000002    2.73000002
   17.36305618  121.53900146    0.89999998    2.73000002
   17.36638832  123.97399902    0.89999998    2.73000002
   17.36972237  125.46199799    0.89999998    2.73000002
   17.37277794  121.43199921    0.89999998    2.73000002
   17.37611198  120.68199921    0.86000001    2.73000002
   17.37944412  123.83899689    0.86000001    2.73000002
   17.38249969  121.22399902    0.86000001    2.73000002
   17.38500023  123.12999725    0.86000001    2.73000002
   17.38611031  120.70899963    0.86000001    2.73000002
   17.38944435  123.91100311    0.86000001    2.73000002
   17.39555550  123.91100311    0.86000001    2.73000002
   17.39972115  121.88999939    0.86000001    2.73000002
   17.40277672  119.96700287    0.86000001    2.73000002
   17.40611076  123.15599823    0.83999997    2.73000002
   17.40944481  116.62400055    0.83999997    2.73000002
   17.41250038  116.99400330    0.83999997    2.71000004
   17.41583252  118.22699738    0.81999999    2.71000004
   17.41833305  122.08899689    0.81999999    2.73000002
   17.41944313  128.26199341    0.81999999    2.73000002
   17.42277718  122.11399841    0.81999999    2.73000002
   17.42583275  117.75299835    0.81999999    2.73000002
   17.42916679  123.67500305    0.83999997    2.73000002
   17.43249893  118.18399811    0.83999997    2.73000002
   17.43833160  118.18399811    0.86000001    2.73000002
   17.44249916  121.24600220    0.88000000    2.73000002
   17.44583321  117.07900238    0.92000002    2.71000004
   17.44888878  118.65299988    0.89999998    2.73000002
   17.45194435  124.54399872    0.89999998    2.73000002
   17.45250130  120.28299713    0.88000000    2.73000002
   17.45583344  119.15100098    0.88000000    2.73000002
   17.45888901  119.66600037    0.89999998    2.73000002
   17.46222305  120.73999786    0.92000002    2.73000002
   17.46555710  119.69799805    0.92000002    2.73000002
   17.46888924  120.61000061    0.92000002    2.73000002
   17.47194481  118.15699768    0.92000002    2.73000002
   17.47527885  118.03700256    0.92000002    2.73000002
   17.48111153  118.03700256    0.94000000    2.73000002
   17.48527718  118.96199799    0.95999998    2.73000002
   17.48861122  121.85700226    1.05999994    2.73000002
   17.49166679  121.52500153    1.00000000    2.73000002
   17.49500084  116.69000244    0.98000002    2.73000002
   17.49805641  117.64600372    0.94000000    2.73000002
   17.50138855  120.31500244    0.92000002    2.73000002
   17.50472260  121.15799713    0.92000002    2.73000002
   17.50805473  123.03299713    0.92000002    2.73000002
   17.51111031  121.23000336    0.95999998    2.73000002
   17.51444435  120.84100342    1.01999998    2.73000002
   17.51777840  120.51699829    1.01999998    2.73000002
   17.51861000  119.02600098    1.01999998    2.73000002
   17.52388954  119.02600098    1.01999998    2.73000002
   17.52805519  117.02899933    1.00000000    2.73000002
   17.53138924  121.44799805    1.00000000    2.73000002
   17.53472137  121.93000031    1.03999996    2.73000002
   17.53777695  119.83399963    1.03999996    2.73000002
   17.54111099  121.02500153    1.05999994    2.73000002
   17.54416656  122.88600159    1.09000003    2.71000004
   17.54749870  117.87200165    1.11000001    2.73000002
   17.55083275  115.85399628    1.11000001    2.73000002
   17.55194283  120.25499725    1.13000000    2.73000002
   17.55444336  113.52300262    1.13000000    2.73000002
   17.55749893  118.76300049    1.07000005    2.73000002
   17.56083298  120.88899994    1.07000005    2.73000002
   17.56694603  120.88899994    1.07000005    2.73000002
   17.57111168  123.39199829    1.13000000    2.73000002
   17.57416725  119.66899872    1.07000005    2.71000004
   17.57750130  122.49199677    1.03999996    2.73000002
   17.58055687  117.50000000    1.03999996    2.73000002
   17.58388901  122.56999969    1.05999994    2.73000002
   17.58527756  121.67700195    1.00000000    2.73000002
   17.58750153  124.86599731    1.00000000    2.73000002
   17.59083366  116.43199921    1.00000000    2.73000002
   17.59416771  115.08399963    1.01999998    2.73000002
   17.59722328  115.32900238    1.01999998    2.73000002
   17.60055542  114.92199707    1.05999994    2.73000002
   17.60361099  114.70700073    1.03999996    2.73000002
   17.60972214  114.70700073    1.03999996    2.73000002
   17.61388969  122.26999664    1.01999998    2.73000002
   17.61694527  122.78900146    1.00000000    2.73000002
   17.61861038  119.54100037    1.00000000    2.71000004
   17.62083435  123.00000000    1.00000000    2.71000004
   17.62388992  117.28600311    1.00000000    2.71000004
   17.62722206  123.66899872    1.00000000    2.73000002
   17.63055611  120.91799927    1.01999998    2.73000002
   17.63361168  119.31600189    1.00000000    2.73000002
   17.63694382  120.09100342    1.00000000    2.73000002
   17.63999939  117.04900360    1.00000000    2.73000002
   17.64333344  117.69699860    1.00000000    2.73000002
   17.64666748  114.21199799    1.00000000    2.73000002
   17.65250015  114.21199799    1.13000000    2.71000004
   17.65666580  119.60900116    1.05999994    2.73000002
   17.65999985  118.69300079    1.05999994    2.71000004
   17.66305542  119.77100372    1.07000005    2.73000002
   17.66638756  123.77500153    1.07000005    2.73000002
   17.66972160  127.31900024    1.07000005    2.73000002
   17.67277718  122.39800262    1.09000003    2.73000002
   17.67611122  124.56400299    1.07000005    2.73000002
   17.67944336  123.05999756    1.07000005    2.71000004
   17.68249893  124.88600159    1.07000005    2.73000002
   17.68527603  118.61000061    1.07000005    2.73000002
   17.68610954  118.16200256    1.07000005    2.73000002
   17.68944359  123.51200104    1.07000005    2.73000002
   17.69527626  123.51200104    1.07000005    2.71000004
   17.69944382  117.74299622    1.05999994    2.71000004
   17.70277786  122.94000244    1.07000005    2.71000004
   17.70611191  124.78199768    1.07000005    2.73000002
   17.70916748  128.42500305    1.09000003    2.73000002
   17.71250153  123.75099945    1.09000003    2.71000004
   17.71555710  120.14399719    1.09000003    2.71000004
   17.71861076  122.38700104    1.09000003    2.73000002
   17.71916771  120.49199677    1.09000003    2.73000002
   17.72249985  112.70800018    1.07000005    2.73000002
   17.72555542  119.98000336    1.09000003    2.71000004
   17.72888947  123.36199951    1.09000003    2.73000002
   17.73222351  119.95999908    1.09000003    2.71000004
   17.73833275  119.95999908    1.11000001    2.71000004
   17.74250031  121.42800140    1.11000001    2.73000002
   17.74555588  121.62699890    1.13000000    2.71000004
   17.74888992  119.19300079    1.11000001    2.71000004
   17.75194359  119.17500305    1.11000001    2.73000002
   17.75250053  121.74400330    1.11000001    2.73000002
   17.75555611  119.85900116    1.11000001    2.73000002
   17.75888824  121.22899628    1.11000001    2.73000002
   17.76222229  120.28700256    1.11000001    2.73000002
   17.76527786  120.39800262    1.11000001    2.73000002
   17.76861000  123.06999969    1.11000001    2.73000002
   17.77166557  125.78800201    1.11000001    2.71000004
   17.77499962  118.67400360    1.11000001    2.71000004
   17.78111076  118.67400360    1.13000000    2.71000004
   17.78527641  119.71399689    1.14999998    2.71000004
   17.78833199  123.51799774    1.14999998    2.71000004
   17.79166603  118.13600159    1.14999998    2.71000004
   17.79500008  124.06999969    1.14999998    2.73000002
   17.79805565  122.33100128    1.16999996    2.73000002
   17.80138779  118.00499725    1.16999996    2.73000002
   17.80444336  120.80500031    1.16999996    2.71000004
   17.80777740  121.53199768    1.19000006    2.71000004
   17.81110954  120.08599854    1.19000006    2.73000002
   17.81444359  120.24500275    1.19000006    2.71000004
   17.81750107  125.47000122    1.21000004    2.73000002
   17.81861115  123.45400238    1.21000004    2.73000002
   17.82389069  123.45400238    1.23000002    2.73000002
   17.82805634  119.22599792    1.23000002    2.71000004
   17.83139038  121.49500275    1.25000000    2.71000004
   17.83444595  120.86699677    1.25000000    2.73000002
   17.85222244  122.98799896    1.38000000    2.73000002
   17.85472298  118.13200378    1.38000000    2.73000002
   17.85777855  116.21700287    1.41999996    2.71000004
   17.86111069  120.58699799    1.41999996    2.73000002
   17.86694527  120.58699799    1.39999998    2.71000004
   17.87111092  123.97200012    1.48000002    2.71000004
   17.87416649  122.63300323    1.48000002    2.71000004
   17.87750053  123.81800079    1.46000004    2.71000004
   17.88083267  125.11299896    1.41999996    2.73000002
   17.88388824  120.75199890    1.39999998    2.71000004
   17.88527679  118.51999664    1.39999998    2.71000004
   17.88750076  114.87000275    1.39999998    2.73000002
   17.89083290  120.28099823    1.41999996    2.71000004
   17.89388847  126.45099640    1.44000006    2.71000004
   17.89722252  127.26599884    1.44000006    2.71000004
   17.90055466  121.58599854    1.46000004    2.73000002
   17.90361023  119.80500031    1.50000000    2.73000002
   17.90972137  119.80500031    1.50000000    2.71000004
   17.91388893  127.11299896    1.50000000    2.71000004
   17.91722107  118.16300201    1.50000000    2.73000002
   17.91888809  120.26599884    1.50000000    2.73000002
   17.92083359  119.75299835    1.51999998    2.71000004
   17.92416573  124.39900208    1.51999998    2.71000004
   17.92749977  126.25700378    1.51999998    2.71000004
   17.93055534  122.79599762    1.53999996    2.71000004
   17.93388748  120.32099915    1.53999996    2.71000004
   17.93722153  128.81199646    1.53999996    2.71000004
   17.94027710  126.84899902    1.51999998    2.73000002
   17.94361115  121.12000275    1.50000000    2.73000002
   17.94666672  125.60299683    1.51999998    2.71000004
   17.95250130  125.60299683    1.51999998    2.71000004
   17.95666695  118.09799957    1.50000000    2.71000004
   17.96000099  121.05000305    1.50000000    2.71000004
   17.96333504  119.45500183    1.50000000    2.71000004
   17.96638870  121.36000061    1.50000000    2.71000004
   17.96972275  123.98600006    1.50000000    2.71000004
   17.97305679  123.17400360    1.51999998    2.73000002
   17.97611237  120.76899719    1.50000000    2.71000004
   17.97944450  124.26200104    1.50000000    2.71000004
   17.98250008  128.01800537    1.50000000    2.71000004
   17.98555565  126.58599854    1.48000002    2.73000002
   17.98611069  121.02500153    1.48000002    2.73000002
   17.98944473  126.43499756    1.48000002    2.71000004
   17.99555588  126.43499756    1.48000002    2.71000004
   17.99972153  124.70400238    1.50000000    2.71000004
   18.00277710  120.97299957    1.50000000    2.71000004
   18.00611115  123.47000122    1.51999998    2.71000004
   18.00944519  121.38899994    1.53999996    2.71000004
   18.01277733  124.41600037    1.53999996    2.71000004
   18.01583290  117.58699799    1.55999994    2.71000004
   18.01888847  121.01599884    1.55999994    2.71000004
   18.01944351  125.13400269    1.60000002    2.71000004
   18.02277756  121.91400146    1.60000002    2.71000004
   18.02583313  121.78900146    1.58000004    2.71000004
   18.02916718  125.53600311    1.55999994    2.71000004
   18.03249931  119.27400208    1.51999998    2.71000004
   18.03833199  119.27400208    1.51999998    2.71000004
   18.04249954  141.99899292    1.50000000    2.71000004
   18.04583359  128.39599609    1.50000000    2.71000004
   18.04888916  133.70100403    1.48000002    2.71000004
   18.05222130  128.90299988    1.44000006    2.71000004
   18.05249977  128.90299988    1.44000006    2.71000004
   18.05583191  138.16999817    1.44000006    2.71000004
   18.05916595  132.96600342    1.44000006    2.71000004
   18.06222153  124.94200134    1.44000006    2.71000004
   18.06555557  128.27699280    1.41999996    2.71000004
   18.06861115  124.40299988    1.41999996    2.71000004
   18.07194519  125.94000244    1.39999998    2.71000004
   18.07527924  124.57199860    1.39999998    2.73000002
   18.08111191  124.57199860    1.39999998    2.69000006
   18.08527756  123.39600372    1.39999998    2.71000004
   18.08583450  126.04100037    1.39999998    2.71000004
   18.08916664  126.51899719    1.39999998    2.71000004
   18.09222221  120.36900330    1.39999998    2.71000004
   18.09555626  125.24099731    1.38000000    2.71000004
   18.09889030  121.49600220    1.38000000    2.71000004
   18.10194397  121.57199860    1.36000001    2.71000004
   18.10527802  120.59500122    1.34000003    2.69000006
   18.10833359  125.24700165    1.36000001    2.71000004
   18.11166763  124.27300262    1.38000000    2.71000004
   18.11499977  123.54100037    1.38000000    2.71000004
   18.11805534  125.94400024    1.38000000    2.71000004
   18.11916733  127.59899902    1.38000000    2.71000004
   18.12388992  127.59899902    1.38000000    2.71000004
   18.12805557  120.15699768    1.39999998    2.71000004
   18.13138962  120.73200226    1.39999998    2.71000004
   18.13472176  127.10900116    1.39999998    2.71000004
   18.13777733  122.02600098    1.38000000    2.71000004
   18.14111137  123.74800110    1.38000000    2.71000004
   18.14416695  123.62300110    1.38000000    2.71000004
   18.14749908  121.54499817    1.36000001    2.71000004
   18.15083313  121.11799622    1.36000001    2.71000004
   18.15250015  123.87799835    1.36000001    2.71000004
   18.15444374  123.09500122    1.36000001    2.71000004
   18.15749931  125.54100037    1.36000001    2.73000002
   18.16083336  121.63800049    1.38000000    2.71000004
   18.16694450  121.63800049    1.38000000    2.71000004
   18.17138863  131.35800171    1.38000000    2.71000004
   18.17472076  126.42700195    1.44000006    2.71000004
   18.17777634  128.24699402    1.44000006    2.71000004
   18.18111038  127.93000031    1.48000002    2.71000004
   18.18416595  128.44099426    1.60000002    2.69000006
   18.18583298  121.15200043    1.61000001    2.71000004
   18.18805504  118.32499695    1.61000001    2.71000004
   18.19111061  126.41200256    1.63000000    2.71000004
   18.19444275  127.90499878    1.71000004    2.71000004
   18.19777679  122.54100037    1.80999994    2.69000006
   18.20083427  123.47200012    1.76999998    2.69000006
   18.20416832  122.81700134    1.78999996    2.69000006
   18.20972252  122.81700134    1.75000000    2.71000004
   18.21389008  119.07599640    1.64999998    2.69000006
   18.21694565  120.27700043    1.61000001    2.71000004
   18.21916771  124.29699707    1.55999994    2.69000006
   18.22083473  125.21900177    1.53999996    2.71000004
   18.22389030  120.33599854    1.53999996    2.71000004
   18.22722244  123.37300110    1.53999996    2.71000004
   18.23055649  124.11199951    1.50000000    2.71000004
   18.23361206  117.87899780    1.48000002    2.71000004
   18.23694420  118.61199951    1.48000002    2.71000004
   18.23999977  119.42299652    1.48000002    2.69000006
   18.24333382  120.65599823    1.48000002    2.69000006
   18.24666786  124.32299805    1.48000002    2.71000004
   18.25250053  124.32299805    1.48000002    2.71000004
   18.25666618  123.59999847    1.48000002    2.71000004
   18.26000023  123.66899872    1.44000006    2.71000004
   18.26305580  127.84700012    1.44000006    2.69000006
   18.26638794  121.40399933    1.44000006    2.71000004
   18.26972198  122.92500305    1.44000006    2.71000004
   18.27305603  116.03399658    1.41999996    2.71000004
   18.27611160  118.95899963    1.39999998    2.69000006
   18.27944374  124.81700134    1.39999998    2.71000004
   18.28249931  124.71499634    1.39999998    2.71000004
   18.28583336  119.77899933    1.39999998    2.71000004
   18.28638840  125.81900024    1.39999998    2.71000004
   18.28944397  125.16799927    1.39999998    2.71000004
   18.29555511  125.16799927    1.41999996    2.71000004
   18.29972076  125.20200348    1.41999996    2.71000004
   18.30277634  122.65399933    1.41999996    2.71000004
   18.30611038  116.84200287    1.41999996    2.71000004
   18.30916595  120.40100098    1.41999996    2.71000004
   18.31250000  120.04199982    1.41999996    2.71000004
   18.31583214  123.88200378    1.41999996    2.71000004
   18.31888962  122.68399811    1.46000004    2.71000004
   18.31944466  120.40399933    1.46000004    2.71000004
   18.32277870  120.58000183    1.46000004    2.69000006
   18.32583427  116.09799957    1.46000004    2.71000004
   18.32916832  119.70899963    1.46000004    2.71000004
   18.33222389  122.53099823    1.46000004    2.71000004
   18.33833313  122.53099823    1.48000002    2.69000006
   18.34222221  127.33599854    1.48000002    2.69000006
   18.34555626  124.96499634    1.46000004    2.69000006
   18.34889030  129.94799805    1.46000004    2.71000004
   18.35194397  137.05499268    1.46000004    2.69000006
   18.35277748  129.06300354    1.46000004    2.69000006
   18.35583305  142.80499268    1.44000006    2.71000004
   18.35916710  130.88299561    1.41999996    2.71000004
   18.36222267  125.68900299    1.41999996    2.69000006
   18.36555672  137.58799744    1.41999996    2.69000006
   18.36861038  130.02200317    1.44000006    2.71000004
   18.37194443  124.66999817    1.41999996    2.71000004
   18.37527847  135.27600098    1.39999998    2.71000004
   18.38111115  135.27600098    1.38000000    2.71000004
   18.38527679  125.64499664    1.38000000    2.69000006
   18.38611031  124.67800140    1.38000000    2.69000006
   18.38888931  124.21900177    1.38000000    2.71000004
   18.39194489  125.78800201    1.38000000    2.71000004
   18.39527702  124.44000244    1.38000000    2.71000004
   18.39861107  128.34300232    1.38000000    2.69000006
   18.40166664  126.15499878    1.38000000    2.71000004
   18.40499878  123.14199829    1.38000000    2.71000004
   18.40805435  124.38800049    1.39999998    2.69000006
   18.41138840  126.00499725    1.39999998    2.69000006
   18.41472244  140.96099854    1.39999998    2.69000006
   18.41777802  132.14300537    1.38000000    2.71000004
   18.41944313  131.05599976    1.38000000    2.69000006
   18.42388916  131.05599976    1.38000000    2.69000006
   18.42805481  123.91899872    1.38000000    2.71000004
   18.43138885  128.69900513    1.38000000    2.71000004
   18.43444443  122.42700195    1.38000000    2.71000004
   18.43777657  124.91699982    1.38000000    2.69000006
   18.44111061  124.36799622    1.38000000    2.69000006
   18.44444275  125.21800232    1.38000000    2.71000004
   18.44749832  119.62799835    1.38000000    2.69000006
   18.45083427  125.84500122    1.38000000    2.69000006
   18.45277786  123.15699768    1.38000000    2.69000006
   18.45444489  121.16600037    1.38000000    2.69000006
   18.45750046  123.05000305    1.36000001    2.71000004
   18.46083450  123.08300018    1.36000001    2.71000004
   18.46694565  123.08300018    1.34000003    2.71000004
   18.47111130  128.74099731    1.34000003    2.71000004
   18.47444534  132.94000244    1.34000003    2.69000006
   18.47750092  128.54499817    1.34000003    2.69000006
   18.48083305  128.24499512    1.36000001    2.69000006
   18.48388863  129.99200439    1.36000001    2.69000006
   18.48611069  131.55099487    1.34000003    2.69000006
   18.48777771  130.09899902    1.34000003    2.69000006
   18.49111176  131.92300415    1.34000003    2.69000006
   18.49416733  129.15400696    1.34000003    2.69000006
   18.49749947  130.44500732    1.36000001    2.69000006
   18.50083351  131.20500183    1.38000000    2.69000006
   18.50388908  126.74600220    1.38000000    2.71000004
   18.50972176  126.74600220    1.38000000    2.69000006
   18.51361084  125.92500305    1.36000001    2.71000004
   18.51694489  127.23699951    1.34000003    2.69000006
   18.51944351  128.89399719    1.34000003    2.69000006
   18.52055550  125.69499969    1.34000003    2.69000006
   18.52388954  124.12500000    1.33000004    2.71000004
   18.52694511  122.33200073    1.34000003    2.69000006
   18.53027725  125.24500275    1.33000004    2.69000006
   18.53361130  130.61900330    1.33000004    2.69000006
   18.53666687  135.64999390    1.33000004    2.69000006
   18.53999901  127.92700195    1.33000004    2.71000004
   18.54305458  128.01499939    1.33000004    2.69000006
   18.54638863  133.56100464    1.33000004    2.69000006
   18.55249977  133.56100464    1.34000003    2.69000006
   18.55666542  130.85899353    1.36000001    2.69000006
   18.55999947  131.98100281    1.34000003    2.69000006
   18.56305504  133.19000244    1.34000003    2.69000006
   18.56638718  131.65800476    1.34000003    2.69000006
   18.56944466  126.05300140    1.34000003    2.69000006
   18.57277870  130.36300659    1.34000003    2.69000006
   18.57611275  134.14100647    1.34000003    2.69000006
   18.57916832  130.05799866    1.34000003    2.69000006
   18.58250046  127.93499756    1.33000004    2.69000006
   18.58555603  128.98899841    1.33000004    2.69000006
   18.58750153  128.50799561    1.33000004    2.71000004
   18.58916664  130.56399536    1.33000004    2.71000004
   18.59527779  130.56399536    1.30999994    2.69000006
   18.59944534  131.20300293    1.30999994    2.69000006
   18.60277748  128.02799988    1.30999994    2.69000006
   18.60611153  129.85499573    1.30999994    2.69000006
   18.60944557  123.78199768    1.30999994    2.69000006
   18.61250114  127.39199829    1.28999996    2.69000006
   18.61583328  130.78900146    1.28999996    2.69000006
   18.61888885  131.40800476    1.28999996    2.69000006
   18.62083435  130.44200134    1.28999996    2.69000006
   18.62305641  130.34300232    1.28999996    2.69000006
   18.62638855  130.24499512    1.28999996    2.69000006
   18.62944412  126.01699829    1.28999996    2.69000006
   18.63277817  139.24499512    1.28999996    2.69000006
   18.63861084  139.24499512    1.28999996    2.69000006
   18.64249992  133.68099976    1.28999996    2.69000006
   18.64583397  127.67800140    1.28999996    2.69000006
   18.64916611  137.11300659    1.28999996    2.69000006
   18.65222168  134.14100647    1.28999996    2.69000006
   18.65444374  130.03599548    1.28999996    2.67000008
   18.65611076  124.13200378    1.28999996    2.69000006
   18.65916634  140.63499451    1.28999996    2.69000006
   18.66250038  131.89500427    1.28999996    2.69000006
   18.66555595  134.22999573    1.28999996    2.69000006
   18.66888809  134.05299377    1.28999996    2.69000006
   18.67222214  130.11199951    1.28999996    2.69000006
   18.67527771  130.82899475    1.28999996    2.69000006
   18.68111038  130.82899475    1.30999994    2.69000006
   18.68527603  130.98199463    1.30999994    2.69000006
   18.68777657  131.09100342    1.30999994    2.67000008
   18.68888855  131.33500671    1.30999994    2.67000008
   18.69194412  134.39199829    1.30999994    2.69000006
   18.69527626  129.29499817    1.30999994    2.69000006
   18.69861031  129.46499634    1.30999994    2.69000006
   18.70166779  130.90499878    1.30999994    2.69000006
   18.70499992  131.31599426    1.28999996    2.69000006
   18.70805550  134.82600403    1.28999996    2.69000006
   18.71138954  128.64799500    1.26999998    2.69000006
   18.71472359  134.80400085    1.26999998    2.69000006
   18.71777916  134.03599548    1.26999998    2.69000006
   18.72389030  134.03599548    1.26999998    2.67000008
   18.72805595  135.24299622    1.26999998    2.69000006
   18.73111153  132.38699341    1.26999998    2.69000006
   18.73444557  133.59599304    1.26999998    2.69000006
   18.73777771  133.52299500    1.26999998    2.69000006
   18.74083328  141.61199951    1.26999998    2.69000006
   18.74416733  138.11500549    1.28999996    2.69000006
   18.74722290  135.39799500    1.30999994    2.67000008
   18.75055504  139.16299438    1.30999994    2.67000008
   18.75388908  137.79499817    1.30999994    2.67000008
   18.75472260  136.99099731    1.30999994    2.67000008
   18.75749969  128.19000244    1.30999994    2.67000008
   18.76083374  134.11300659    1.30999994    2.67000008
   18.76666641  134.11300659    1.33000004    2.69000006
   18.77083397  132.96800232    1.33000004    2.69000006
   18.77416611  129.67900085    1.33000004    2.69000006
   18.77750015  131.68600464    1.33000004    2.69000006
   18.78055573  137.09199524    1.30999994    2.69000006
   18.78388786  135.40899658    1.30999994    2.67000008
   18.78722191  141.71800232    1.30999994    2.69000006
   18.78805542  148.17199707    1.30999994    2.69000006
   18.79083252  150.19599915    1.33000004    2.69000006
   18.79416656  152.87699890    1.33000004    2.69000006
   18.79722214  133.92900085    1.36000001    2.67000008
   18.80055428  143.25300598    1.36000001    2.67000008
   18.80360985  132.19200134    1.36000001    2.67000008
   18.80944443  132.19200134    1.38000000    2.69000006
   18.81361008  129.43299866    1.39999998    2.69000006
   18.81694603  136.68800354    1.39999998    2.67000008
   18.82027817  126.46600342    1.41999996    2.67000008
   18.82166672  125.63200378    1.41999996    2.67000008
   18.82361221  138.24299622    1.41999996    2.67000008
   18.82694626  140.80799866    1.41999996    2.69000006
   18.83027840  139.29499817    1.41999996    2.69000006
   18.83333397  137.96499634    1.41999996    2.67000008
   18.83666801  141.68499756    1.41999996    2.69000006
   18.84000015  144.27799988    1.41999996    2.69000006
   18.84305573  127.68000031    1.41999996    2.67000008
   18.84638977  134.17700195    1.41999996    2.69000006
   18.85250092  134.17700195    1.41999996    2.69000006
   18.87083435  136.77699280    1.46000004    2.67000008
   18.87416649  136.79699707    1.44000006    2.67000008
   18.87722206  125.61299896    1.44000006    2.67000008
   18.88055611  131.69700623    1.44000006    2.67000008
   18.88361168  132.45599365    1.44000006    2.67000008
   18.88694382  125.79499817    1.44000006    2.66000009
   18.89027786  137.35000610    1.41999996    2.67000008
   18.89555550  137.35000610    1.44000006    2.67000008
   18.89972115  134.59899902    1.44000006    2.67000008
   18.90277672  131.51499939    1.44000006    2.67000008
   18.90388870  126.16200256    1.44000006    2.67000008
   18.90638924  128.00199890    1.44000006    2.67000008
   18.90972137  130.81900024    1.44000006    2.69000006
   18.91305542  134.62300110    1.44000006    2.67000008
   18.91611099  123.22499847    1.46000004    2.67000008
   18.91944313  122.57499695    1.46000004    2.67000008
   18.92249870  121.55000305    1.46000004    2.67000008
   18.92583275  133.23300171    1.44000006    2.67000008
   18.92916679  131.01100159    1.44000006    2.67000008
   18.93222237  131.55700684    1.41999996    2.67000008
   18.93833160  131.55700684    1.44000006    2.67000008
   18.94249916  131.17999268    1.44000006    2.67000008
   18.94555473  129.75599670    1.44000006    2.67000008
   18.94888878  130.52299500    1.44000006    2.67000008
   18.95222282  123.80699921    1.41999996    2.67000008
   18.95527840  134.08799744    1.41999996    2.67000008
   18.95861244  129.99200439    1.41999996    2.67000008
   18.96194458  122.55999756    1.39999998    2.67000008
   18.96500015  132.01199341    1.39999998    2.67000008
   18.96833420  135.03300476    1.39999998    2.67000008
   18.97055626  127.75900269    1.39999998    2.66000009
   18.97194481  137.39399719    1.39999998    2.66000009
   18.97500038  135.05200195    1.39999998    2.67000008
   18.98111153  135.05200195    1.39999998    2.66000009
   18.98527718  133.78900146    1.41999996    2.67000008
   18.98861122  131.15800476    1.41999996    2.67000008
   18.99166679  133.12800598    1.41999996    2.67000008
   18.99500084  131.04899597    1.44000006    2.66000009
   18.99805641  133.86599731    1.44000006    2.66000009
   19.00138855  130.32200623    1.41999996    2.66000009
   19.00388908  126.76799774    1.41999996    2.66000009
   19.00527763  136.16000366    1.41999996    2.66000009
   19.00833321  129.55700684    1.39999998    2.67000008
   19.01166725  131.71000671    1.39999998    2.67000008
   19.01499939  132.76400757    1.39999998    2.67000008
   19.01805496  131.49699402    1.39999998    2.66000009
   19.02388954  131.49699402    1.38000000    2.67000008
   19.02805519  125.70700073    1.38000000    2.67000008
   19.03138924  129.17199707    1.38000000    2.66000009
   19.03472137  127.86699677    1.38000000    2.66000009
   19.03722191  132.51400757    1.38000000    2.67000008
   19.03833199  136.70199585    1.38000000    2.67000008
   19.04138756  133.14799500    1.38000000    2.67000008
   19.04472160  136.62100220    1.36000001    2.67000008
   19.04805565  130.89100647    1.36000001    2.67000008
   19.05111122  132.24899292    1.38000000    2.66000009
   19.05444336  130.52099609    1.38000000    2.66000009
   19.05749893  132.54499817    1.38000000    2.67000008
   19.06083298  131.84500122    1.38000000    2.66000009
   19.06694603  131.84500122    1.38000000    2.66000009
   19.07111168  132.08999634    1.38000000    2.66000009
   19.07416725  127.97899628    1.39999998    2.67000008
   19.07750130  131.28999329    1.39999998    2.66000009
   19.08055687  127.67400360    1.39999998    2.66000009
   19.08388901  130.15699768    1.39999998    2.66000009
   19.08722305  134.69299316    1.39999998    2.66000009
   19.09027863  127.55100250    1.34000003    2.66000009
   19.09361267  134.07000732    1.34000003    2.66000009
   19.09666824  152.93699646    1.34000003    2.66000009
   19.10000038  131.21600342    1.34000003    2.66000009
   19.10333443  130.95899963    1.34000003    2.66000009
   19.10388947  129.97700500    1.34000003    2.66000009
   19.10972214  129.97700500    1.36000001    2.66000009
   19.11388969  130.20300293    1.36000001    2.66000009
   19.11694527  129.58000183    1.36000001    2.66000009
   19.12027740  132.33599854    1.36000001    2.66000009
   19.12361145  129.14599609    1.39999998    2.66000009
   19.12666702  129.63200378    1.41999996    2.66000009
   19.13000107  130.07099915    1.41999996    2.66000009
   19.13305473  132.47099304    1.41999996    2.66000009
   19.13638878  126.46099854    1.41999996    2.66000009
   19.13722229  133.02099609    1.41999996    2.66000009
   19.14027786  134.98899841    1.41999996    2.66000009
   19.14333344  130.85099792    1.41999996    2.66000009
   19.14666748  138.28199768    1.41999996    2.66000009
   19.15250015  138.28199768    1.41999996    2.66000009
   19.15666580  139.62199402    1.44000006    2.66000009
   19.15999985  131.67999268    1.41999996    2.66000009
   19.16305542  135.38800049    1.39999998    2.66000009
   19.16638756  137.11700439    1.39999998    2.66000009
   19.16972160  139.01499939    1.39999998    2.66000009
   19.17055511  134.73800659    1.39999998    2.66000009
   19.17333221  132.34100342    1.41999996    2.66000009
   19.17638779  130.64599609    1.44000006    2.66000009
   19.17972183  136.58099365    1.44000006    2.66000009
   19.18305397  135.58399963    1.44000006    2.64000010
   19.18610954  134.11099243    1.44000006    2.64000010
   19.18944359  133.99699402    1.44000006    2.66000009
   19.19555473  133.99699402    1.44000006    2.64000010
   19.19972038  138.88600159    1.46000004    2.66000009
   19.20277786  132.76300049    1.44000006    2.66000009
   19.20388985  130.58000183    1.44000006    2.66000009
   19.20666695  131.82400513    1.46000004    2.66000009
   19.21000099  130.15400696    1.46000004    2.66000009
   19.21305656  133.14799500    1.46000004    2.66000009
   19.21638870  129.38299561    1.44000006    2.66000009
   19.21972275  134.09500122    1.41999996    2.66000009
   19.22277832  130.89399719    1.39999998    2.66000009
   19.22611237  131.19400024    1.39999998    2.66000009
   19.22916794  127.20200348    1.39999998    2.64000010
   19.23250008  129.13000488    1.39999998    2.64000010
   19.23833275  129.13000488    1.41999996    2.64000010
   19.24250031  133.52400208    1.41999996    2.66000009
   19.24555588  133.98300171    1.44000006    2.64000010
   19.24888992  138.05200195    1.44000006    2.64000010
   19.25222206  136.62899780    1.44000006    2.64000010
   19.25527763  132.59700012    1.44000006    2.64000010
   19.25861168  129.61300659    1.46000004    2.66000009
   19.26166725  127.90599823    1.50000000    2.64000010
   19.26499939  132.26300049    1.50000000    2.64000010
   19.26833344  140.65899658    1.53999996    2.64000010
   19.27055550  136.32899475    1.61000001    2.64000010
   19.27194405  137.84500122    1.61000001    2.64000010
   19.27499962  134.50000000    1.64999998    2.64000010
   19.28111076  134.50000000    1.73000002    2.64000010
   19.28527641  134.10200500    1.76999998    2.64000010
   19.28833199  134.66400146    1.76999998    2.64000010
   19.29166603  131.88900757    1.78999996    2.64000010
   19.29500008  135.38299561    1.78999996    2.64000010
   19.29805565  136.47999573    1.76999998    2.64000010
   19.30138779  133.25500488    1.75000000    2.64000010
   19.30388832  135.23899841    1.75000000    2.64000010
   19.30499840  133.31799316    1.71000004    2.64000010
   19.30805397  136.36500549    1.64999998    2.64000010
   19.31138802  133.34800720    1.64999998    2.64000010
   19.31444359  131.03799438    1.63000000    2.64000010
   19.31777954  130.83900452    1.63000000    2.64000010
   19.32389069  130.83900452    1.64999998    2.64000010
   19.32805634  130.98300171    1.63000000    2.64000010
   19.33139038  132.84899902    1.61000001    2.64000010
   19.33444595  133.58999634    1.61000001    2.64000010
   19.33722305  133.76100159    1.60000002    2.64000010
   19.33833313  135.46299744    1.60000002    2.64000010
   19.34138870  140.42100525    1.60000002    2.64000010
   19.34472275  137.83999634    1.58000004    2.64000010
   19.34777832  130.68600464    1.55999994    2.64000010
   19.35111237  131.82699585    1.53999996    2.64000010
   19.35444450  134.11399841    1.53999996    2.64000010
   19.35750008  139.25599670    1.51999998    2.64000010
   19.36083412  135.85800171    1.50000000    2.64000010
   19.36694527  135.85800171    1.50000000    2.64000010
   19.37111092  133.34599304    1.50000000    2.64000010
   19.37416649  130.59599304    1.50000000    2.61999989
   19.37750053  128.16999817    1.50000000    2.64000010
   19.38083267  132.43200684    1.50000000    2.64000010
   19.38388824  130.87300110    1.50000000    2.64000010
   19.38722229  130.52900696    1.48000002    2.64000010
   19.39027786  128.73800659    1.46000004    2.64000010
   19.39361191  127.76999664    1.46000004    2.64000010
   19.39694405  136.05000305    1.44000006    2.64000010
   19.39999962  128.61900330    1.44000006    2.64000010
   19.40333366  136.14700317    1.41999996    2.64000010
   19.40388870  127.59600067    1.41999996    2.64000010
   19.40972137  127.59600067    1.38000000    2.61999989
   19.41388893  132.24699402    1.36000001    2.61999989
   19.41694450  134.48599243    1.34000003    2.61999989
   19.42027664  135.59599304    1.34000003    2.61999989
   19.42361069  131.17700195    1.33000004    2.64000010
   19.42666626  134.05400085    1.33000004    2.64000010
   19.43000031  133.33099365    1.33000004    2.61999989
   19.43333244  131.82099915    1.33000004    2.64000010
   19.43638802  134.66900635    1.33000004    2.61999989
   19.43722153  133.61399841    1.33000004    2.61999989
   19.44027710  135.39399719    1.30999994    2.61999989
   19.44333267  135.67799377    1.30999994    2.61999989
   19.44666672  135.67599487    1.30999994    2.61999989
   19.45250130  135.67599487    1.33000004    2.61999989
   19.45666695  131.19700623    1.33000004    2.64000010
   19.45972252  134.87500000    1.33000004    2.61999989
   19.46305656  126.31500244    1.34000003    2.61999989
   19.46638870  128.19799805    1.34000003    2.61999989
   19.46944427  137.85099792    1.34000003    2.61999989
   19.47055626  142.66999817    1.34000003    2.61999989
   19.47333336  139.34800720    1.34000003    2.61999989
   19.47638893  138.23500061    1.34000003    2.61999989
   19.47972298  136.45300293    1.34000003    2.61999989
   19.48277855  134.53599548    1.34000003    2.61999989
   19.48611069  134.95899963    1.34000003    2.61999989
   19.48944473  131.22099304    1.33000004    2.61999989
   19.49527740  131.22099304    1.30999994    2.61999989
   19.49944496  137.54699707    1.28999996    2.61999989
   19.50277710  132.99099731    1.28999996    2.61999989
   19.50388908  138.87199402    1.26999998    2.61999989
   19.50638962  129.99200439    1.26999998    2.61999989
   19.50972176  130.32499695    1.25000000    2.61999989
   19.51277733  130.12899780    1.25000000    2.59999990
   19.51611137  130.55900574    1.25000000    2.61999989
   19.51916695  136.53199768    1.25000000    2.61999989
   19.52249908  139.57699585    1.25000000    2.61999989
   19.52583313  134.46400452    1.25000000    2.61999989
   19.52888870  133.44299316    1.25000000    2.61999989
   19.53222275  138.01100159    1.25000000    2.61999989
   19.53805542  138.01100159    1.23000002    2.59999990
   19.54249954  136.72700500    1.23000002    2.59999990
   19.54555511  134.85200500    1.23000002    2.61999989
   19.54888916  135.19599915    1.23000002    2.61999989
   19.55194283  139.07000732    1.23000002    2.59999990
   19.55527687  133.29899597    1.23000002    2.61999989
   19.55861092  137.47399902    1.23000002    2.61999989
   19.56166649  131.52499390    1.23000002    2.59999990
   19.56499863  136.15899658    1.23000002    2.59999990
   19.56833458  135.58099365    1.25000000    2.59999990
   19.57055664  135.32299805    1.25000000    2.59999990
   19.57194519  133.21200562    1.25000000    2.61999989
   19.57500076  130.59500122    1.25000000    2.61999989
   19.58111191  130.59500122    1.25000000    2.61999989
   19.58500099  136.11700439    1.25000000    2.59999990
   19.58833313  129.55200195    1.25000000    2.59999990
   19.59166718  137.97599792    1.25000000    2.61999989
   19.59472275  144.25599670    1.25000000    2.61999989
   19.59805679  139.39900208    1.23000002    2.61999989
   19.60111237  142.60200500    1.23000002    2.61999989
   19.60388947  139.88000488    1.25000000    2.61999989
   19.60499954  138.42799377    1.25000000    2.61999989
   19.60805511  137.24299622    1.25000000    2.61999989
   19.61138916  139.11599731    1.25000000    2.59999990
   19.61472321  145.34199524    1.25000000    2.61999989
   19.61777878  137.85699463    1.26999998    2.59999990
   19.62388992  137.85699463    1.26999998    2.61999989
   19.62805557  135.01300049    1.26999998    2.61999989
   19.63111115  139.29200745    1.26999998    2.59999990
   19.63444519  135.23800659    1.26999998    2.59999990
   19.63722229  136.07200623    1.28999996    2.59999990
   19.63805580  143.29600525    1.28999996    2.59999990
   19.64138794  134.88900757    1.28999996    2.59999990
   19.64444351  136.31199646    1.30999994    2.59999990
   19.64777756  141.45500183    1.30999994    2.59999990
   19.65083313  138.77000427    1.33000004    2.59999990
   19.65416718  144.53900146    1.33000004    2.59999990
   19.65749931  137.13900757    1.34000003    2.59999990
   19.66055489  139.95799255    1.34000003    2.59999990
   19.66666603  139.95799255    1.34000003    2.59999990
   19.67083359  147.11799622    1.34000003    2.59999990
   19.67416573  145.88900757    1.34000003    2.59999990
   19.67722130  147.33599854    1.34000003    2.59999990
   19.68055534  152.19500732    1.34000003    2.59999990
   19.68361092  148.54899597    1.34000003    2.59999990
   19.68694305  153.27999878    1.34000003    2.59999990
   19.69027710  166.50700378    1.33000004    2.57999992
   19.69333267  144.94799805    1.34000003    2.59999990
   19.69666672  140.46800232    1.34000003    2.59999990
   19.69972038  147.53900146    1.34000003    2.59999990
   19.70305634  141.86900330    1.34000003    2.59999990
   19.70388985  134.46800232    1.34000003    2.59999990
   19.70944595  134.46800232    1.34000003    2.59999990
   19.71361160  144.33099365    1.48000002    2.57999992
   19.71694565  155.48699951    1.75000000    2.57999992
   19.72000122  136.32400513    1.55999994    2.57999992
   19.72333336  135.60800171    1.50000000    2.57999992
   19.72666740  150.02600098    1.50000000    2.59999990
   19.72972298  139.21000671    1.41999996    2.59999990
   19.73333359  135.95100403    1.34000003    2.59999990
   19.73638916  142.56599426    1.34000003    2.59999990
   19.73722267  138.79400635    1.34000003    2.59999990
   19.73999977  137.11000061    1.34000003    2.59999990
   19.74305534  140.94500732    1.34000003    2.59999990
   19.74638939  140.36300659    1.34000003    2.59999990
   19.75250053  140.36300659    1.34000003    2.59999990
   19.75666618  138.66600037    1.34000003    2.59999990
   19.75972176  149.37500000    1.39999998    2.57999992
   19.76305580  143.96699524    1.30999994    2.59999990
   19.76611137  136.00300598    1.33000004    2.57999992
   19.76944351  138.06300354    1.33000004    2.57999992
   19.77055550  142.54699707    1.33000004    2.57999992
   19.77305603  139.38099670    1.33000004    2.57999992
   19.77611160  148.96800232    1.33000004    2.57999992
   19.77944374  145.37600708    1.33000004    2.57999992
   19.78277779  141.21600342    1.34000003    2.57999992
   19.78583336  145.77799988    1.36000001    2.57999992
   19.78916550  145.33500671    1.36000001    2.57999992
   19.79555511  145.33500671    1.38000000    2.57999992
   19.79972076  146.08299255    1.38000000    2.57999992
   19.80277634  145.83999634    1.38000000    2.55999994
   19.80388832  141.61799622    1.38000000    2.55999994
   19.80638885  139.14999390    1.38000000    2.57999992
   19.80944443  143.45599365    1.38000000    2.57999992
   19.81277657  140.59199524    1.38000000    2.57999992
   19.81611061  137.53799438    1.38000000    2.57999992
   19.81916809  144.56700134    1.38000000    2.57999992
   19.82250023  140.53500366    1.38000000    2.57999992
   19.82555580  138.00999451    1.38000000    2.57999992
   19.82888985  143.73300171    1.38000000    2.57999992
   19.83222389  151.00700378    1.38000000    2.57999992
   19.83805656  151.00700378    1.38000000    2.55999994
   19.84222221  172.73599243    1.36000001    2.55999994
   19.84555626  155.72399902    1.36000001    2.57999992
   19.84861183  195.03700256    1.36000001    2.55999994
   19.85194397  202.68200684    1.38000000    2.55999994
   19.85499954  316.11599731    1.38000000    2.55999994
   19.85833359  143.75300598    1.38000000    2.57999992
   19.86166763   65.68280029    1.38000000    2.57999992
   19.86472321   -1.00000000    1.38000000    2.55999994
   19.86805534   -1.00000000    1.38000000    2.55999994
   19.89527702   -1.00000000    1.38000000    2.55999994
   19.89861107   -1.00000000    1.38000000    2.55999994
   19.90194321   -1.00000000    1.36000001    2.55999994
   19.90555573   -1.00000000    1.36000001    2.55999994
   19.90861130   -1.00000000    1.36000001    2.53999996
   19.91194344   -1.00000000    1.36000001    2.55999994
   19.91499901   -1.00000000    1.34000003    2.55999994
   19.91833305   -1.00000000    1.34000003    2.55999994
   19.92166519   -1.00000000    1.33000004    2.55999994
   19.92472076   -1.00000000    1.33000004    2.55999994
   19.92805481   -1.00000000    1.33000004    2.55999994
   19.93805504   -1.00000000    1.33000004    2.55999994
   19.94138718   -1.00000000    1.33000004    2.55999994
   19.94444275   -1.00000000    1.33000004    2.55999994
   19.94777679   -1.00000000    1.33000004    2.55999994
   19.95083427   -1.00000000    1.33000004    2.55999994
   19.95416832   -1.00000000    1.33000004    2.55999994
   19.95750046   -1.00000000    1.33000004    2.55999994
   19.96055603   -1.00000000    1.33000004    2.55999994
   19.96389008   -1.00000000    1.33000004    2.55999994
   19.96694565   -1.00000000    1.34000003    2.53999996
   19.97027779   -1.00000000    1.36000001    2.55999994
   19.98083305   -1.00000000    1.36000001    2.53999996
   19.98416710   -1.00000000    1.36000001    2.53999996
   19.98722267   -1.00000000    1.36000001    2.53999996
   19.99055672   -1.00000000    1.36000001    2.53999996
   19.99388885   -1.00000000    1.36000001    2.53999996
   19.99694443   -1.00000000    1.41999996    2.53999996
   20.00027847   -1.00000000    1.41999996    2.53999996
   20.00361061   -1.00000000    1.39999998    2.53999996
   20.00694466   -1.00000000    1.39999998    2.53999996
   20.01027870   -1.00000000    1.39999998    2.53999996
   20.01333427   -1.00000000    1.39999998    2.53999996
   20.02388954   -1.00000000    1.44000006    2.53999996
   20.02694511   -1.00000000    1.46000004    2.51999998
   20.03027725   -1.00000000    1.46000004    2.53999996
   20.03333282   -1.00000000    1.44000006    2.53999996
   20.03666687   -1.00000000    1.44000006    2.53999996
   20.03999901   -1.00000000    1.44000006    2.53999996
   20.04333305   -1.00000000    1.41999996    2.53999996
   20.04638863   -1.00000000    1.41999996    2.53999996
   20.04972076   -1.00000000    1.41999996    2.53999996
   20.05305481   -1.00000000    1.41999996    2.51999998
   20.05611038   -1.00000000    1.41999996    2.53999996
   20.06666756   -1.00000000    1.41999996    2.53999996
   20.06972313   -1.00000000    1.41999996    2.51999998
   20.07333374   -1.00000000    1.41999996    2.51999998
   20.07666779   -1.00000000    1.41999996    2.51999998
   20.07972336   -1.00000000    1.44000006    2.51999998
   20.08305550   -1.00000000    1.44000006    2.51999998
   20.08638954   -1.00000000    1.44000006    2.51999998
   20.08944511   -1.00000000    1.44000006    2.53999996
   20.09277916   -1.00000000    1.44000006    2.51999998
   20.09583473   -1.00000000    1.46000004    2.51999998
   20.09916687   -1.00000000    1.46000004    2.51999998
   20.10944557   -1.00000000    1.50000000    2.51999998
   20.11277771   -1.00000000    1.51999998    2.51999998
   20.11583328   -1.00000000    1.51999998    2.51999998
   20.11916733   -1.00000000    1.53999996    2.51999998
   20.12222290   -1.00000000    1.55999994    2.51999998
   20.12555504   -1.00000000    1.55999994    2.51999998
   20.12888908   -1.00000000    1.55999994    2.51999998
   20.13194466   -1.00000000    1.55999994    2.51999998
   20.13527679   -1.00000000    1.55999994    2.51999998
   20.13861084   -1.00000000    1.55999994    2.51999998
   20.14194489   -1.00000000    1.55999994    2.51999998
   20.15222168   -1.00000000    1.66999996    2.50000000
   20.15555573   -1.00000000    1.66999996    2.50000000
   20.15888786   -1.00000000    1.66999996    2.50000000
   20.16194344   -1.00000000    1.69000006    2.50000000
   20.16527748   -1.00000000    1.69000006    2.50000000
   20.16833305   -1.00000000    1.69000006    2.50000000
   20.17194366   -1.00000000    1.69000006    2.50000000
   20.17527771   -1.00000000    1.69000006    2.50000000
   20.17833328   -1.00000000    1.69000006    2.50000000
   20.18166542   -1.00000000    1.69000006    2.50000000
   20.18499947   -1.00000000    1.69000006    2.50000000
   20.19527626   -1.00000000    1.66999996    2.50000000
   20.19833183   -1.00000000    1.64999998    2.50000000
   20.20166779   -1.00000000    1.64999998    2.50000000
   20.20527840   -1.00000000    1.63000000    2.50000000
   20.20833397   -1.00000000    1.63000000    2.50000000
   20.21166801   -1.00000000    1.63000000    2.48000002
   20.21500015   -1.00000000    1.63000000    2.50000000
   20.21805573   -1.00000000    1.63000000    2.50000000
   20.22138977   -1.00000000    1.63000000    2.48000002
   20.22444534   -1.00000000    1.61000001    2.50000000
   20.22777748   -1.00000000    1.61000001    2.50000000
   20.23805618   -1.00000000    1.63000000    2.50000000
   20.24111176   -1.00000000    1.63000000    2.48000002
   20.24444389   -1.00000000    1.63000000    2.48000002
   20.24777794   -1.00000000    1.64999998    2.48000002
   20.25083351   -1.00000000    1.64999998    2.48000002
   20.25416756   -1.00000000    1.64999998    2.48000002
   20.25722313   -1.00000000    1.64999998    2.50000000
   20.26055527   -1.00000000    1.64999998    2.48000002
   20.26388931   -1.00000000    1.66999996    2.48000002
