    HOUR (UT)   FLARE FACTOR    SKY TESTER    SUN TESTER
   12.64944458   -1.00000000   -1.00000000   -1.00000000
   12.70027733  188.24600220    0.80000001    2.21000004
   12.70361137  189.44099426    0.81999999    2.23000002
   12.70666695  191.07600403    0.80000001    2.23000002
   12.71000004  188.93800354    0.80000001    2.21000004
   12.71333313  192.26699829    0.80000001    2.23000002
   12.71638870  190.55799866    0.80000001    2.23000002
   12.72055531  190.55799866    0.79000002    2.23000002
   12.72472191  187.46800232    0.79000002    2.25000000
   12.72805500  188.46800232    0.79000002    2.25000000
   12.73111057  189.16799927    0.79000002    2.23000002
   12.73361111  183.52699280    0.79000002    2.25000000
   12.73500061  190.56500244    0.79000002    2.23000002
   12.73805618  191.19700623    0.79000002    2.23000002
   12.74138927  181.66700745    0.79000002    2.25000000
   12.74444485  189.02799988    0.79000002    2.25000000
   12.74777794  185.22700500    0.79000002    2.23000002
   12.75111103  187.08999634    0.79000002    2.23000002
   12.75416660  185.92399597    0.79000002    2.23000002
   12.75749969  180.72399902    0.80000001    2.25000000
   12.76333332  180.72399902    0.79000002    2.25000000
   12.76749992  184.00100708    0.79000002    2.25000000
   12.77083302  187.61700439    0.79000002    2.25000000
   12.77388859  188.72700500    0.79000002    2.25000000
   12.77722168  181.47099304    0.79000002    2.25000000
   12.78055573  182.06399536    0.79000002    2.25000000
   12.78361130  181.42999268    0.79000002    2.25000000
   12.78694534  181.93800354    0.79000002    2.25000000
   12.79027843  188.75999451    0.79000002    2.26999998
   12.79333401  177.99200439    0.79000002    2.25000000
   12.79666710  182.38000488    0.79000002    2.26999998
   12.79972267  182.35200500    0.79000002    2.25000000
   12.80027771  175.49499512    0.79000002    2.25000000
   12.80638885  175.49499512    0.79000002    2.26999998
   12.81027794  171.36599731    0.76999998    2.26999998
   12.81361103  175.37899780    0.76999998    2.26999998
   12.81694412  179.77200317    0.76999998    2.26999998
   12.81999969  178.15800476    0.76999998    2.26999998
   12.82333374  176.31900024    0.76999998    2.28999996
   12.82666683  178.50900269    0.75000000    2.26999998
   12.82972240  186.47399902    0.75000000    2.28999996
   12.83305550  186.03399658    0.75000000    2.28999996
   12.83361053  185.54400635    0.75000000    2.28999996
   12.83666611  185.71499634    0.75000000    2.28999996
   12.83972168  182.28199768    0.76999998    2.26999998
   12.84305477  181.85400391    0.75000000    2.26999998
   12.84916592  181.85400391    0.76999998    2.26999998
   12.85333347  176.64799500    0.76999998    2.28999996
   12.85638905  178.51100159    0.76999998    2.28999996
   12.85972214  181.97999573    0.76999998    2.28999996
   12.86305618  180.85400391    0.76999998    2.28999996
   12.86611176  180.56500244    0.76999998    2.28999996
   12.86694431  177.47599792    0.76999998    2.28999996
   12.86972237  175.91499329    0.76999998    2.28999996
   12.87277794  178.65899658    0.76999998    2.28999996
   12.87611103  179.58399963    0.76999998    2.28999996
   12.87944412  174.68400574    0.75000000    2.28999996
   12.88249969  180.26100159    0.75000000    2.28999996
   12.88583279  183.93600464    0.76999998    2.28999996
   12.89194393  183.93600464    0.76999998    2.28999996
   12.89611053  189.16299438    0.75000000    2.30999994
   12.89944458  180.62600708    0.76999998    2.30999994
   12.90027714  189.58799744    0.75000000    2.30999994
   12.90305519  182.59300232    0.76999998    2.30999994
   12.90638828  180.90899658    0.75000000    2.30999994
   12.90944386  181.19400024    0.76999998    2.30999994
   12.91277695  180.77099609    0.75000000    2.30999994
   12.91583252  187.58000183    0.75000000    2.30999994
   12.91916656  185.55700684    0.75000000    2.30999994
   12.92250061  184.47399902    0.75000000    2.30999994
   12.92555618  191.37300110    0.75000000    2.30999994
   12.92888927  183.50100708    0.75000000    2.30999994
   12.93472195  183.50100708    0.75000000    2.30999994
   12.93888855  196.03799438    0.75000000    2.32999992
   12.94222260  178.11599731    0.75000000    2.30999994
   12.94527817  174.88800049    0.75000000    2.32999992
   12.94861126  170.56900024    0.75000000    2.32999992
   12.95194435  185.68600464    0.75000000    2.30999994
   12.95499992  181.82200623    0.75000000    2.30999994
   12.95833302  198.21499634    0.75000000    2.32999992
   12.96138859  175.37800598    0.75000000    2.32999992
   12.96472168  183.10099792    0.75000000    2.30999994
   12.96694374  174.91099548    0.75000000    2.30999994
   12.96833324  213.36599731    0.75000000    2.30999994
   12.97166634  196.43400574    0.75000000    2.32999992
   12.97777748  196.43400574    0.75000000    2.32999992
   12.98166656  168.57800293    0.75000000    2.32999992
   12.98500061  189.22999573    0.75000000    2.32999992
   12.98833370  201.86700439    0.75000000    2.32999992
   12.99138927  174.50000000    0.75000000    2.32999992
   12.99472237  190.81700134    0.75000000    2.32999992
   12.99805546  197.42799377    0.75000000    2.32999992
   13.00027752  186.27799988    0.75000000    2.32999992
   13.00166702  178.93400574    0.75000000    2.32999992
   13.00500011  193.49099731    0.76999998    2.32999992
   13.00805569  183.34300232    0.76999998    2.34999990
   13.01138878  225.22399902    0.76999998    2.32999992
   13.01472187  192.88900757    0.75000000    2.32999992
   13.02055550  192.88900757    0.75000000    2.34999990
   13.02472210  174.81799316    0.75000000    2.32999992
   13.02777767  172.58900452    0.75000000    2.34999990
   13.03111076  198.67500305    0.75000000    2.34999990
   13.03361130  174.14399719    0.75000000    2.34999990
   13.03472233  168.75900269    0.75000000    2.34999990
   13.03805637  170.80700684    0.75000000    2.34999990
   13.04111195  199.00100708    0.75000000    2.34999990
   13.04444504  176.51899719    0.73000002    2.36999989
   13.04777813  196.94500732    0.73000002    2.34999990
   13.05083370  184.43200684    0.73000002    2.34999990
   13.05416679  174.61599731    0.75000000    2.34999990
   13.05749989  204.38000488    0.73000002    2.34999990
   13.06333351  204.38000488    0.73000002    2.34999990
   13.06750011  185.27900696    0.73000002    2.36999989
   13.07083321  181.85299683    0.73000002    2.34999990
   13.07388878  183.78100586    0.73000002    2.34999990
   13.07722187  181.28399658    0.73000002    2.36999989
   13.08027744  179.87800598    0.73000002    2.34999990
   13.08361053  179.68499756    0.73000002    2.36999989
   13.08694458  190.11599731    0.73000002    2.36999989
   13.09000015  191.60200500    0.73000002    2.34999990
   13.09333324  174.31500244    0.70999998    2.34999990
   13.09666634  168.67399597    0.70999998    2.34999990
   13.09972191  174.47200012    0.70999998    2.34999990
   13.10055637  179.83500671    0.70999998    2.34999990
   13.10611153  179.83500671    0.70999998    2.36999989
   13.11027813  176.73699951    0.70999998    2.36999989
   13.11361122  173.05200195    0.70999998    2.39000010
   13.11666679  179.19400024    0.69000000    2.36999989
   13.11999989  184.92399597    0.70999998    2.36999989
   13.12333393  181.61300659    0.69000000    2.36999989
   13.12638855  178.73800659    0.69000000    2.36999989
   13.12972260  169.29499817    0.69000000    2.36999989
   13.13305569  171.76199341    0.69000000    2.36999989
   13.13388920  166.09100342    0.69000000    2.36999989
   13.13638878  174.55799866    0.69000000    2.36999989
   13.13972187  175.72099304    0.69000000    2.36999989
   13.14305496  174.62100220    0.69000000    2.39000010
   13.14916611  174.62100220    0.69000000    2.39000010
   13.15305519  173.85400391    0.70999998    2.39000010
   13.15638828  163.82200623    0.70999998    2.39000010
   13.15972137  172.57800293    0.70999998    2.39000010
   13.16277695  166.23800659    0.70999998    2.39000010
   13.16611099  167.16900635    0.70999998    2.39000010
   13.16694450  162.59899902    0.70999998    2.39000010
   13.16972256  161.97399902    0.70999998    2.39000010
   13.17305565  170.72000122    0.70999998    2.39000010
   13.17611122  168.99000549    0.70999998    2.36999989
   13.17944431  168.99299622    0.70999998    2.39000010
   13.18277836  172.15800476    0.70999998    2.39000010
   13.18583298  159.02200317    0.70999998    2.39000010
   13.19194412  159.02200317    0.70999998    2.39000010
   13.19611073  168.03500366    0.70999998    2.39000010
   13.19916630  165.43600464    0.70999998    2.39000010
   13.20027733  165.88299561    0.70999998    2.39000010
   13.20277786  164.20799255    0.70999998    2.39000010
   13.20611095  158.49600220    0.70999998    2.40000010
   13.20916653  161.68200684    0.70999998    2.39000010
   13.21249962  159.58900452    0.70999998    2.39000010
   13.21583271  163.78100586    0.70999998    2.40000010
   13.21888828  166.63400269    0.70999998    2.39000010
   13.22222137  166.85499573    0.70999998    2.39000010
   13.22527695  166.27999878    0.70999998    2.39000010
   13.22861099  165.54299927    0.69000000    2.40000010
   13.23472214  165.54299927    0.69000000    2.40000010
   13.23888874  170.33299255    0.69000000    2.40000010
   13.24222279  166.25900269    0.69000000    2.39000010
   13.24527836  169.57699585    0.70999998    2.39000010
   13.24861145  167.90100098    0.69000000    2.40000010
   13.25166702  170.03399658    0.69000000    2.40000010
   13.25500011  171.74000549    0.67000002    2.40000010
   13.25833321  177.05200195    0.67000002    2.40000010
   13.26138878  172.06100464    0.67000002    2.40000010
   13.26472187  170.78300476    0.69000000    2.40000010
   13.26694393  172.47399902    0.67000002    2.40000010
   13.26833344  164.20500183    0.67000002    2.40000010
   13.27166653  170.89300537    0.69000000    2.40000010
   13.27750015  170.89300537    0.67000002    2.40000010
   13.28166676  170.83999634    0.67000002    2.40000010
   13.28500080  164.89700317    0.67000002    2.42000008
   13.28805637  169.64999390    0.67000002    2.42000008
   13.29138947  172.16000366    0.67000002    2.42000008
   13.29472256  168.58099365    0.67000002    2.40000010
   13.29777813  160.61399841    0.69000000    2.40000010
   13.30027771  163.65299988    0.69000000    2.40000010
   13.30138874  161.46400452    0.69000000    2.40000010
   13.30472279  170.32600403    0.69000000    2.42000008
   13.30777836  162.20799255    0.69000000    2.42000008
   13.31111145  158.90100098    0.67000002    2.40000010
   13.31444454  164.30000305    0.67000002    2.42000008
   13.32055569  164.30000305    0.69000000    2.42000008
   13.32444477  156.56399536    0.67000002    2.42000008
   13.32777786  167.01100159    0.69000000    2.42000008
   13.33111095  165.39399719    0.67000002    2.42000008
   13.33361053  166.42799377    0.67000002    2.42000008
   13.33472157  152.83000183    0.67000002    2.42000008
   13.33805561  166.55099487    0.67000002    2.42000008
   13.34111118  154.88200378    0.67000002    2.42000008
   13.34444427  165.44099426    0.67000002    2.42000008
   13.34777737  159.04600525    0.67000002    2.42000008
   13.35083389  154.71200562    0.67000002    2.42000008
   13.35416698  162.62899780    0.67000002    2.42000008
   13.35722256  164.27099609    0.67000002    2.42000008
   13.36333370  164.27099609    0.67000002    2.42000008
   13.36750031  159.74200439    0.67000002    2.42000008
   13.37083340  154.73300171    0.67000002    2.42000008
   13.37388897  157.97300720    0.69000000    2.44000006
   13.37722206  163.57400513    0.67000002    2.44000006
   13.38055611  162.15400696    0.67000002    2.42000008
   13.38361073  162.33999634    0.67000002    2.42000008
   13.38694477  162.15499878    0.69000000    2.44000006
   13.39000034  160.52000427    0.69000000    2.44000006
   13.39333344  153.78500366    0.67000002    2.44000006
   13.39666653  156.78199768    0.67000002    2.42000008
   13.39972210  151.68499756    0.67000002    2.42000008
   13.40027714  158.47599792    0.67000002    2.42000008
   13.40611076  158.47599792    0.67000002    2.42000008
   13.41027737  158.50100708    0.67000002    2.42000008
   13.41361046  163.57499695    0.67000002    2.44000006
   13.41666698  155.25900269    0.67000002    2.44000006
   13.42000008  161.62500000    0.67000002    2.44000006
   13.42305565  160.66200256    0.67000002    2.44000006
   13.42638874  160.66700745    0.67000002    2.44000006
   13.42972279  163.75900269    0.67000002    2.44000006
   13.43277836  158.45700073    0.69000000    2.44000006
   13.43361092  160.12399292    0.69000000    2.44000006
   13.43638897  155.61199951    0.69000000    2.44000006
   13.43972206  158.24099731    0.69000000    2.44000006
   13.44277763  154.69599915    0.69000000    2.44000006
   13.44888878  154.69599915    0.69000000    2.44000006
   13.45305538  155.83799744    0.69000000    2.44000006
   13.45638847  160.44099426    0.69000000    2.44000006
   13.45944405  154.64700317    0.69000000    2.46000004
   13.46277714  156.11199951    0.69000000    2.46000004
   13.46611118  151.84399414    0.69000000    2.46000004
   13.46722221  156.84899902    0.69000000    2.46000004
   13.46944427  157.08399963    0.69000000    2.46000004
   13.47277737  150.10499573    0.69000000    2.46000004
   13.47583294  150.55400085    0.67000002    2.46000004
   13.47916603  153.07499695    0.69000000    2.46000004
   13.48249912  158.13200378    0.69000000    2.44000006
   13.48555565  152.50900269    0.69000000    2.46000004
   13.49194431  152.50900269    0.67000002    2.46000004
   13.49583340  153.77200317    0.67000002    2.46000004
   13.49916649  154.41099548    0.67000002    2.46000004
   13.50055599  153.36099243    0.67000002    2.46000004
   13.50277805  158.70799255    0.67000002    2.46000004
   13.50611115  156.96899414    0.67000002    2.46000004
   13.50916672  155.42599487    0.67000002    2.46000004
   13.51249981  154.35800171    0.67000002    2.46000004
   13.51583290  160.26300049    0.69000000    2.46000004
   13.51888847  158.45799255    0.69000000    2.46000004
   13.52222157  159.16499329    0.67000002    2.46000004
   13.52555561  157.15699768    0.67000002    2.46000004
   13.52861118  153.89599609    0.67000002    2.46000004
   13.53472233  153.89599609    0.67000002    2.46000004
   13.53888893  155.73199463    0.67000002    2.46000004
   13.54194450  158.97300720    0.67000002    2.46000004
   13.54527855  154.62399292    0.64999998    2.46000004
   13.54861164  159.49400330    0.67000002    2.46000004
   13.55166721  154.10499573    0.67000002    2.46000004
   13.55500031  157.03799438    0.64999998    2.46000004
   13.55805588  156.83900452    0.64999998    2.46000004
   13.56138897  153.44299316    0.64999998    2.46000004
   13.56472206  156.43699646    0.64999998    2.46000004
   13.56722260  160.92599487    0.64999998    2.46000004
   13.56805515  150.15800476    0.64999998    2.46000004
   13.57138920  155.75999451    0.67000002    2.46000004
   13.57750034  155.75999451    0.64999998    2.46000004
   13.58166695  158.65499878    0.64999998    2.46000004
   13.58500004  155.83200073    0.67000002    2.46000004
   13.58805561  156.30599976    0.67000002    2.46000004
   13.59138870  158.33200073    0.67000002    2.46000004
   13.59444427  150.90100098    0.67000002    2.46000004
   13.59777737  159.23500061    0.67000002    2.48000002
   13.60055637  151.35699463    0.67000002    2.48000002
   13.60138893  151.01899719    0.67000002    2.46000004
   13.60472298  156.28500366    0.67000002    2.46000004
   13.60777855  160.13400269    0.67000002    2.46000004
   13.61111164  158.61000061    0.67000002    2.46000004
   13.61444473  157.77499390    0.67000002    2.48000002
   13.62027836  157.77499390    0.67000002    2.48000002
   13.62444496  156.74699402    0.67000002    2.46000004
   13.62777805  160.72300720    0.67000002    2.48000002
   13.63083363  159.86599731    0.67000002    2.48000002
   13.63388920  162.24499512    0.67000002    2.48000002
   13.63444424  157.17100525    0.67000002    2.48000002
   13.63777733  156.44500732    0.67000002    2.48000002
   13.64083290  156.78999329    0.67000002    2.48000002
   13.64416695  158.32299805    0.67000002    2.48000002
   13.64750004  156.45899963    0.67000002    2.48000002
   13.65055561  149.48599243    0.67000002    2.48000002
   13.65388870  155.33099365    0.67000002    2.46000004
   13.65722179  158.81399536    0.67000002    2.46000004
   13.66333294  158.81399536    0.67000002    2.48000002
   13.66722298  157.76499939    0.67000002    2.48000002
   13.67055607  155.53399658    0.64999998    2.48000002
   13.67388916  157.60800171    0.64999998    2.48000002
   13.67694473  154.68400574    0.64999998    2.48000002
   13.68027782  156.64700317    0.67000002    2.48000002
   13.68361092  158.93800354    0.67000002    2.48000002
   13.68666649  158.88800049    0.67000002    2.48000002
   13.69000053  157.27000427    0.67000002    2.48000002
   13.69305515  159.84800720    0.67000002    2.48000002
   13.69638920  150.76400757    0.67000002    2.48000002
   13.69972229  158.87199402    0.67000002    2.48000002
   13.70055580  154.93299866    0.69000000    2.48000002
   13.72111034  154.93299866    0.67000002    2.48000002
   13.72527695  149.65600586    0.67000002    2.48000002
   13.72861099  154.43099976    0.67000002    2.48000002
   13.73166656  157.09300232    0.67000002    2.48000002
   13.73388958  156.51100159    0.67000002    2.50000000
   13.73527813  153.39900208    0.67000002    2.48000002
   13.73861122  157.26199341    0.69000000    2.50000000
   13.74194431  155.17900085    0.69000000    2.48000002
   13.74499989  154.66000366    0.69000000    2.48000002
   13.74833393  159.16000366    0.70999998    2.48000002
   13.75138855  157.24200439    0.69000000    2.48000002
   13.75472260  153.85299683    0.69000000    2.50000000
   13.75805569  152.42900085    0.69000000    2.48000002
   13.76388931  152.42900085    0.67000002    2.50000000
   13.76805496  145.59399414    0.69000000    2.50000000
   13.77138901  145.31100464    0.67000002    2.50000000
   13.77444458  146.75599670    0.67000002    2.50000000
   13.77777767  146.98100281    0.69000000    2.50000000
   13.78111076  148.42599487    0.69000000    2.50000000
   13.78416729  151.03500366    0.67000002    2.50000000
   13.78750038  153.43200684    0.67000002    2.50000000
   13.79055595  156.90899658    0.69000000    2.50000000
   13.79388905  174.31900024    0.67000002    2.50000000
   13.79722309  163.44799805    0.67000002    2.48000002
   13.80027771  152.92900085    1.38000000    2.51999998
   13.80083370  158.16999817    1.28999996    2.50000000
   13.80666733  158.16999817    0.70999998    2.50000000
   13.81083393  146.56900024    0.70999998    2.50000000
   13.81416702  146.52499390    0.70999998    2.50000000
   13.81750011  145.99899292    0.70999998    2.48000002
   13.82055569  146.21400452    0.70999998    2.50000000
   13.82388878  146.03999329    0.70999998    2.48000002
   13.82694435  147.18299866    0.70999998    2.50000000
   13.83027744  144.99400330    0.70999998    2.50000000
   13.83361053  145.24800110    0.70999998    2.50000000
   13.83416653  154.64300537    0.70999998    2.50000000
   13.83722210  149.11500549    0.70999998    2.50000000
   13.84027767  144.10299683    0.70999998    2.50000000
   13.84361076  141.78500366    0.70999998    2.50000000
   13.84972191  141.78500366    0.70999998    2.50000000
   13.85388947  147.35499573    0.70999998    2.50000000
   13.85694504  142.46400452    0.73000002    2.50000000
   13.86027813  140.44900513    0.73000002    2.50000000
   13.86333370  139.80999756    0.73000002    2.48000002
   13.86666679  139.46000671    0.73000002    2.48000002
   13.86750031  142.37899780    0.73000002    2.50000000
   13.87027836  144.90400696    0.70999998    2.50000000
   13.87333393  140.53700256    0.70999998    2.50000000
   13.87666702  145.30400085    0.70999998    2.50000000
   13.88000011  143.06599426    0.70999998    2.51999998
   13.88305569  141.82899475    0.70999998    2.50000000
   13.88638878  147.37100220    0.70999998    2.50000000
   13.89249992  147.37100220    0.70999998    2.50000000
   13.89666653  146.36599731    0.70999998    2.50000000
   13.89972210  146.23100281    0.69000000    2.50000000
   13.90083313  143.81199646    0.69000000    2.50000000
   13.90361118  144.40899658    0.69000000    2.50000000
   13.90666676  143.15899658    0.69000000    2.50000000
   13.90999985  149.08099365    0.69000000    2.50000000
   13.91333294  147.93699646    0.70999998    2.51999998
   13.91638851  149.68099976    0.70999998    2.51999998
   13.91972256  144.37800598    0.70999998    2.50000000
   13.92305565  148.63699341    0.70999998    2.50000000
   13.92611122  141.86199951    0.69000000    2.51999998
   13.92944431  146.82099915    0.69000000    2.51999998
   13.93527794  146.82099915    0.70999998    2.50000000
   13.93944454  148.36799622    0.70999998    2.51999998
   13.94277763  141.48300171    0.69000000    2.50000000
   13.94611073  143.75900269    0.69000000    2.51999998
   13.94916630  142.35800171    0.69000000    2.51999998
   13.95249939  138.49600220    0.69000000    2.51999998
   13.95555496  140.39199829    0.69000000    2.50000000
   13.95888901  139.55499268    0.69000000    2.50000000
   13.96222210  142.50700378    0.69000000    2.50000000
   13.96527767  142.73899841    0.70999998    2.51999998
   13.96749973  142.49600220    0.70999998    2.51999998
   13.96888828  145.54200745    0.70999998    2.51999998
   13.97194386  144.57099915    0.69000000    2.51999998
   13.97833252  144.57099915    0.69000000    2.51999998
   13.98249912  142.21499634    0.69000000    2.51999998
   13.98555565  139.40600586    0.69000000    2.51999998
   13.98888874  139.59100342    0.69000000    2.51999998
   13.99222279  133.53599548    0.70999998    2.51999998
   13.99527836  138.21099854    0.70999998    2.51999998
   13.99861145  140.72300720    0.69000000    2.51999998
   14.00083351  140.64900208    0.70999998    2.51999998
   14.00222206  141.86199951    0.70999998    2.51999998
   14.00583363  145.44599915    0.70999998    2.51999998
   14.00888920  139.40499878    0.70999998    2.51999998
   14.01222229  146.91400146    0.70999998    2.51999998
   14.01527786  145.80099487    0.70999998    2.51999998
   14.02111053  145.80099487    0.69000000    2.51999998
   14.02527714  144.78199768    0.70999998    2.51999998
   14.02833271  142.41000366    0.69000000    2.51999998
   14.03166676  136.65499878    0.70999998    2.51999998
   14.03416729  144.48300171    0.70999998    2.51999998
   14.03527832  139.90499878    0.69000000    2.51999998
   14.03861141  144.22999573    0.69000000    2.51999998
   14.04194450  142.05799866    0.69000000    2.51999998
   14.04500008  146.65400696    0.70999998    2.51999998
   14.04833412  141.37100220    0.69000000    2.51999998
   14.05138874  144.87399292    0.69000000    2.51999998
   14.05472279  140.07400513    0.70999998    2.51999998
   14.05805588  147.42100525    0.69000000    2.51999998
   14.06388950  147.42100525    0.69000000    2.53999996
   14.06805515  143.48300171    0.69000000    2.53999996
   14.07111073  141.47099304    0.69000000    2.53999996
   14.07444477  143.26100159    0.69000000    2.53999996
   14.07777786  144.54699707    0.69000000    2.53999996
   14.08083344  137.53599548    0.69000000    2.51999998
   14.08416653  138.68800354    0.67000002    2.51999998
   14.08749962  140.51499939    0.67000002    2.53999996
   14.09055519  143.09399414    0.67000002    2.53999996
   14.09388828  139.77900696    0.69000000    2.51999998
   14.09694386  141.10899353    0.69000000    2.51999998
   14.10027790  137.02600098    0.69000000    2.53999996
   14.10083389  140.48800659    0.69000000    2.53999996
   14.10666752  140.48800659    0.67000002    2.53999996
   14.11083412  141.72399902    0.69000000    2.53999996
   14.11416721  147.64900208    0.69000000    2.53999996
   14.11722279  147.17599487    0.69000000    2.53999996
   14.12055588  145.05599976    0.70999998    2.53999996
   14.12388897  145.54800415    0.69000000    2.51999998
   14.12694454  140.20899963    0.69000000    2.51999998
   14.13027763  142.51400757    0.69000000    2.53999996
   14.13333321  144.32600403    0.69000000    2.53999996
   14.13416672  146.60200500    0.69000000    2.53999996
   14.13694477  143.16299438    0.69000000    2.53999996
   14.14027786  144.04899597    0.69000000    2.53999996
   14.14333344  141.82000732    0.69000000    2.53999996
   14.14944458  141.82000732    0.69000000    2.53999996
   14.15361118  140.36300659    0.69000000    2.51999998
   14.15694427  138.63600159    0.70999998    2.53999996
   14.16027737  141.44299316    0.69000000    2.53999996
   14.16333294  140.54299927    0.70999998    2.53999996
   14.16666698  138.87199402    0.70999998    2.53999996
   14.16750050  134.12199402    0.70999998    2.53999996
   14.17027855  138.72399902    0.70999998    2.53999996
   14.17361164  141.35499573    0.70999998    2.53999996
   14.17666721  135.91099548    0.70999998    2.53999996
   14.18000031  137.11900330    0.70999998    2.53999996
   14.18305588  139.29600525    0.70999998    2.53999996
   14.18638897  143.94400024    0.70999998    2.53999996
   14.19250011  143.94400024    0.69000000    2.53999996
   14.19666672  137.75599670    0.69000000    2.53999996
   14.19972229  141.85800171    0.70999998    2.53999996
   14.20083332  137.00999451    0.70999998    2.53999996
   14.20333290  143.02299500    0.69000000    2.53999996
   14.20666695  137.97099304    0.70999998    2.53999996
   14.20972157  138.46099854    0.70999998    2.53999996
   14.21305561  144.81199646    0.70999998    2.55999994
   14.21611118  144.72799683    0.70999998    2.53999996
   14.21944427  142.84300232    0.70999998    2.55999994
   14.22277737  142.62100220    0.73000002    2.53999996
   14.22583294  141.50599670    0.70999998    2.53999996
   14.22916603  143.16000366    0.69000000    2.53999996
   14.23527813  143.16000366    0.70999998    2.53999996
   14.23944473  141.05900574    0.69000000    2.53999996
   14.24250031  140.77000427    0.69000000    2.53999996
   14.24583340  136.15800476    0.69000000    2.55999994
   14.24916649  142.86300659    0.69000000    2.55999994
   14.25222206  139.05799866    0.70999998    2.53999996
   14.25555515  138.48399353    0.69000000    2.55999994
   14.25861073  136.40699768    0.69000000    2.55999994
   14.26194477  141.25700378    0.69000000    2.55999994
   14.26527786  145.74600220    0.69000000    2.53999996
   14.26749992  138.19000244    0.69000000    2.55999994
   14.26888847  140.10699463    0.69000000    2.55999994
   14.27222157  132.55000305    0.69000000    2.53999996
   14.27805519  132.55000305    0.69000000    2.55999994
   14.28222179  136.26600647    0.67000002    2.53999996
   14.28555584  139.04800415    0.67000002    2.55999994
   14.28861141  130.45899963    0.67000002    2.53999996
   14.29194450  145.03399658    0.67000002    2.55999994
   14.29500008  134.43800354    0.67000002    2.55999994
   14.29833412  134.14900208    0.69000000    2.55999994
   14.30083370  140.51499939    0.69000000    2.55999994
   14.30194473  137.72700500    0.69000000    2.55999994
   14.30500031  140.42199707    0.69000000    2.55999994
   14.30833340  138.99299622    0.67000002    2.55999994
   14.31166649  138.52200317    0.69000000    2.55999994
   14.31472206  138.71899414    0.67000002    2.55999994
   14.32083321  138.71899414    0.67000002    2.55999994
   14.32499981  142.83999634    0.67000002    2.55999994
   14.32833290  139.00900269    0.67000002    2.55999994
   14.33166695  144.96499634    0.67000002    2.55999994
   14.33416653  141.94799805    0.69000000    2.55999994
   14.33527756  143.73699951    0.69000000    2.55999994
   14.33861065  141.90400696    0.67000002    2.55999994
   14.34166622  137.13099670    0.69000000    2.55999994
   14.34499931  138.16299438    0.67000002    2.55999994
   14.34805489  136.01699829    0.67000002    2.55999994
   14.35138893  139.00100708    0.67000002    2.55999994
   14.35472298  167.71699524    0.67000002    2.55999994
   14.35777855  161.62699890    0.67000002    2.55999994
   14.36388969  161.62699890    0.67000002    2.55999994
   14.36805534  186.50399780    0.69000000    2.55999994
   14.37111092  183.06399536    0.67000002    2.55999994
   14.37444496  193.65199280    0.67000002    2.55999994
   14.37750053  209.59399414    0.67000002    2.55999994
   14.38083363  199.94400024    0.67000002    2.55999994
   14.38416672  178.65299988    0.67000002    2.55999994
   14.38722229  215.35800171    0.67000002    2.55999994
   14.39055538  212.23500061    0.69000000    2.55999994
   14.39388847  201.15400696    0.67000002    2.55999994
   14.39694405  195.54899597    0.67000002    2.55999994
   14.40027714  204.36000061    0.69000000    2.55999994
   14.40083313  227.53700256    0.69000000    2.55999994
   14.40666676  227.53700256    0.70999998    2.55999994
   14.41083336  207.62899780    0.70999998    2.55999994
   14.41388893  236.60000610    0.70999998    2.55999994
   14.41722298  200.94299316    0.70999998    2.57999992
   14.42055607  212.55499268    0.70999998    2.55999994
   14.42361164  297.36099243    0.70999998    2.55999994
   14.42694473  239.70700073    0.70999998    2.55999994
   14.43000031  211.50100708    0.69000000    2.55999994
   14.43333340  269.20401001    0.70999998    2.55999994
   14.43416691  211.81900024    0.70999998    2.55999994
   14.43694496  237.62699890    0.69000000    2.55999994
   14.44027805  246.63400269    0.69000000    2.57999992
   14.44333363  304.80300903    0.69000000    2.57999992
   14.44944477  304.80300903    0.69000000    2.55999994
   14.45361137  273.20498657    0.69000000    2.55999994
   14.45694447  287.35800171    0.69000000    2.55999994
   14.46000004  281.88500977    0.69000000    2.55999994
   14.46333313  238.83599854    0.69000000    2.55999994
   14.46638870  277.57699585    0.67000002    2.55999994
   14.46749973  299.46798706    0.67000002    2.55999994
   14.46999931  288.60501099    0.67000002    2.57999992
   14.47333336  262.68798828    0.67000002    2.55999994
   14.47638798  226.00799561    0.67000002    2.55999994
   14.47999954  250.47999573    0.67000002    2.55999994
   14.48305511  275.97601318    0.67000002    2.57999992
   14.48638916  291.30499268    0.67000002    2.55999994
   14.49222279  291.30499268    0.69000000    2.57999992
   14.49638939  234.30200195    0.69000000    2.57999992
   14.49972248  248.30299377    0.69000000    2.57999992
   14.50083351  274.34500122    0.69000000    2.57999992
   14.50333309  297.79299927    0.69000000    2.57999992
   14.50666714  270.36898804    0.69000000    2.57999992
   14.50972176  262.23901367    0.69000000    2.55999994
   14.51305580  260.99499512    0.69000000    2.55999994
   14.51638889  238.17700195    0.69000000    2.57999992
   14.51944447  258.70999146    0.69000000    2.57999992
   14.52277756  273.45599365    0.67000002    2.57999992
   14.52583313  268.14898682    0.67000002    2.57999992
   14.52916622  219.58500671    0.67000002    2.57999992
   14.53527832  219.58500671    0.67000002    2.57999992
   14.53972244  271.20999146    0.67000002    2.57999992
   14.54305553  287.57699585    0.67000002    2.57999992
   14.54638958  251.81900024    0.67000002    2.57999992
   14.54944515  236.88299561    0.67000002    2.57999992
   14.55277824  261.86599731    0.69000000    2.57999992
   14.55583382  242.26899719    0.69000000    2.57999992
   14.55916691  240.80200195    0.67000002    2.57999992
   14.56250000  210.96299744    0.67000002    2.57999992
   14.56555557  207.74800110    0.67000002    2.57999992
   14.56750011  217.74400330    0.67000002    2.57999992
   14.56916618  238.47799683    0.69000000    2.55999994
   14.57250023  231.80700684    0.69000000    2.55999994
   14.57805538  231.80700684    0.67000002    2.57999992
   14.58222198  196.10600281    0.69000000    2.57999992
   14.58527756  202.42900085    0.67000002    2.57999992
   14.58861065  206.05700684    0.67000002    2.57999992
   14.59194374  184.43200684    0.67000002    2.57999992
   14.59499931  176.54299927    0.67000002    2.57999992
   14.59833336  216.70700073    0.67000002    2.57999992
   14.60083389  205.59399414    0.67000002    2.57999992
   14.60194492  223.67599487    0.67000002    2.57999992
   14.60527802  205.68099976    0.67000002    2.57999992
   14.60833359  197.09899902    0.64999998    2.57999992
   14.61166668  160.08900452    0.64999998    2.57999992
   14.61500072  174.22599792    0.67000002    2.57999992
   14.62083340  174.22599792    0.67000002    2.57999992
   14.62500000  175.33599854    0.67000002    2.57999992
   14.62833309  176.23399353    0.69000000    2.57999992
   14.63138866  176.39500427    0.67000002    2.59999990
   14.63416672  168.19900513    0.67000002    2.59999990
   14.63500023  177.53799438    0.67000002    2.59999990
   14.63833332  153.02400208    0.67000002    2.57999992
   14.64138889  161.39199829    0.67000002    2.57999992
   14.64472198  174.57400513    0.67000002    2.57999992
   14.64805508  165.16200256    0.67000002    2.57999992
   14.65111065  164.45500183    0.64999998    2.57999992
   14.65444374  171.79699707    0.67000002    2.59999990
   14.65749931  173.15899658    0.67000002    2.57999992
   14.66361046  173.15899658    0.64999998    2.57999992
   14.66777802  155.23500061    0.64999998    2.57999992
   14.67111111  167.49000549    0.64999998    2.57999992
   14.67416668  153.10400391    0.64999998    2.57999992
   14.67750072  163.68099976    0.63000000    2.57999992
   14.68083382  160.69900513    0.63000000    2.57999992
   14.68388939  157.83000183    0.63000000    2.57999992
   14.68722248  147.49899292    0.63000000    2.57999992
   14.69055557  152.86099243    0.63000000    2.59999990
   14.69361115  152.15899658    0.63000000    2.59999990
   14.69694424  155.23699951    0.63000000    2.57999992
   14.70027733  162.02299500    0.63000000    2.57999992
   14.70083332  155.32499695    0.63000000    2.57999992
   14.70666695  155.32499695    0.63000000    2.59999990
   14.71055508  154.13200378    0.63000000    2.59999990
   14.71388912  151.16200256    0.63000000    2.59999990
   14.71722221  142.60699463    0.64999998    2.57999992
   14.73472214  147.46600342    0.63000000    2.59999990
   14.73722267  158.57400513    0.63000000    2.59999990
   14.74027824  155.86399841    0.63000000    2.59999990
   14.74361134  148.80200195    0.63000000    2.59999990
   14.74944496  148.80200195    0.64999998    2.59999990
   14.75361156  155.40400696    0.64999998    2.59999990
   14.75694466  158.20300293    0.64999998    2.59999990
   14.76027775  143.13800049    0.67000002    2.59999990
   14.76333332  148.15699768    0.64999998    2.59999990
   14.76666641  148.97900391    0.64999998    2.59999990
   14.76805496  156.85600281    0.64999998    2.59999990
   14.76999950  156.82899475    0.64999998    2.59999990
   14.77333355  156.54100037    0.64999998    2.59999990
   14.77666664  151.79899597    0.64999998    2.59999990
   14.77972221  156.53100586    0.64999998    2.59999990
   14.78305531  152.58000183    0.64999998    2.59999990
   14.78611183  152.88499451    0.64999998    2.59999990
   14.79250050  152.88499451    0.64999998    2.57999992
   14.79666710  141.91200256    0.64999998    2.59999990
   14.79972267  147.95799255    0.63000000    2.59999990
   14.80138874  148.63800049    0.63000000    2.59999990
   14.80333328  154.09599304    0.63000000    2.59999990
   14.80666733  160.10200500    0.63000000    2.59999990
   14.81000042  163.88299561    0.64999998    2.61999989
   14.81305599  177.46899414    0.64999998    2.59999990
   14.81638908  191.72799683    0.64999998    2.59999990
   14.81972218  182.10800171    0.63000000    2.59999990
   14.82277775  182.53900146    0.64999998    2.59999990
   14.82611084  208.54899597    0.63000000    2.59999990
   14.82944393  186.79699707    0.63000000    2.59999990
   14.83527756  186.79699707    0.63000000    2.59999990
   14.83944416  173.06100464    0.63000000    2.59999990
   14.84249973  177.89199829    0.63000000    2.59999990
   14.84583282  172.56199646    0.63000000    2.59999990
   14.84916592  181.48500061    0.63000000    2.59999990
   14.85222244  218.58500671    0.63000000    2.59999990
   14.85555553  186.27400208    0.63000000    2.59999990
   14.85888958  187.18299866    0.63000000    2.59999990
   14.86194515  214.55400085    0.63000000    2.59999990
   14.86527824  187.63999939    0.63000000    2.59999990
   14.86805534  182.17500305    0.63000000    2.59999990
   14.86861134  181.41000366    0.63000000    2.59999990
   14.87194443  183.09500122    0.63000000    2.59999990
   14.87805557  183.09500122    0.63000000    2.59999990
   14.88222218  198.38800049    0.63000000    2.59999990
   14.88555527  197.94900513    0.63000000    2.59999990
   14.88861084  171.28799438    0.63000000    2.59999990
   14.89194393  185.50500488    0.63000000    2.59999990
   14.89499950  206.66400146    0.64999998    2.59999990
   14.89833355  173.68200684    0.64999998    2.59999990
   14.90138817  153.23699951    0.64999998    2.59999990
   14.90222168  155.02499390    0.64999998    2.59999990
   14.90527725  170.19999695    0.64999998    2.59999990
   14.90861034  144.03999329    0.64999998    2.61999989
   14.91166592  161.13699341    0.64999998    2.59999990
   14.91499996  163.52099609    0.64999998    2.59999990
   14.92083359  163.52099609    0.64999998    2.61999989
   14.92500019  167.14100647    0.64999998    2.61999989
   14.92833328  177.32000732    0.64999998    2.61999989
   14.93138885  156.53399658    0.64999998    2.61999989
   14.93472195  164.22999573    0.67000002    2.61999989
   14.93500042  184.94599915    0.67000002    2.61999989
   14.93833351  167.85299683    0.64999998    2.59999990
   14.94166660  183.79899597    0.64999998    2.59999990
   14.94472218  164.97999573    0.64999998    2.61999989
   14.94805527  156.38600159    0.64999998    2.59999990
   14.95138836  166.57899475    0.67000002    2.59999990
   14.95444393  191.35299683    0.64999998    2.61999989
   14.95777798  168.57400513    0.64999998    2.61999989
   14.96388912  168.57400513    0.64999998    2.61999989
   14.96777725  198.25799561    0.64999998    2.61999989
   14.96833324  184.78700256    0.64999998    2.61999989
   14.97166634  185.72000122    0.64999998    2.59999990
   14.97472191  208.63699341    0.64999998    2.59999990
   14.97805500  166.29800415    0.64999998    2.61999989
   14.98138809  190.01699829    0.64999998    2.61999989
   14.98444462  160.96499634    0.64999998    2.61999989
   14.98777771  151.88600159    0.67000002    2.61999989
   14.99111176  175.80700684    0.64999998    2.61999989
   14.99444485  159.56100464    0.64999998    2.61999989
   14.99750042  155.71200562    0.64999998    2.59999990
   15.00083351  176.97799683    0.63000000    2.61999989
   15.00166702  161.67999268    0.63000000    2.61999989
   15.00666714  161.67999268    0.63000000    2.61999989
   15.01083374  180.90100098    0.63000000    2.61999989
   15.01388931  196.88800049    0.61000001    2.61999989
   15.01722240  165.18499756    0.61000001    2.61999989
   15.02055550  168.70100403    0.63000000    2.61999989
   15.02361107  193.90299988    0.63000000    2.61999989
   15.02694416  187.98699951    0.61000001    2.59999990
   15.03027725  182.47099304    0.61000001    2.61999989
   15.03333378  199.17599487    0.61000001    2.61999989
   15.03500080  179.55900574    0.63000000    2.61999989
   15.03694534  198.33599854    0.63000000    2.61999989
   15.04000092  202.91900635    0.63000000    2.61999989
   15.04333401  247.62699890    0.63000000    2.59999990
   15.04944515  247.62699890    0.63000000    2.61999989
   15.05361176  382.22299194    0.67000002    2.61999989
   15.05694485  454.29400635    0.67000002    2.61999989
   15.05888939  481.40701294    0.67000002    2.61999989
   15.06027794  484.63400269    0.67000002    2.61999989
   15.06166649  407.40899658    0.67000002    2.61999989
   15.06305599  455.15798950    0.67000002    2.61999989
   15.06444454  410.08401489    0.64999998    2.61999989
   15.06583309  412.63699341    0.64999998    2.61999989
   15.06722260  383.52801514    0.64999998    2.61999989
   15.06861115  375.03500366    0.64999998    2.61999989
   15.06999969  385.50799561    0.64999998    2.61999989
   15.07138920  378.24798584    0.67000002    2.61999989
   15.07277775  420.89001465    0.67000002    2.61999989
   15.07416630  381.92599487    0.67000002    2.61999989
   15.07555580  381.23300171    0.64999998    2.59999990
   15.07694435  362.08200073    0.64999998    2.59999990
   15.07833290  369.66900635    0.64999998    2.59999990
   15.07972240  391.79598999    0.64999998    2.59999990
   15.08111095  381.34698486    0.64999998    2.61999989
   15.08249950  370.31399536    0.64999998    2.61999989
   15.08388901  365.55300903    0.64999998    2.61999989
   15.08527756  378.07598877    0.64999998    2.61999989
   15.08666611  416.01699829    0.64999998    2.61999989
   15.08805561  378.23300171    0.64999998    2.61999989
   15.08944416  379.16598511    0.64999998    2.61999989
   15.09083271  387.92700195    0.64999998    2.61999989
   15.09222221  365.07199097    0.64999998    2.59999990
   15.09361076  358.76501465    0.64999998    2.59999990
   15.09499931  341.30398560    0.64999998    2.59999990
   15.09499931  382.22299194    0.67000002    2.61999989
   15.09499931  454.29400635    0.67000002    2.61999989
   15.09499931  193.90299988    0.63000000    2.61999989
   15.09499931  187.98699951    0.61000001    2.59999990
   15.09527779  182.47099304    0.61000001    2.61999989
   15.09527779  199.17599487    0.61000001    2.61999989
   15.09527779  198.33599854    0.63000000    2.61999989
   15.09527779  202.91900635    0.63000000    2.61999989
   15.09527779  247.62699890    0.63000000    2.59999990
   15.09583282  385.26901245    0.64999998    2.61999989
   15.09916592  391.39599609    0.64999998    2.61999989
   15.10249996  358.53298950    0.63000000    2.61999989
   15.10555553  394.11599731    0.64999998    2.61999989
   15.10888958  395.47799683    0.64999998    2.61999989
   15.11555576  395.47799683    0.64999998    2.61999989
   15.11972237  415.14599609    0.64999998    2.61999989
   15.12166691  415.43499756    0.64999998    2.59999990
   15.12305546  382.80499268    0.64999998    2.59999990
   15.12444496  370.68399048    0.64999998    2.59999990
   15.12583351  332.63598633    0.64999998    2.59999990
   15.12583351  385.26901245    0.64999998    2.61999989
   15.12611103  391.39599609    0.64999998    2.61999989
   15.12611103  358.53298950    0.63000000    2.61999989
   15.12611103  394.11599731    0.64999998    2.61999989
   15.12611103  395.47799683    0.64999998    2.61999989
   15.12638855  415.14599609    0.64999998    2.61999989
   15.12694454  351.48199463    0.64999998    2.59999990
   15.13000011  428.16500854    0.64999998    2.59999990
   15.13194466  371.71701050    0.64999998    2.59999990
   15.13333321  413.46600342    0.64999998    2.61999989
   15.13472176  388.26300049    0.64999998    2.61999989
   15.13611126  370.41299438    0.64999998    2.61999989
   15.13749981  413.18798828    0.64999998    2.59999990
   15.13888836  419.23001099    0.64999998    2.59999990
   15.14027786  426.33898926    0.64999998    2.59999990
   15.14166641  436.96200562    0.64999998    2.59999990
   15.14305496  347.90701294    0.64999998    2.61999989
   15.14305496  351.48199463    0.64999998    2.59999990
   15.14305496  428.16500854    0.64999998    2.59999990
   15.14361095  427.35101318    0.67000002    2.61999989
   15.14583302  374.98001099    0.67000002    2.61999989
   15.14694405  390.94799805    0.67000002    2.61999989
   15.14833355  378.89498901    0.67000002    2.61999989
   15.14972210  363.52200317    0.67000002    2.61999989
   15.15111065  368.37298584    0.67000002    2.61999989
   15.15249920  394.51000977    0.64999998    2.61999989
   15.15388870  322.46200562    0.64999998    2.61999989
   15.15388870  427.35101318    0.67000002    2.61999989
   15.15472221  317.46600342    0.64999998    2.61999989
   15.15777779  445.39199829    0.64999998    2.61999989
   15.15972137  369.17999268    0.64999998    2.61999989
   15.16111088  388.42599487    0.64999998    2.61999989
   15.16249943  362.86999512    0.64999998    2.61999989
   15.16388893  424.23001099    0.64999998    2.61999989
   15.16527748  385.75201416    0.64999998    2.61999989
   15.16666698  325.15600586    0.64999998    2.61999989
   15.16666698  317.46600342    0.64999998    2.61999989
   15.16666698  445.39199829    0.64999998    2.61999989
   15.16722298  365.01199341    0.64999998    2.61999989
   15.17055607  310.09799194    0.64999998    2.61999989
   15.17388916  338.47698975    0.64999998    2.61999989
   15.17694473  322.11898804    0.63000000    2.61999989
   15.18027782   -1.00000000    0.63000000    2.61999989
   15.18333340   -1.00000000    0.63000000    2.61999989
   15.27416611   -1.00000000   -1.00000000   -1.00000000
   15.38777733   -1.00000000   -1.00000000   -1.00000000
   15.56472206   -1.00000000   -1.00000000   -1.00000000
   15.73972225  108.62000275    0.56999999    2.64000010
   15.74277782  155.19200134    0.56999999    2.64000010
   15.74611092  156.34300232    0.55000001    2.64000010
   15.74944496  153.19400024    0.55000001    2.64000010
   15.75249958  162.98699951    0.55000001    2.64000010
   15.75583363  156.18200684    0.52999997    2.64000010
   15.76000023  156.18200684    0.52999997    2.64000010
   15.76388931  152.95799255    0.55000001    2.64000010
   15.76722240  155.61399841    0.52999997    2.64000010
   15.77055550  151.74099731    0.55000001    2.64000010
   15.77305508  154.11099243    0.55000001    2.64000010
   15.77416611  151.40100098    0.55000001    2.64000010
   15.77750015  151.28100586    0.55000001    2.64000010
   15.78055573  156.66999817    0.52999997    2.64000010
   15.78388977  152.09500122    0.55000001    2.64000010
   15.78694534  158.10099792    0.55000001    2.64000010
   15.79027843  151.25500488    0.52999997    2.66000009
   15.79361153  164.97200012    0.55000001    2.64000010
   15.79666710  158.84599304    0.55000001    2.64000010
   15.80277824  158.84599304    0.55000001    2.64000010
   15.80694485  149.14799500    0.52999997    2.66000009
   15.81000042  159.11799622    0.52999997    2.66000009
   15.81333351  154.12800598    0.52999997    2.64000010
   15.81666660  150.56900024    0.52999997    2.64000010
   15.81972218  149.28799438    0.55000001    2.64000010
   15.82305527  148.33900452    0.52999997    2.64000010
   15.82611084  152.54800415    0.55000001    2.64000010
   15.82944393  156.82200623    0.52999997    2.64000010
   15.83277798  157.41900635    0.52999997    2.64000010
   15.83583260  158.72999573    0.55000001    2.66000009
   15.83916664  149.88200378    0.55000001    2.66000009
   15.83972168  154.38400269    0.55000001    2.66000009
   15.84555531  154.38400269    0.56999999    2.66000009
   15.84972191  150.77699280    0.55000001    2.64000010
   15.85305595  157.66600037    0.55000001    2.66000009
   15.85611153  153.18600464    0.56999999    2.66000009
   15.85944462  153.66600037    0.55000001    2.64000010
   15.86250019  156.04299927    0.52999997    2.64000010
   15.86583328  153.33599854    0.52999997    2.64000010
   15.86916637  154.57000732    0.52999997    2.66000009
   15.87222195  151.08399963    0.52999997    2.66000009
   15.87305546  152.60099792    0.52999997    2.66000009
   15.87611103  157.13600159    0.52999997    2.64000010
   15.87916660  160.01300049    0.52999997    2.64000010
   15.88249969  155.34599304    0.52999997    2.64000010
   15.88833332  155.34599304    0.55000001    2.64000010
   15.89249992  164.15100098    0.55000001    2.64000010
   15.89583302  165.80499268    0.56999999    2.66000009
   15.89888859  161.03399658    0.56999999    2.66000009
   15.90222168  169.49000549    0.55000001    2.66000009
   15.90555477  164.10499573    0.55000001    2.64000010
   15.90638828  167.68800354    0.55000001    2.64000010
   15.90888882  155.50999451    0.55000001    2.64000010
   15.91222191  158.94999695    0.55000001    2.64000010
   15.91555500  159.19500732    0.55000001    2.66000009
   15.91861153  160.31500244    0.52999997    2.66000009
   15.92194462  159.60699463    0.52999997    2.64000010
   15.92527771  167.44799805    0.51999998    2.66000009
   15.93138885  167.44799805    0.51999998    2.66000009
   15.93527794  173.98699951    0.50000000    2.66000009
   15.93861103  164.10499573    0.50000000    2.66000009
   15.93972206  164.68099976    0.50000000    2.66000009
   15.94194412  160.28300476    0.50000000    2.64000010
   15.94527817  170.48500061    0.51999998    2.66000009
   15.94861126  179.95100403    0.51999998    2.66000009
   15.95166683  175.67700195    0.51999998    2.64000010
   15.95499992  181.34100342    0.51999998    2.64000010
   15.95833302  181.66000366    0.51999998    2.66000009
   15.96138859  176.81199646    0.50000000    2.64000010
   15.96472168  177.47999573    0.50000000    2.66000009
   15.96777725  174.31100464    0.50000000    2.64000010
   15.97416592  174.31100464    0.51999998    2.66000009
   15.97833252  188.38400269    0.51999998    2.66000009
   15.98138809  192.14399719    0.51999998    2.66000009
   15.98472214  183.80799866    0.51999998    2.64000010
   15.98805618  187.97999573    0.51999998    2.66000009
   15.99111176  192.69000244    0.51999998    2.66000009
   15.99444485  174.28100586    0.51999998    2.66000009
   15.99750042  199.42399597    0.50000000    2.66000009
   16.00083351  183.94299316    0.51999998    2.66000009
   16.00416756  188.46499634    0.50000000    2.66000009
   16.00638962  173.02799988    0.51999998    2.64000010
   16.00777817  179.89799500    0.51999998    2.64000010
   16.01083374  174.54899597    0.51999998    2.66000009
   16.01694489  174.54899597    0.50000000    2.64000010
   16.02111053  161.34399414    0.51999998    2.66000009
   16.02444458  177.37399292    0.50000000    2.66000009
   16.02750015  191.06900024    0.50000000    2.66000009
   16.03083229  193.10499573    0.51999998    2.64000010
   16.03416634  194.94299316    0.51999998    2.66000009
   16.03722191  168.94700623    0.51999998    2.66000009
   16.03972244  188.12800598    0.50000000    2.66000009
   16.04111099  189.33700562    0.50000000    2.66000009
   16.04416656  215.37899780    0.50000000    2.66000009
   16.04749870  190.96200562    0.50000000    2.64000010
   16.05083275  181.10000610    0.50000000    2.66000009
   16.05388832  219.97599792    0.51999998    2.66000009
   16.05972099  219.97599792    0.51999998    2.66000009
   16.06388855  196.87699890    0.50000000    2.66000009
   16.06722260  178.27099609    0.50000000    2.66000009
   16.07027817  200.19700623    0.50000000    2.66000009
   16.07305717  190.05599976    0.50000000    2.66000009
   16.07416725  173.59700012    0.50000000    2.66000009
   16.07750130  176.94999695    0.50000000    2.66000009
   16.08055687  183.93699646    0.50000000    2.64000010
   16.08388901  191.00599670    0.50000000    2.66000009
   16.08722305  194.40499878    0.50000000    2.66000009
   16.09027863  196.13499451    0.51999998    2.66000009
   16.09361267  199.23599243    0.51999998    2.66000009
   16.09694481  198.01199341    0.51999998    2.66000009
   16.10277748  198.01199341    0.51999998    2.66000009
   16.10666656  188.47300720    0.51999998    2.66000009
   16.11000061  179.68699646    0.51999998    2.66000009
   16.11333466  175.63000488    0.51999998    2.64000010
   16.11638832  194.59599304    0.50000000    2.66000009
   16.11972237  193.77099609    0.50000000    2.66000009
   16.12305641  176.91000366    0.50000000    2.66000009
   16.12611198  171.97399902    0.50000000    2.66000009
   16.12944412  178.15899658    0.50000000    2.66000009
   16.13277817  193.21099854    0.50000000    2.66000009
   16.13583374  171.98100281    0.50000000    2.64000010
   16.13916588  197.57000732    0.50000000    2.64000010
   16.13972282  190.53100586    0.50000000    2.64000010
   16.14555550  190.53100586    0.50000000    2.64000010
   16.14972115  205.27200317    0.50000000    2.66000009
   16.15277672  187.41600037    0.50000000    2.66000009
   16.15611076  182.99800110    0.50000000    2.66000009
   16.15944481  169.14199829    0.50000000    2.66000009
   16.16250038  174.90899658    0.50000000    2.66000009
   16.16583252  173.72999573    0.50000000    2.64000010
   16.16888809  181.10099792    0.50000000    2.66000009
   16.17222214  174.70899963    0.50000000    2.66000009
   16.17305565  167.89199829    0.50000000    2.66000009
   16.17583275  179.17199707    0.50000000    2.66000009
   16.17888832  179.78599548    0.50000000    2.66000009
   16.18222237  187.24200439    0.50000000    2.66000009
   16.18833160  187.24200439    0.50000000    2.66000009
   16.19249916  177.61500549    0.50000000    2.64000010
   16.19583321  162.35099792    0.50000000    2.66000009
   16.19888878  166.54699707    0.50000000    2.66000009
   16.20222282  170.08700562    0.50000000    2.66000009
   16.20527840  174.44000244    0.50000000    2.66000009
   16.20639038  170.25300598    0.50000000    2.66000009
   16.20916748  168.35000610    0.50000000    2.66000009
   16.21222305  171.17700195    0.50000000    2.66000009
   16.21555710  173.97200012    0.50000000    2.66000009
   16.21888924  166.92100525    0.50000000    2.64000010
   16.22194481  173.11300659    0.50000000    2.66000009
   16.22527885  175.75100708    0.50000000    2.66000009
   16.23111153  175.75100708    0.50000000    2.66000009
   16.23527718  166.93099976    0.50000000    2.66000009
   16.23861122  175.62800598    0.50000000    2.66000009
   16.23972321  179.75999451    0.50000000    2.66000009
   16.24222183  161.65899658    0.50000000    2.66000009
   16.24527740  158.28100586    0.50000000    2.66000009
   16.24861145  184.67300415    0.50000000    2.66000009
   16.25194359  169.83799744    0.51999998    2.64000010
   16.25499916  172.64300537    0.51999998    2.66000009
   16.25833321  178.58500671    0.51999998    2.66000009
   16.26166725  167.13499451    0.51999998    2.66000009
   16.26472282  168.16099548    0.52999997    2.66000009
   16.26805496  182.77299500    0.52999997    2.64000010
   16.27416611  182.77299500    0.52999997    2.64000010
   16.27805519  153.92100525    0.52999997    2.66000009
   16.28138924  165.53500366    0.52999997    2.64000010
   16.28472137  181.30099487    0.52999997    2.66000009
   16.28777695  163.11599731    0.51999998    2.64000010
   16.29111099  176.74699402    0.51999998    2.64000010
   16.29444313  170.82299805    0.52999997    2.66000009
   16.29749870  165.41499329    0.52999997    2.66000009
   16.30083275  170.08999634    0.52999997    2.66000009
   16.30388832  160.81399536    0.51999998    2.66000009
   16.30638885  186.88200378    0.51999998    2.64000010
   16.30777740  180.10699463    0.51999998    2.64000010
   16.31083298  170.00700378    0.51999998    2.64000010
   16.31694603  170.00700378    0.51999998    2.64000010
   16.32111168  179.54699707    0.51999998    2.66000009
   16.32416725  170.44999695    0.51999998    2.64000010
   16.32750130  168.84500122    0.51999998    2.64000010
   16.33083344  170.86900330    0.52999997    2.66000009
   16.33388901  158.34100342    0.51999998    2.64000010
   16.33722305  167.29800415    0.51999998    2.66000009
   16.33972359  166.04100037    0.51999998    2.66000009
   16.34083366  160.14199829    0.51999998    2.66000009
   16.34388924  184.09100342    0.51999998    2.64000010
   16.34722328  160.91299438    0.51999998    2.66000009
   16.35055542  173.04200745    0.51999998    2.66000009
   16.35361099  166.16400146    0.51999998    2.66000009
   16.35972214  166.16400146    0.52999997    2.66000009
   16.36388969  164.84199524    0.51999998    2.64000010
   16.36722183  165.94900513    0.51999998    2.66000009
   16.37027740  168.84700012    0.52999997    2.66000009
   16.37305641  166.31900024    0.52999997    2.66000009
   16.37388992  176.50999451    0.51999998    2.66000009
   16.37694550  168.39700317    0.51999998    2.66000009
   16.38027763  173.59899902    0.51999998    2.66000009
   16.38361168  188.96499634    0.52999997    2.66000009
   16.38666725  196.39700317    0.51999998    2.66000009
   16.38999939  238.38200378    0.51999998    2.66000009
   16.39305496  245.75500488    0.51999998    2.66000009
   16.39638901  298.83700562    0.51999998    2.66000009
   16.40250015  298.83700562    0.51999998    2.66000009
   16.40666580  381.59399414    0.51999998    2.66000009
   16.40999985  350.18399048    0.52999997    2.66000009
   16.41305542  325.69799805    0.51999998    2.64000010
   16.41638756  326.32400513    0.51999998    2.66000009
   16.41972160  314.05300903    0.51999998    2.66000009
   16.42277718  327.57598877    0.51999998    2.66000009
   16.42611122  458.22799683    0.51999998    2.66000009
   16.42805481  436.44799805    0.51999998    2.66000009
   16.42944336  420.89599609    0.51999998    2.66000009
   16.43083191  448.18600464    0.51999998    2.66000009
   16.43222237  422.16198730    0.51999998    2.66000009
   16.43361092  417.24301147    0.51999998    2.66000009
   16.43499947  413.31298828    0.51999998    2.66000009
   16.43638802  469.89099121    0.51999998    2.66000009
   16.43777657  410.46899414    0.51999998    2.66000009
   16.43916512  435.39700317    0.51999998    2.66000009
   16.44055557  425.34100342    0.51999998    2.66000009
   16.44194412  449.96499634    0.51999998    2.66000009
   16.44333267  398.63500977    0.51999998    2.66000009
   16.44472122  423.66500854    0.51999998    2.66000009
   16.44610977  395.02700806    0.51999998    2.66000009
   16.44749832  435.63598633    0.51999998    2.66000009
   16.44888878  448.05300903    0.51999998    2.66000009
   16.45027924  382.65399170    0.51999998    2.66000009
   16.45166779  389.61999512    0.51999998    2.66000009
   16.45305634  395.61401367    0.51999998    2.66000009
   16.45444489  370.77801514    0.51999998    2.64000010
   16.45583344  421.95700073    0.51999998    2.64000010
   16.45722389  386.64498901    0.51999998    2.66000009
   16.45861244  413.06399536    0.51999998    2.66000009
   16.46000099  403.31600952    0.51999998    2.66000009
   16.46138954  396.03601074    0.50000000    2.66000009
   16.46277809  378.09698486    0.50000000    2.66000009
   16.46416664  384.01998901    0.50000000    2.66000009
   16.46555710  391.08898926    0.51999998    2.66000009
   16.46694565  415.58401489    0.51999998    2.66000009
   16.46833420  403.50000000    0.51999998    2.64000010
   16.46972275  447.75100708    0.51999998    2.64000010
   16.47111130  398.62100220    0.51999998    2.64000010
   16.47249985  375.44000244    0.51999998    2.66000009
   16.47389030  385.42401123    0.51999998    2.66000009
   16.47527885  400.68899536    0.51999998    2.66000009
   16.47666740  367.57998657    0.50000000    2.66000009
   16.47805595  387.66101074    0.50000000    2.66000009
   16.47944450  385.89199829    0.50000000    2.66000009
   16.48083305  378.69299316    0.50000000    2.66000009
   16.48222351  363.67300415    0.50000000    2.66000009
   16.48361206  413.62799072    0.50000000    2.66000009
   16.48500061  350.10998535    0.50000000    2.66000009
   16.48638916  335.67401123    0.50000000    2.66000009
   16.48638916  350.18399048    0.52999997    2.66000009
   16.48638916  325.69799805    0.51999998    2.64000010
   16.48638916  326.32400513    0.51999998    2.66000009
   16.48666763  314.05300903    0.51999998    2.66000009
   16.48666763  327.57598877    0.51999998    2.66000009
   16.48666763  458.22799683    0.51999998    2.66000009
   16.48666763  245.75500488    0.51999998    2.66000009
   16.48666763  298.83700562    0.51999998    2.66000009
   16.48694420  381.59399414    0.51999998    2.66000009
   16.48750114  369.30099487    0.50000000    2.66000009
   16.49055672  355.69900513    0.50000000    2.66000009
   16.49388885  386.26199341    0.51999998    2.66000009
   16.49722290  323.11499023    0.51999998    2.66000009
   16.50027847  300.89001465    0.51999998    2.64000010
   16.50722313  300.89001465    0.51999998    2.66000009
   16.51138878  300.15399170    0.51999998    2.66000009
   16.51444435  286.87200928    0.51999998    2.66000009
   16.51777840  282.90701294    0.51999998    2.66000009
   16.52027702  281.46301270    0.51999998    2.66000009
   16.52138901  284.34500122    0.51999998    2.66000009
   16.52472115  294.70098877    0.51999998    2.66000009
   16.52805519  270.93600464    0.51999998    2.66000009
   16.53111076  251.54899597    0.52999997    2.66000009
   16.53444481  256.63198853    0.52999997    2.64000010
   16.53777695  254.73100281    0.51999998    2.66000009
   16.54083252  233.06300354    0.51999998    2.66000009
   16.54416656  223.00199890    0.52999997    2.66000009
   16.54999924  223.00199890    0.51999998    2.66000009
   16.55416679  209.15199280    0.52999997    2.66000009
   16.55722237  215.21400452    0.52999997    2.66000009
   16.56055450  203.10400391    0.51999998    2.66000009
   16.56388855  239.06199646    0.51999998    2.66000009
   16.56722260  231.17999268    0.51999998    2.66000009
   16.57027817  187.32699585    0.51999998    2.66000009
   16.57361221  187.53799438    0.51999998    2.66000009
   16.57694626  195.04100037    0.51999998    2.66000009
   16.58000183  215.56700134    0.51999998    2.66000009
   16.58333397  207.67599487    0.51999998    2.66000009
   16.58638954  183.85000610    0.51999998    2.66000009
   16.58694458  196.94599915    0.51999998    2.66000009
   16.59277916  196.94599915    0.51999998    2.66000009
   16.59694481  180.24800110    0.51999998    2.64000010
   16.60027885  182.46600342    0.51999998    2.66000009
   16.60333443  182.34599304    0.51999998    2.66000009
   16.60666656  181.25100708    0.51999998    2.64000010
   16.61000061  171.48699951    0.51999998    2.64000010
   16.61305618  196.02200317    0.51999998    2.66000009
   16.61638832  177.59199524    0.51999998    2.66000009
   16.61972237  193.35099792    0.51999998    2.66000009
   16.62027740  183.54699707    0.51999998    2.66000009
   16.62333298  180.61199951    0.51999998    2.66000009
   16.62638855  170.71899414    0.51999998    2.66000009
   16.62972260  182.58200073    0.51999998    2.66000009
   16.63555527  182.58200073    0.51999998    2.66000009
   16.63972282  191.36099243    0.51999998    2.66000009
   16.64305496  182.94799805    0.51999998    2.66000009
   16.64666748  181.29699707    0.52999997    2.66000009
   16.64972115  192.84500122    0.51999998    2.66000009
   16.65305519  178.30499268    0.51999998    2.64000010
   16.65361023  174.38099670    0.51999998    2.64000010
   16.65666580  185.15400696    0.51999998    2.64000010
   16.65972137  182.40100098    0.52999997    2.66000009
   16.66305542  180.57499695    0.51999998    2.66000009
   16.66638756  189.49899292    0.51999998    2.66000009
   16.66944313  179.49600220    0.51999998    2.66000009
   16.67277718  172.50000000    0.51999998    2.66000009
   16.67860985  172.50000000    0.51999998    2.66000009
   16.68277740  175.99800110    0.51999998    2.66000009
   16.68610954  175.19099426    0.52999997    2.66000009
   16.68694305  167.83099365    0.52999997    2.66000009
   16.68972206  160.68200684    0.51999998    2.66000009
   16.69305420  173.23199463    0.51999998    2.66000009
   16.69610977  181.17599487    0.51999998    2.66000009
   16.69944382  165.97200012    0.51999998    2.66000009
   16.70277786  174.13099670    0.52999997    2.66000009
   16.70583344  177.12300110    0.52999997    2.66000009
   16.70916748  174.94200134    0.51999998    2.66000009
   16.71250153  168.37100220    0.52999997    2.66000009
   16.71555710  179.11500549    0.51999998    2.66000009
   16.72138977  179.11500549    0.51999998    2.66000009
   16.72555542  177.69400024    0.52999997    2.66000009
   16.72861099  185.21800232    0.52999997    2.66000009
   16.73194504  174.78100586    0.51999998    2.66000009
   16.73527718  183.00700378    0.51999998    2.66000009
   16.73833275  164.59100342    0.51999998    2.66000009
   16.75694466  168.39199829    0.51999998    2.66000009
   16.75805473  169.35000610    0.51999998    2.66000009
   16.76444435  169.35000610    0.51999998    2.66000009
   16.76861000  165.61500549    0.51999998    2.64000010
   16.77166557  166.97999573    0.51999998    2.66000009
   16.77499962  166.41099548    0.51999998    2.64000010
   16.77833366  167.58999634    0.51999998    2.66000009
   16.78138924  171.82600403    0.51999998    2.66000009
   16.78472137  177.98899841    0.51999998    2.66000009
   16.78777695  177.06700134    0.51999998    2.66000009
   16.78999901  167.73300171    0.51999998    2.66000009
   16.79138756  172.38999939    0.51999998    2.66000009
   16.79472160  167.34599304    0.51999998    2.66000009
   16.79777718  173.59300232    0.52999997    2.66000009
   16.80111122  157.36300659    0.51999998    2.66000009
   16.80722237  157.36300659    0.52999997    2.66000009
   16.81138802  162.84199524    0.51999998    2.66000009
   16.81444359  170.54499817    0.51999998    2.64000010
   16.81777954  168.88299561    0.51999998    2.66000009
   16.82111168  187.15299988    0.52999997    2.66000009
   16.82361221  177.00000000    0.51999998    2.66000009
   16.82444572  163.49800110    0.51999998    2.66000009
   16.82777786  198.12300110    0.51999998    2.66000009
   16.83111191  181.03100586    0.51999998    2.64000010
   16.83416748  203.37600708    0.51999998    2.64000010
   16.83750153  190.04100037    0.52999997    2.66000009
   16.84055710  187.02099609    0.51999998    2.66000009
   16.84388924  183.40299988    0.51999998    2.66000009
   16.85000038  183.40299988    0.51999998    2.66000009
   16.85444450  200.72300720    0.50000000    2.66000009
   16.85694504  200.41799927    0.51999998    2.66000009
   16.85777855  200.97500610    0.51999998    2.66000009
   16.86111069  199.40499878    0.50000000    2.66000009
   16.86444473  196.05499268    0.50000000    2.66000009
   16.86750031  176.03900146    0.50000000    2.66000009
   16.87083435  189.35400391    0.51999998    2.66000009
   16.87416649  196.80599976    0.51999998    2.67000008
   16.87722206  191.54600525    0.51999998    2.66000009
   16.88055611  202.79899597    0.51999998    2.66000009
   16.88388824  190.68699646    0.51999998    2.66000009
   16.88694382  192.72700500    0.51999998    2.66000009
   16.89305496  192.72700500    0.51999998    2.66000009
   16.89694405  191.65899658    0.51999998    2.66000009
   16.90027809  203.31599426    0.51999998    2.66000009
   16.90361023  201.07400513    0.50000000    2.66000009
   16.90666580  187.99800110    0.51999998    2.66000009
   16.90999985  181.30299377    0.51999998    2.66000009
   16.91333389  188.16400146    0.51999998    2.66000009
   16.91638756  188.22099304    0.51999998    2.66000009
   16.91972160  209.62300110    0.50000000    2.66000009
   16.92305565  183.15400696    0.51999998    2.66000009
   16.92388916  190.77099609    0.51999998    2.66000009
   16.92638779  184.85499573    0.50000000    2.66000009
   16.92972183  196.51899719    0.51999998    2.66000009
   16.93583298  196.51899719    0.51999998    2.66000009
   16.93999863  193.70899963    0.51999998    2.66000009
   16.94305420  198.42199707    0.51999998    2.66000009
   16.94638824  195.91600037    0.51999998    2.64000010
   16.94944382  198.68200684    0.51999998    2.66000009
   16.95277786  192.42199707    0.51999998    2.66000009
   16.95611191  201.27400208    0.51999998    2.66000009
   16.95722389  192.48300171    0.51999998    2.66000009
   16.95944595  190.80299377    0.51999998    2.66000009
   16.96277809  189.39300537    0.51999998    2.66000009
   16.96611214  194.64999390    0.51999998    2.66000009
   16.96916771  191.73399353    0.51999998    2.66000009
   16.97249985  188.83500671    0.51999998    2.66000009
   16.97861099  188.83500671    0.51999998    2.66000009
   16.98277855  198.28900146    0.51999998    2.66000009
   16.98583412  187.61599731    0.50000000    2.66000009
   16.98916626  180.71800232    0.50000000    2.66000009
   16.99055672  186.77299500    0.50000000    2.66000009
   16.99277878  187.98199463    0.51999998    2.66000009
   16.99611092  180.93400574    0.51999998    2.66000009
   16.99944496  162.38999939    0.50000000    2.64000010
   17.00250053  192.38499451    0.50000000    2.64000010
   17.00583267  180.84700012    0.50000000    2.66000009
   17.00916672  181.88000488    0.50000000    2.66000009
   17.01222229  159.54100037    0.51999998    2.66000009
   17.01555634  180.53300476    0.50000000    2.66000009
   17.02138901  180.53300476    0.51999998    2.66000009
   17.02555466  188.04699707    0.50000000    2.66000009
   17.02888870  183.90100098    0.50000000    2.66000009
   17.03194427  173.85600281    0.50000000    2.66000009
   17.03527641  164.42100525    0.51999998    2.66000009
   17.03861046  172.46099854    0.50000000    2.66000009
   17.04166603  196.39199829    0.50000000    2.66000009
   17.04500008  183.67999268    0.50000000    2.64000010
   17.04805565  181.04299927    0.51999998    2.66000009
   17.05138779  183.23300171    0.51999998    2.66000009
   17.05472183  169.00999451    0.50000000    2.66000009
   17.05722237  182.13299561    0.50000000    2.66000009
   17.05805397  182.79699707    0.50000000    2.64000010
   17.06416512  182.79699707    0.50000000    2.66000009
   17.06833458  176.50799561    0.50000000    2.66000009
   17.07166672  185.91799927    0.51999998    2.64000010
   17.07500076  177.47700500    0.51999998    2.66000009
   17.07805634  185.93800354    0.51999998    2.66000009
   17.08139038  189.13000488    0.51999998    2.64000010
   17.08472252  166.67100525    0.51999998    2.66000009
   17.08777809  173.80999756    0.51999998    2.66000009
   17.09055710  172.40600586    0.51999998    2.66000009
   17.09138870  181.12800598    0.51999998    2.66000009
   17.09472275  161.00500488    0.50000000    2.66000009
   17.09777832  174.38099670    0.50000000    2.66000009
   17.10111237  178.87300110    0.50000000    2.66000009
   17.10722351  178.87300110    0.50000000    2.66000009
   17.11138916  163.78300476    0.50000000    2.66000009
   17.11444473  178.21200562    0.51999998    2.66000009
   17.11777878  177.51800537    0.51999998    2.66000009
   17.12083435  187.72399902    0.50000000    2.66000009
   17.12416649  180.40199280    0.50000000    2.66000009
   17.12444496  164.87699890    0.50000000    2.66000009
   17.12777710  188.53100586    0.50000000    2.66000009
   17.13083267  177.42300415    0.50000000    2.66000009
   17.13416672  182.66099548    0.50000000    2.66000009
   17.13750076  193.09300232    0.50000000    2.66000009
   17.14055634  188.52400208    0.50000000    2.64000010
   17.14388847  173.39100647    0.50000000    2.64000010
   17.14999962  173.39100647    0.50000000    2.66000009
   17.15416718  158.78199768    0.50000000    2.66000009
   17.15749931  172.16999817    0.50000000    2.66000009
   17.15777779  168.93299866    0.50000000    2.66000009
   17.16110992  172.43499756    0.50000000    2.66000009
   17.16444397  165.14599609    0.50000000    2.66000009
   17.16749954  164.97799683    0.50000000    2.66000009
   17.17083359  171.47999573    0.50000000    2.66000009
   17.17388916  165.80499268    0.50000000    2.66000009
   17.17722130  163.96000671    0.50000000    2.64000010
   17.18055534  157.98199463    0.50000000    2.66000009
   17.18361092  158.43499756    0.50000000    2.66000009
   17.18694305  158.98399353    0.50000000    2.66000009
   17.19277763  158.98399353    0.47999999    2.66000009
   17.19694328  172.18200684    0.47999999    2.66000009
   17.20027924  160.32800293    0.47999999    2.64000010
   17.20333481  160.63000488    0.47999999    2.64000010
   17.20666695  160.97999573    0.50000000    2.64000010
   17.21000099  161.18499756    0.50000000    2.66000009
   17.21305656  163.38900757    0.50000000    2.66000009
   17.21638870  165.58599854    0.50000000    2.64000010
   17.21944427  168.79699707    0.50000000    2.64000010
   17.22277832  161.14700317    0.50000000    2.66000009
   17.22416687  167.64399719    0.50000000    2.66000009
   17.22638893  166.91600037    0.50000000    2.66000009
   17.22972298  164.37600708    0.50000000    2.66000009
   17.23555565  164.37600708    0.50000000    2.66000009
   17.23972321  156.10400391    0.50000000    2.64000010
   17.24305534  162.04800415    0.51999998    2.66000009
   17.24638939  154.13000488    0.51999998    2.64000010
   17.24972153  163.70199585    0.50000000    2.66000009
   17.25277710  163.75500488    0.50000000    2.66000009
   17.25611115  160.31900024    0.50000000    2.66000009
   17.25749969  152.87800598    0.50000000    2.66000009
   17.25972176  159.49899292    0.50000000    2.64000010
   17.26277733  152.91999817    0.50000000    2.66000009
   17.26611137  158.68600464    0.50000000    2.66000009
   17.26944351  161.63900757    0.50000000    2.66000009
   17.27277756  160.21600342    0.50000000    2.66000009
   17.27861023  160.21600342    0.50000000    2.66000009
   17.28277779  162.36900330    0.50000000    2.66000009
   17.28583336  157.38699341    0.50000000    2.64000010
   17.28916550  158.24000549    0.50000000    2.66000009
   17.29083252  154.84500122    0.50000000    2.66000009
   17.29277802  164.52099609    0.50000000    2.64000010
   17.29611015  159.40600586    0.50000000    2.64000010
   17.29916573  162.40100098    0.50000000    2.64000010
   17.30249977  161.67799377    0.50000000    2.66000009
   17.30583191  156.39399719    0.50000000    2.66000009
   17.30888748  163.07400513    0.50000000    2.66000009
   17.31222153  158.62800598    0.50000000    2.66000009
   17.31555557  157.57600403    0.50000000    2.66000009
   17.32139015  157.57600403    0.51999998    2.66000009
   17.32555580  149.02099609    0.51999998    2.66000009
   17.32888985  147.95899963    0.50000000    2.66000009
   17.33194542  157.67599487    0.50000000    2.64000010
   17.33527756  156.26499939    0.50000000    2.64000010
   17.33833313  151.81700134    0.51999998    2.66000009
   17.34166718  159.86000061    0.50000000    2.64000010
   17.34500122  152.87300110    0.50000000    2.64000010
   17.34805679  155.20300293    0.51999998    2.64000010
   17.35138893  151.74200439    0.50000000    2.66000009
   17.35472298  152.74299622    0.50000000    2.64000010
   17.35750008  153.40299988    0.51999998    2.66000009
   17.35805511  151.78399658    0.51999998    2.66000009
   17.36416626  151.78399658    0.51999998    2.66000009
   17.36833382  155.64900208    0.51999998    2.66000009
   17.37166595  163.32400513    0.50000000    2.64000010
   17.37472153  148.60499573    0.50000000    2.64000010
   17.37805557  151.84100342    0.50000000    2.64000010
   17.38138962  152.42500305    0.50000000    2.66000009
   17.38444519  149.57899475    0.50000000    2.64000010
   17.38777733  149.06199646    0.50000000    2.64000010
   17.39083290  151.42100525    0.50000000    2.64000010
   17.39138794  155.30499268    0.50000000    2.66000009
   17.39472198  152.33500671    0.50000000    2.66000009
   17.39777756  154.55299377    0.50000000    2.64000010
   17.40111160  149.11399841    0.50000000    2.66000009
   17.40694427  149.11399841    0.50000000    2.66000009
   17.41110992  150.51300049    0.50000000    2.66000009
   17.41444397  149.19500732    0.47999999    2.66000009
   17.41777802  150.41999817    0.50000000    2.66000009
   17.42083359  150.27499390    0.50000000    2.66000009
   17.42416573  151.98100281    0.47999999    2.66000009
   17.42472076  152.26499939    0.47999999    2.66000009
   17.42777634  152.15899658    0.47999999    2.66000009
   17.43111038  152.96200562    0.50000000    2.66000009
   17.43444443  151.83599854    0.47999999    2.66000009
   17.43750000  151.19299316    0.47999999    2.66000009
   17.44083214  148.82200623    0.47999999    2.66000009
   17.44388771  153.14799500    0.47999999    2.66000009
   17.45000076  153.14799500    0.47999999    2.66000009
   17.45416832  145.45799255    0.47999999    2.66000009
   17.45722389  145.23800659    0.47999999    2.66000009
   17.45805550  147.99200439    0.47999999    2.66000009
   17.46083450  145.98300171    0.47999999    2.66000009
   17.46416664  148.93699646    0.47999999    2.66000009
   17.46750069  148.88000488    0.47999999    2.64000010
   17.47055626  146.44700623    0.47999999    2.66000009
   17.47389030  144.68899536    0.50000000    2.66000009
   17.47722244  150.53199768    0.47999999    2.66000009
   17.48027802  141.23399353    0.47999999    2.66000009
   17.48361206  148.38000488    0.47999999    2.66000009
   17.48666763  149.02299500    0.47999999    2.66000009
   17.49277878  149.02299500    0.50000000    2.66000009
   17.49694443  148.39599609    0.47999999    2.64000010
   17.50000000  147.72599792    0.47999999    2.66000009
   17.50333405  143.32899475    0.47999999    2.66000009
   17.50666618  145.55299377    0.47999999    2.66000009
   17.50972176  149.92900085    0.50000000    2.66000009
   17.51305580  150.82200623    0.50000000    2.64000010
   17.51638794  148.03799438    0.50000000    2.64000010
   17.51944351  149.71400452    0.50000000    2.66000009
   17.52277756  147.86300659    0.50000000    2.66000009
   17.52472115  144.55099487    0.50000000    2.64000010
   17.52611160  148.02200317    0.50000000    2.64000010
   17.52944374  153.87800598    0.50000000    2.64000010
   17.53555489  153.87800598    0.50000000    2.66000009
   17.53972244  147.49699402    0.50000000    2.66000009
   17.54305458  149.22999573    0.50000000    2.66000009
   17.54611015  132.66299438    0.50000000    2.66000009
   17.54944420  144.30900574    0.50000000    2.66000009
   17.55277634  147.77400208    0.50000000    2.64000010
   17.55583191  141.83999634    0.50000000    2.64000010
   17.55805397  146.80099487    0.50000000    2.66000009
   17.55944443  142.80299377    0.50000000    2.66000009
   17.56277657  148.05099487    0.50000000    2.66000009
   17.56611061  144.21299744    0.50000000    2.66000009
   17.56916809  137.22399902    0.50000000    2.66000009
   17.57250023  145.08399963    0.50000000    2.66000009
   17.57833481  145.08399963    0.51999998    2.66000009
   17.58250046  150.22200012    0.50000000    2.64000010
   17.58583450  141.05900574    0.50000000    2.66000009
   17.58916664  137.57699585    0.50000000    2.66000009
   17.59138870  142.49099731    0.50000000    2.66000009
   17.59250069  139.81700134    0.50000000    2.66000009
   17.59583473  144.21200562    0.50000000    2.66000009
   17.59916687  139.32299805    0.50000000    2.66000009
   17.60250092  136.21499634    0.50000000    2.66000009
   17.60555649  138.76400757    0.50000000    2.66000009
   17.60888863  133.78399658    0.50000000    2.64000010
   17.61194420  145.07299805    0.50000000    2.66000009
   17.61527824  137.39900208    0.50000000    2.66000009
   17.62138939  137.39900208    0.50000000    2.64000010
   17.62555504  142.83399963    0.50000000    2.64000010
   17.62861061  144.29200745    0.50000000    2.66000009
   17.63194466  142.79600525    0.50000000    2.66000009
   17.63527679  142.30099487    0.50000000    2.66000009
   17.63833237  140.18200684    0.51999998    2.66000009
   17.64166641  141.37600708    0.50000000    2.64000010
   17.64472198  142.20199585    0.50000000    2.64000010
   17.64805603  140.41200256    0.50000000    2.64000010
   17.65138817  139.86799622    0.50000000    2.64000010
   17.65444374  142.41200256    0.50000000    2.64000010
   17.65777779  134.06300354    0.51999998    2.64000010
   17.65833282  143.21099854    0.51999998    2.64000010
   17.66416550  143.21099854    0.50000000    2.64000010
   17.66833305  138.41299438    0.50000000    2.64000010
   17.67138863  138.70799255    0.50000000    2.64000010
   17.67472076  135.20899963    0.50000000    2.66000009
   17.67805481  139.46499634    0.50000000    2.66000009
   17.68111038  144.42500305    0.50000000    2.64000010
   17.68444443  142.86199951    0.51999998    2.64000010
   17.68777657  142.22099304    0.51999998    2.64000010
   17.69083214  141.57600403    0.50000000    2.66000009
   17.69166565  139.74800110    0.51999998    2.64000010
   17.69444275  133.08599854    0.51999998    2.64000010
   17.69777679  137.03399658    0.50000000    2.64000010
   17.70111275  141.22300720    0.50000000    2.64000010
   17.70694542  141.22300720    0.51999998    2.64000010
   17.71111107  137.84700012    0.51999998    2.64000010
   17.71444511  138.32699585    0.51999998    2.64000010
   17.71750069  140.65199280    0.51999998    2.64000010
   17.72083473  137.86700439    0.51999998    2.64000010
   17.72389030  139.80400085    0.51999998    2.64000010
   17.72500038  137.63499451    0.51999998    2.64000010
   17.72750092  141.79299927    0.51999998    2.64000010
   17.73083305  139.67700195    0.51999998    2.64000010
   17.73416710  140.56199646    0.51999998    2.64000010
   17.73722267  139.32600403    0.52999997    2.64000010
   17.74055672  141.59199524    0.52999997    2.64000010
   17.74361229  136.22500610    0.51999998    2.64000010
   17.74972153  136.22500610    0.51999998    2.64000010
   17.75388908  134.77699280    0.51999998    2.64000010
   17.75722313  135.23500061    0.51999998    2.64000010
   17.77416611  149.87699890    0.51999998    2.64000010
   17.77722168  141.22799683    0.50000000    2.64000010
   17.78055573  165.15299988    0.50000000    2.64000010
   17.78361130  153.45199585    0.50000000    2.64000010
   17.78694344  147.50300598    0.50000000    2.64000010
   17.79305458  147.50300598    0.51999998    2.64000010
   17.79722214  145.73800659    0.51999998    2.64000010
   17.80027771  151.76100159    0.51999998    2.64000010
   17.80360985  145.24400330    0.51999998    2.64000010
   17.80666542  147.27900696    0.50000000    2.64000010
   17.80749893  172.12600708    0.50000000    2.64000010
   17.81055450  155.03900146    0.50000000    2.64000010
   17.81361008  146.26699829    0.51999998    2.64000010
   17.81694603  150.36900330    0.51999998    2.64000010
   17.82027817  153.22000122    0.51999998    2.64000010
   17.82333374  143.40199280    0.52999997    2.64000010
   17.82666779  152.32899475    0.52999997    2.64000010
   17.82972336  138.41799927    0.51999998    2.64000010
   17.83583450  138.41799927    0.50000000    2.64000010
   17.84000015  144.60000610    0.50000000    2.64000010
   17.84083366  175.20700073    0.50000000    2.64000010
   17.84361267  137.22200012    0.50000000    2.64000010
   17.84666824  145.24499512    0.51999998    2.64000010
   17.85000038  180.00999451    0.51999998    2.64000010
   17.85333443  147.96299744    0.51999998    2.64000010
   17.85639000  141.66499329    0.51999998    2.64000010
   17.85972214  153.01899719    0.51999998    2.64000010
   17.86305618  168.07099915    0.51999998    2.64000010
   17.86638832  173.35299683    0.51999998    2.64000010
   17.86944389  160.37699890    0.51999998    2.64000010
   17.87277794  142.90600586    0.51999998    2.64000010
   17.87416649  145.40400696    0.51999998    2.64000010
   17.87861061  145.40400696    0.51999998    2.66000009
   17.88277817  139.42900085    0.51999998    2.64000010
   17.88611031  149.96600342    0.51999998    2.64000010
   17.88916588  138.35400391    0.51999998    2.64000010
   17.89249992  134.96699524    0.52999997    2.64000010
   17.89583397  145.17500305    0.51999998    2.64000010
   17.89888954  132.95700073    0.51999998    2.64000010
   17.90222168  140.60299683    0.51999998    2.64000010
   17.90527725  156.74699402    0.51999998    2.64000010
   17.90749931  126.47100067    0.51999998    2.64000010
   17.90916634  147.93200684    0.51999998    2.64000010
   17.91222191  138.18099976    0.52999997    2.64000010
   17.91555595  146.25799561    0.51999998    2.64000010
   17.92138863  146.25799561    0.51999998    2.64000010
   17.92555428  142.55799866    0.52999997    2.64000010
   17.92888832  140.91299438    0.51999998    2.64000010
   17.93222237  147.34500122    0.51999998    2.64000010
   17.93527603  144.75599670    0.52999997    2.64000010
   17.93861008  137.65400696    0.51999998    2.64000010
   17.94083214  138.32699585    0.51999998    2.64000010
   17.94222069  144.69599915    0.51999998    2.64000010
   17.94527626  141.88000488    0.51999998    2.64000010
   17.94861031  143.36700439    0.51999998    2.64000010
   17.95194435  146.11599731    0.51999998    2.64000010
   17.95499992  141.25399780    0.51999998    2.64000010
   17.95833397  141.69400024    0.51999998    2.64000010
   17.96444511  141.69400024    0.51999998    2.64000010
   17.96833420  139.74299622    0.51999998    2.64000010
   17.97166634  142.72399902    0.51999998    2.64000010
   17.97416687  145.98899841    0.51999998    2.64000010
   17.97527885  137.21299744    0.51999998    2.64000010
   17.97833443  137.44500732    0.51999998    2.64000010
   17.98166656  143.33799744    0.51999998    2.64000010
   17.98500061  144.51100159    0.51999998    2.64000010
   17.98805618  145.67500305    0.51999998    2.64000010
   17.99138832  144.42300415    0.50000000    2.64000010
   17.99444389  140.10600281    0.50000000    2.64000010
   17.99777794  140.50399780    0.50000000    2.64000010
   18.00111198  141.92500305    0.51999998    2.64000010
   18.00722313  141.92500305    0.51999998    2.64000010
   18.01138878  132.89700317    0.51999998    2.64000010
   18.01472282  143.03999329    0.51999998    2.64000010
   18.01777840  139.23599243    0.51999998    2.64000010
   18.02111053  139.92100525    0.51999998    2.64000010
   18.02444458  141.90600586    0.51999998    2.64000010
   18.02750015  141.58299255    0.50000000    2.64000010
   18.03083229  142.10800171    0.51999998    2.61999989
   18.03416634  145.06500244    0.51999998    2.61999989
   18.03722191  133.41900635    0.51999998    2.64000010
   18.04055595  138.39399719    0.50000000    2.64000010
   18.04222107  141.42900085    0.50000000    2.64000010
   18.04388809  145.38800049    0.51999998    2.64000010
   18.04999924  145.38800049    0.50000000    2.64000010
   18.05416679  142.67199707    0.51999998    2.64000010
   18.05722237  142.08900452    0.51999998    2.61999989
   18.06055450  143.79499817    0.52999997    2.61999989
   18.06388855  141.32499695    0.51999998    2.61999989
   18.06694603  142.87399292    0.51999998    2.64000010
   18.07027817  146.85499573    0.51999998    2.64000010
   18.07361221  143.01499939    0.51999998    2.64000010
   18.07555580  138.01400757    0.52999997    2.64000010
   18.07722282  138.79100037    0.52999997    2.64000010
   18.08027840  136.37100220    0.52999997    2.61999989
   18.08361244  145.22900391    0.51999998    2.64000010
   18.08694458  149.20100403    0.52999997    2.61999989
   18.09277916  149.20100403    0.52999997    2.61999989
   18.09694481  139.48500061    0.51999998    2.61999989
   18.10027885  143.50999451    0.51999998    2.61999989
   18.10333443  142.11999512    0.52999997    2.64000010
   18.10666656  138.74600220    0.51999998    2.61999989
   18.10916710  141.74099731    0.51999998    2.61999989
   18.11055565  140.92300415    0.51999998    2.61999989
   18.11361122  146.21699524    0.52999997    2.64000010
   18.11694527  137.14700317    0.52999997    2.64000010
   18.12000084  143.89500427    0.52999997    2.61999989
   18.12333298  138.43400574    0.52999997    2.61999989
   18.12666702  144.25000000    0.51999998    2.61999989
   18.12972260  141.72500610    0.51999998    2.61999989
   18.13583374  141.72500610    0.52999997    2.61999989
   18.13972282  145.78999329    0.52999997    2.61999989
   18.14249992  131.37899780    0.52999997    2.61999989
   18.14333344  141.94999695    0.52999997    2.61999989
   18.14666748  141.32299805    0.52999997    2.64000010
   18.14999962  134.80299377    0.52999997    2.61999989
   18.15305519  134.98100281    0.52999997    2.61999989
   18.15638924  136.31700134    0.52999997    2.61999989
   18.15944481  135.73399353    0.52999997    2.61999989
   18.16277695  137.30400085    0.52999997    2.61999989
   18.16611099  137.75300598    0.52999997    2.61999989
   18.16916656  139.13000488    0.52999997    2.61999989
   18.17249870  142.60699463    0.52999997    2.61999989
   18.17860985  142.60699463    0.55000001    2.61999989
   18.18277740  148.42399597    0.52999997    2.61999989
   18.18583298  138.25999451    0.52999997    2.61999989
   18.18916512  140.90899658    0.52999997    2.61999989
   18.19222069  135.30799866    0.55000001    2.61999989
   18.19555473  135.80799866    0.55000001    2.61999989
   18.19888878  140.63900757    0.55000001    2.61999989
   18.20222282  138.94200134    0.55000001    2.61999989
   18.20527840  141.83399963    0.55000001    2.61999989
   18.20861244  136.30999756    0.52999997    2.61999989
   18.20944595  134.22200012    0.52999997    2.61999989
   18.21222305  131.72300720    0.55000001    2.61999989
   18.21527863  137.30299377    0.55000001    2.61999989
   18.22138977  137.30299377    0.55000001    2.61999989
   18.22555542  132.29299927    0.55000001    2.61999989
   18.22861099  137.43899536    0.55000001    2.61999989
   18.23194504  141.13499451    0.55000001    2.61999989
   18.23527718  137.63200378    0.55000001    2.61999989
   18.23861122  135.92500305    0.55000001    2.61999989
   18.24166679  142.53700256    0.55000001    2.61999989
   18.24277878  141.60899353    0.55000001    2.61999989
   18.24527740  141.33000183    0.55000001    2.61999989
   18.24833298  139.83299255    0.55000001    2.61999989
   18.25166702  136.16400146    0.55000001    2.61999989
   18.25472260  141.34199524    0.55000001    2.61999989
   18.25805473  135.48500061    0.55000001    2.61999989
   18.26416588  135.48500061    0.55000001    2.61999989
   18.26833344  133.14300537    0.55000001    2.61999989
   18.27166557  137.54400635    0.55000001    2.61999989
   18.27472115  143.92999268    0.55000001    2.61999989
   18.27638817  142.49200439    0.55000001    2.61999989
   18.27833366  148.32600403    0.55000001    2.61999989
   18.28166580  138.22099304    0.55000001    2.61999989
   18.28499985  141.69400024    0.55000001    2.61999989
   18.28805542  148.48500061    0.55000001    2.61999989
   18.29138756  140.75500488    0.55000001    2.59999990
   18.29444313  137.18600464    0.55000001    2.61999989
   18.29777718  137.31399536    0.55000001    2.59999990
   18.30111122  140.57000732    0.55000001    2.59999990
   18.30694389  140.57000732    0.55000001    2.61999989
   18.31110954  136.88099670    0.55000001    2.59999990
   18.31444359  134.13000488    0.55000001    2.59999990
   18.31777954  138.54699707    0.55000001    2.61999989
   18.32083511  137.69799805    0.55000001    2.59999990
   18.32416725  135.65400696    0.55000001    2.59999990
   18.32750130  134.73199463    0.55000001    2.61999989
   18.33055687  136.11300659    0.55000001    2.61999989
   18.33388901  135.11300659    0.52999997    2.59999990
   18.33694458  129.86799622    0.52999997    2.59999990
   18.34027863  134.81399536    0.52999997    2.59999990
   18.34333420  137.80400085    0.52999997    2.61999989
   18.34444427  135.80599976    0.52999997    2.61999989
   18.35000038  135.80599976    0.55000001    2.59999990
   18.35416794  133.56300354    0.55000001    2.59999990
   18.35722351  171.44500732    0.52999997    2.61999989
   18.36055565  185.28199768    0.55000001    2.61999989
   18.36388969  204.28399658    0.52999997    2.61999989
   18.36694527  210.65899658    0.52999997    2.61999989
   18.37027740  174.15400696    0.55000001    2.59999990
   18.37333298  207.42399597    0.55000001    2.59999990
   18.37638855  176.87500000    0.52999997    2.61999989
   18.37694550  154.44700623    0.52999997    2.61999989
   18.38027763  173.68899536    0.52999997    2.59999990
   18.38361168  154.55299377    0.52999997    2.61999989
   18.38666725  134.72999573    0.55000001    2.59999990
   18.39277840  134.72999573    0.52999997    2.59999990
   18.39694405  170.42999268    0.52999997    2.61999989
   18.40027809  161.49899292    0.55000001    2.59999990
   18.40333366  152.69200134    0.55000001    2.59999990
   18.40666580  149.92100525    0.55000001    2.59999990
   18.40972137  149.13800049    0.55000001    2.59999990
   18.40999985  134.78799438    0.55000001    2.59999990
   18.41333389  144.36000061    0.55000001    2.59999990
   18.41666603  130.94599915    0.55000001    2.59999990
   18.41972160  137.29200745    0.55000001    2.61999989
   18.42305565  135.60200500    0.55000001    2.59999990
   18.42638779  131.25300598    0.55000001    2.61999989
   18.42944336  134.38099670    0.56999999    2.61999989
   18.43555450  134.38099670    0.55000001    2.59999990
   18.43972206  130.05999756    0.55000001    2.59999990
   18.44305420  138.38900757    0.55000001    2.59999990
   18.44333267  135.87600708    0.55000001    2.59999990
   18.44666672  137.75700378    0.55000001    2.59999990
   18.45000076  128.53900146    0.55000001    2.61999989
   18.45305634  131.17100525    0.56999999    2.59999990
   18.45639038  133.44400024    0.55000001    2.59999990
   18.45972252  129.20799255    0.55000001    2.61999989
   18.46277809  134.53300476    0.55000001    2.61999989
   18.46611214  132.79800415    0.55000001    2.59999990
   18.46944427  129.91000366    0.55000001    2.59999990
   18.47249985  136.39500427    0.55000001    2.59999990
   18.47861099  136.39500427    0.55000001    2.59999990
   18.48250008  132.98399353    0.55000001    2.59999990
   18.48583412  129.31799316    0.55000001    2.59999990
   18.48916626  133.19799805    0.55000001    2.59999990
   18.49222183  133.83500671    0.55000001    2.59999990
   18.49555588  132.04299927    0.52999997    2.59999990
   18.49861145  136.11599731    0.52999997    2.61999989
   18.50194359  137.64399719    0.52999997    2.61999989
   18.50527763  132.11900330    0.52999997    2.59999990
   18.50833321  132.73199463    0.55000001    2.59999990
   18.50972176  134.20199585    0.55000001    2.59999990
   18.51194382  140.12899780    0.55000001    2.59999990
   18.51527786  129.58500671    0.55000001    2.59999990
   18.52138901  129.58500671    0.55000001    2.59999990
   18.52555466  129.74000549    0.55000001    2.59999990
   18.52861023  130.97900391    0.55000001    2.59999990
   18.53194427  132.60800171    0.55000001    2.59999990
   18.53527641  133.61300659    0.55000001    2.59999990
   18.53861046  131.67100525    0.55000001    2.59999990
   18.54166603  137.31799316    0.55000001    2.57999992
   18.54305458  128.09800720    0.55000001    2.57999992
   18.54555511  134.05099487    0.55000001    2.57999992
   18.54861069  132.26800537    0.55000001    2.57999992
   18.55194283  129.39799500    0.55000001    2.59999990
   18.55527687  130.24400330    0.55000001    2.59999990
   18.55833244  129.59300232    0.55000001    2.59999990
   18.56416512  129.59300232    0.55000001    2.59999990
   18.56833458  134.64599609    0.55000001    2.59999990
   18.57166672  131.42599487    0.55000001    2.59999990
   18.57472229  134.76499939    0.55000001    2.59999990
   18.57666779  130.64599609    0.55000001    2.59999990
   18.57833481  132.10800171    0.55000001    2.57999992
   18.58166695  131.93600464    0.55000001    2.57999992
   18.58500099  128.50500488    0.56999999    2.59999990
   18.58805656  131.81500244    0.58999997    2.59999990
   18.59138870  132.94500732    0.58999997    2.59999990
   18.59444427  127.61299896    0.56999999    2.59999990
   18.59777832  136.86900330    0.56999999    2.57999992
   18.60111237  131.71099854    0.56999999    2.59999990
   18.60694504  131.71099854    0.56999999    2.57999992
   18.61111069  131.75999451    0.56999999    2.59999990
   18.61444473  134.25900269    0.56999999    2.59999990
   18.61750031  128.25999451    0.56999999    2.57999992
   18.62083435  134.71200562    0.56999999    2.57999992
   18.62416649  135.06300354    0.56999999    2.59999990
   18.62722206  136.82800293    0.56999999    2.57999992
   18.63055611  136.65699768    0.56999999    2.57999992
   18.63388824  132.16900635    0.58999997    2.59999990
   18.63694382  133.74800110    0.58999997    2.59999990
   18.64027786  130.43699646    0.56999999    2.59999990
   18.64333344  130.00900269    0.56999999    2.59999990
   18.64361191  127.59500122    0.56999999    2.57999992
   18.64999962  127.59500122    0.56999999    2.57999992
   18.65416718  131.50100708    0.56999999    2.57999992
   18.65722275  129.80200195    0.55000001    2.59999990
   18.66055489  129.13699341    0.55000001    2.59999990
   18.66361046  133.41600037    0.55000001    2.57999992
   18.66694450  137.52400208    0.55000001    2.57999992
   18.67027664  134.73199463    0.55000001    2.59999990
   18.67333221  136.08900452    0.55000001    2.59999990
   18.67666626  135.91299438    0.55000001    2.57999992
   18.67694473  131.66099548    0.55000001    2.57999992
   18.68027687  129.17199707    0.55000001    2.57999992
   18.68361092  132.88499451    0.55000001    2.57999992
   18.68666649  134.54100037    0.55000001    2.57999992
   18.69277763  134.54100037    0.56999999    2.57999992
   18.69694328  136.52200317    0.56999999    2.57999992
   18.70000076  135.51899719    0.56999999    2.57999992
   18.70333481  133.53500366    0.56999999    2.57999992
   18.70639038  131.85400391    0.56999999    2.57999992
   18.70972252  136.47799683    0.56999999    2.57999992
   18.71027946  135.64900208    0.56999999    2.57999992
   18.71333504  129.26899719    0.56999999    2.57999992
   18.71666718  131.14599609    0.56999999    2.57999992
   18.72000122  132.61999512    0.61000001    2.57999992
   18.72305679  132.58799744    0.61000001    2.57999992
   18.72638893  137.64900208    0.61000001    2.57999992
   18.72972298  131.80200195    0.58999997    2.57999992
   18.73555565  131.80200195    0.58999997    2.57999992
   18.73972321  134.87500000    0.56999999    2.57999992
   18.74277878  130.61300659    0.56999999    2.57999992
   18.74361229  130.86000061    0.58999997    2.57999992
   18.74666786  134.02600098    0.58999997    2.57999992
   18.74972153  134.67999268    0.58999997    2.57999992
   18.75305557  136.52499390    0.58999997    2.55999994
   18.75666618  132.17599487    0.58999997    2.55999994
   18.75972176  129.36900330    0.58999997    2.55999994
   18.76305580  131.76800537    0.58999997    2.55999994
   18.76611137  132.82099915    0.58999997    2.57999992
   18.76944351  134.38999939    0.58999997    2.57999992
   18.77277756  130.88999939    0.58999997    2.57999992
   18.79500008  130.88999939    0.56999999    2.57999992
   18.79916573  139.10400391    0.56999999    2.57999992
   18.80222130  133.08500671    0.56999999    2.57999992
   18.80555534  141.70199585    0.58999997    2.55999994
   18.80861092  132.58200073    0.56999999    2.57999992
   18.81194305  131.55700684    0.56999999    2.55999994
   18.81527710  137.01499939    0.56999999    2.55999994
   18.81833458  136.98399353    0.56999999    2.55999994
   18.82166672  133.83500671    0.56999999    2.57999992
   18.82472229  137.49699402    0.56999999    2.57999992
   18.82555580  136.75500488    0.56999999    2.57999992
   18.82833481  141.03900146    0.56999999    2.55999994
   18.83166695  139.10200500    0.56999999    2.57999992
   18.83750153  139.10200500    0.56999999    2.57999992
   18.84166718  138.13400269    0.56999999    2.55999994
   18.84500122  135.74400330    0.56999999    2.55999994
   18.84833336  130.79699707    0.56999999    2.55999994
   18.85138893  133.04299927    0.56999999    2.55999994
   18.85472298  140.88299561    0.56999999    2.55999994
   18.85777855  135.60600281    0.56999999    2.55999994
   18.85888863  135.24400330    0.56999999    2.55999994
   18.86138916  138.54400635    0.56999999    2.55999994
   18.86472321  138.30499268    0.56999999    2.55999994
   18.86777878  138.58099365    0.56999999    2.55999994
   18.87111092  138.40600586    0.56999999    2.55999994
   18.87444496  141.33399963    0.55000001    2.55999994
   18.88055611  141.33399963    0.56999999    2.55999994
   18.88472176  136.21499634    0.56999999    2.55999994
   18.88777733  141.95300293    0.56999999    2.55999994
   18.89111137  142.39900208    0.56999999    2.55999994
   18.89249992  138.91400146    0.56999999    2.55999994
   18.89472198  139.55799866    0.56999999    2.55999994
   18.89805603  132.22300720    0.56999999    2.55999994
   18.90111160  135.33500671    0.56999999    2.55999994
   18.90444374  135.55799866    0.56999999    2.55999994
   18.90749931  139.99000549    0.56999999    2.55999994
   18.91083336  143.63400269    0.56999999    2.55999994
   18.91416550  140.06500244    0.56999999    2.55999994
   18.91722107  133.56199646    0.56999999    2.55999994
   18.92333221  133.56199646    0.56999999    2.55999994
   18.92749977  144.70399475    0.58999997    2.55999994
   18.93083191  140.02799988    0.56999999    2.55999994
   18.93416595  144.05299377    0.56999999    2.55999994
   18.93722153  143.15699768    0.56999999    2.55999994
   18.94055557  140.27499390    0.56999999    2.55999994
   18.94388771  149.21400452    0.56999999    2.55999994
   18.94694328  149.01199341    0.58999997    2.53999996
   18.95027924  148.54800415    0.58999997    2.53999996
   18.95333481  148.23500061    0.58999997    2.53999996
   18.95666695  144.23500061    0.61000001    2.55999994
   18.95916748  149.01100159    0.61000001    2.55999994
   18.96027946  157.98699951    0.61000001    2.55999994
   18.96611214  157.98699951    0.61000001    2.53999996
   18.97027779  147.38499451    0.61000001    2.55999994
   18.97361183  143.36500549    0.61000001    2.55999994
   18.97666740  143.83200073    0.58999997    2.53999996
   18.98000145  141.62399292    0.61000001    2.55999994
   18.98305511  141.43699646    0.61000001    2.55999994
   18.98638916  146.67199707    0.61000001    2.55999994
   18.98972321  139.12399292    0.61000001    2.55999994
   18.99250031  140.03100586    0.61000001    2.55999994
   18.99333382  140.13299561    0.61000001    2.55999994
   18.99638939  145.69000244    0.58999997    2.55999994
   18.99972153  137.41099548    0.58999997    2.53999996
   19.00305557  151.41900635    0.58999997    2.55999994
   19.00888824  151.41900635    0.61000001    2.55999994
   19.01305580  138.66099548    0.58999997    2.55999994
   19.01638794  138.10299683    0.58999997    2.53999996
   19.01972198  141.28599548    0.58999997    2.53999996
   19.02277756  142.95100403    0.58999997    2.53999996
   19.02583313  134.64199829    0.58999997    2.53999996
   19.02638817  135.43400574    0.58999997    2.53999996
   19.02972221  136.44500732    0.58999997    2.53999996
   19.03277779  136.00700378    0.58999997    2.53999996
   19.03610992  136.67100525    0.58999997    2.53999996
   19.03916550  129.25100708    0.58999997    2.55999994
   19.04249954  135.42700195    0.58999997    2.53999996
   19.04583359  139.40699768    0.58999997    2.53999996
   19.05194283  139.40699768    0.58999997    2.53999996
   19.05611038  132.85499573    0.58999997    2.53999996
   19.05916595  143.06500244    0.56999999    2.53999996
   19.05972099  138.36900330    0.56999999    2.53999996
   19.06277657  136.85800171    0.56999999    2.53999996
   19.06611061  128.21699524    0.56999999    2.53999996
   19.06944466  136.75000000    0.56999999    2.53999996
   19.07250023  131.69500732    0.56999999    2.53999996
   19.07583427  136.09300232    0.56999999    2.55999994
   19.07916832  138.85200500    0.56999999    2.53999996
   19.08222389  139.85200500    0.56999999    2.53999996
   19.08555603  137.87199402    0.56999999    2.53999996
   19.08861160  133.78199768    0.56999999    2.53999996
   19.09472275  133.78199768    0.56999999    2.53999996
   19.09889030  130.33599854    0.56999999    2.53999996
   19.10194397  135.59100342    0.56999999    2.53999996
   19.10527802  147.15199280    0.55000001    2.53999996
   19.10861206  140.50199890    0.56999999    2.53999996
   19.11166763  138.66299438    0.56999999    2.53999996
   19.11499977  138.60699463    0.56999999    2.53999996
   19.11833382  137.35600281    0.56999999    2.53999996
   19.12138939  145.28599548    0.55000001    2.53999996
   19.12472153  136.67399597    0.55000001    2.53999996
   19.12583351  137.56500244    0.55000001    2.53999996
   19.12833405  134.10000610    0.55000001    2.53999996
   19.13166618  147.50900269    0.55000001    2.53999996
   19.13750076  147.50900269    0.52999997    2.53999996
   19.14166641  139.39399719    0.52999997    2.53999996
   19.14500046  137.85099792    0.52999997    2.53999996
   19.14805603  138.07499695    0.52999997    2.53999996
   19.15138817  142.47999573    0.52999997    2.53999996
   19.15444374  136.73599243    0.52999997    2.53999996
   19.15777779  138.11500549    0.52999997    2.53999996
   19.15916634  132.31799316    0.52999997    2.53999996
   19.16138840  141.39599609    0.52999997    2.53999996
   19.16472244  131.54200745    0.52999997    2.53999996
   19.16777802  134.02200317    0.51999998    2.53999996
   19.17111015  136.98500061    0.51999998    2.53999996
   19.17416573  137.98899841    0.52999997    2.53999996
   19.18027687  137.98899841    0.51999998    2.53999996
   19.18444443  136.06399536    0.51999998    2.53999996
   19.18777657  132.12199402    0.51999998    2.53999996
   19.19111061  129.80999756    0.52999997    2.53999996
   19.19277763  136.80200195    0.52999997    2.53999996
   19.19472122  133.87199402    0.52999997    2.53999996
   19.19777679  136.56399536    0.52999997    2.51999998
   19.20111275  140.92999268    0.51999998    2.53999996
   19.20444489  144.08200073    0.52999997    2.53999996
   19.20750046  136.24800110    0.52999997    2.53999996
   19.21083450  144.27699280    0.52999997    2.53999996
   19.21416664  143.90499878    0.52999997    2.53999996
   19.21722221  137.77699280    0.55000001    2.53999996
   19.22333336  137.77699280    0.52999997    2.51999998
   19.22750092  162.14399719    0.52999997    2.53999996
   19.23055649  150.22099304    0.52999997    2.51999998
   19.23388863  152.96299744    0.55000001    2.51999998
   19.23694420  151.73500061    0.55000001    2.51999998
   19.24027824  152.45300293    0.55000001    2.51999998
   19.24361229  142.64599609    0.55000001    2.51999998
   19.24666786  152.33500671    0.52999997    2.51999998
   19.25000000  151.19200134    0.55000001    2.51999998
   19.25333405  152.60600281    0.55000001    2.51999998
   19.25638962  159.69700623    0.55000001    2.51999998
   19.25944519  178.64599609    0.52999997    2.51999998
   19.26000023  192.17799377    0.52999997    2.51999998
   19.26611137  192.17799377    0.55000001    2.51999998
   19.27027702  229.36799622    0.52999997    2.51999998
   19.27333260  240.55599976    0.52999997    2.51999998
   19.27666664  218.94200134    0.52999997    2.51999998
   19.28000069  261.78298950    0.52999997    2.51999998
   19.28305435  263.66500854    0.52999997    2.51999998
   19.28638840  240.86000061    0.52999997    2.51999998
   19.28972244  249.75999451    0.52999997    2.51999998
   19.29277802  257.86499023    0.52999997    2.51999998
   19.29333305  207.43800354    0.52999997    2.51999998
   19.29638863  233.49899292    0.55000001    2.50000000
   19.29972076  211.90899658    0.52999997    2.51999998
   19.30305481  204.37399292    0.52999997    2.51999998
   19.30888748  204.37399292    0.52999997    2.51999998
   19.31305504  205.56300354    0.52999997    2.51999998
   19.31638718  216.12300110    0.52999997    2.51999998
   19.31944466  217.85000610    0.55000001    2.51999998
   19.32277870  237.51199341    0.52999997    2.51999998
   19.32611275  219.61300659    0.52999997    2.50000000
   19.32638931  209.32400513    0.52999997    2.50000000
   19.32972336  211.43800354    0.52999997    2.50000000
   19.33305550  204.36500549    0.52999997    2.51999998
   19.33611107  188.00199890    0.52999997    2.51999998
   19.33944511  198.71099854    0.55000001    2.50000000
   19.34277916  205.74099731    0.55000001    2.51999998
   19.34583473  218.13000488    0.55000001    2.51999998
   19.35194397  218.13000488    0.55000001    2.51999998
   19.35583305  224.52299500    0.55000001    2.51999998
   19.35916710  192.49800110    0.55000001    2.51999998
   19.35972214  204.72900391    0.55000001    2.50000000
   19.36277771  198.09800720    0.55000001    2.50000000
   19.36611176  173.42900085    0.55000001    2.50000000
   19.36916733  187.86799622    0.55000001    2.50000000
   19.37249947  166.43699646    0.55000001    2.50000000
   19.37583351  154.65499878    0.55000001    2.50000000
   19.37916756  177.27099609    0.55000001    2.51999998
   19.38222313  187.76400757    0.56999999    2.51999998
   19.38555527  162.53900146    0.56999999    2.51999998
   19.38861084  162.56599426    0.56999999    2.51999998
   19.39472198  162.56599426    0.56999999    2.50000000
   19.39888954  165.67799377    0.56999999    2.50000000
   19.40194321  166.57099915    0.56999999    2.50000000
   19.40527725  168.94999695    0.56999999    2.50000000
   19.40833282  160.59300232    0.56999999    2.50000000
   19.41166687  174.76800537    0.56999999    2.50000000
   19.41499901  139.97500610    0.56999999    2.50000000
   19.41805458  191.08299255    0.56999999    2.48000002
   19.42138863  156.88400269    0.56999999    2.50000000
   19.42472076  172.12699890    0.56999999    2.50000000
   19.42638779  170.84800720    0.56999999    2.50000000
   19.42833328  159.16999817    0.56999999    2.50000000
   19.43166542  168.08399963    0.56999999    2.50000000
   19.43750000  168.08399963    0.56999999    2.51999998
   19.44166565  164.05900574    0.56999999    2.50000000
   19.44472122  166.56799316    0.56999999    2.50000000
   19.44805527  168.50500488    0.56999999    2.50000000
   19.45138931  162.08799744    0.56999999    2.50000000
   19.45444489  160.05099487    0.55000001    2.50000000
   19.45777893  166.28500366    0.55000001    2.50000000
   19.45972252  166.02600098    0.55000001    2.48000002
   19.46138954  158.35499573    0.55000001    2.48000002
   19.46472359  152.37100220    0.55000001    2.50000000
   19.46777916  154.79600525    0.55000001    2.50000000
   19.47111130  151.13099670    0.55000001    2.50000000
   19.47444534  155.57600403    0.55000001    2.50000000
   19.48027802  155.57600403    0.56999999    2.48000002
   19.48444557  155.11300659    0.55000001    2.48000002
   19.48777771  163.43400574    0.55000001    2.48000002
   19.49083328  160.34899902    0.56999999    2.48000002
   19.49305534  155.35200500    0.56999999    2.48000002
   19.49444389  126.61199951    0.56999999    2.48000002
   19.49777794  151.15100098    0.56999999    2.48000002
   19.50083351  153.32000732    0.56999999    2.48000002
   19.50416756  161.19799805    0.56999999    2.48000002
   19.50749969  152.84100342    0.56999999    2.48000002
   19.51055527  147.26699829    0.56999999    2.48000002
   19.51388931  146.33000183    0.56999999    2.48000002
   19.51694489  164.70500183    0.56999999    2.48000002
   19.52305603  164.70500183    0.56999999    2.48000002
   19.52722168  145.90299988    0.56999999    2.48000002
   19.53055573  148.13000488    0.58999997    2.48000002
   19.53388786  151.75300598    0.56999999    2.48000002
   19.53694344  149.18400574    0.56999999    2.48000002
   19.54027748  138.17999268    0.56999999    2.48000002
   19.54333305  139.37300110    0.56999999    2.48000002
   19.54666710  158.03900146    0.56999999    2.48000002
   19.54999924  146.83099365    0.56999999    2.48000002
   19.55305481  158.30999756    0.56999999    2.48000002
   19.55638885  132.55799866    0.58999997    2.48000002
   19.55972099  135.32299805    0.56999999    2.48000002
   19.55999947  136.55999756    0.56999999    2.48000002
   19.56611061  136.55999756    0.58999997    2.46000004
   19.57027817  156.86099243    0.56999999    2.48000002
   19.57333374  150.86399841    0.56999999    2.48000002
   19.57666779  165.79899597    0.58999997    2.46000004
   19.57972336  159.88600159    0.56999999    2.46000004
   19.58305550  151.40100098    0.58999997    2.46000004
   19.58638954  153.53100586    0.58999997    2.46000004
   19.58944511  157.52900696    0.58999997    2.46000004
   19.59277916  170.97200012    0.58999997    2.46000004
   19.59333420  164.04100037    0.58999997    2.48000002
   19.59638977  149.70100403    0.58999997    2.48000002
   19.59972191  155.61399841    0.58999997    2.46000004
   19.60277748  156.44400024    0.58999997    2.46000004
   19.60888863  156.44400024    0.58999997    2.46000004
   19.61305618  153.63099670    0.58999997    2.46000004
   19.61638832  144.43600464    0.61000001    2.46000004
   19.61944389  140.71299744    0.61000001    2.46000004
   19.62277794  117.45899963    0.61000001    2.48000002
   19.62583351  121.97299957    0.61000001    2.48000002
   19.62666702  118.72200012    0.61000001    2.48000002
   19.62944412  133.02099609    0.61000001    2.46000004
   19.63277817  131.25399780    0.61000001    2.46000004
   19.63611031  129.71800232    0.61000001    2.46000004
   19.63916588  141.07099915    0.61000001    2.46000004
   19.64249992  165.78799438    0.61000001    2.46000004
   19.64583397  190.27900696    0.63000000    2.46000004
   19.65166664  190.27900696    0.63000000    2.46000004
   19.65583229   89.31670380    0.63000000    2.44000006
   19.65916634   -1.00000000    0.63000000    2.44000006
   19.66277695   -1.00000000    0.63000000    2.46000004
   19.66611099   -1.00000000    0.63000000    2.46000004
   19.66916656   -1.00000000    0.63000000    2.46000004
   19.67249870   -1.00000000    0.63000000    2.46000004
   19.67555428   -1.00000000    0.63000000    2.46000004
   19.67888832   -1.00000000    0.63000000    2.46000004
   19.68222237   -1.00000000    0.63000000    2.46000004
   19.68527603   -1.00000000    0.63000000    2.44000006
   19.68861008   -1.00000000    0.63000000    2.46000004
   19.69861031   -1.00000000    0.63000000    2.44000006
   19.70194435   -1.00000000    0.63000000    2.44000006
   19.70499992   -1.00000000    0.63000000    2.46000004
   19.70833397   -1.00000000    0.63000000    2.46000004
   19.71166801   -1.00000000    0.63000000    2.46000004
   19.71472359   -1.00000000    0.63000000    2.44000006
   19.71805573   -1.00000000    0.63000000    2.46000004
   19.72138977   -1.00000000    0.63000000    2.46000004
   19.72444534   -1.00000000    0.63000000    2.44000006
   19.72805595   -1.00000000    0.64999998    2.44000006
   19.73139000   -1.00000000    0.64999998    2.44000006
   19.74138832   -1.00000000    0.64999998    2.44000006
   19.74472237   -1.00000000    0.67000002    2.42000008
   19.74805641   -1.00000000    0.64999998    2.44000006
   19.75111198   -1.00000000    0.67000002    2.44000006
   19.75444412   -1.00000000    0.64999998    2.42000008
   19.75777817   -1.00000000    0.67000002    2.42000008
   19.76111031   -1.00000000    0.67000002    2.42000008
   19.76444435   -1.00000000    0.67000002    2.42000008
   19.76749992   -1.00000000    0.67000002    2.42000008
   19.77083397   -1.00000000    0.67000002    2.44000006
   19.77388954   -1.00000000    0.64999998    2.42000008
   19.78444481   -1.00000000    0.69000000    2.42000008
   19.78750038   -1.00000000    0.67000002    2.44000006
   19.79083252   -1.00000000    0.67000002    2.44000006
   19.81055450   -1.00000000    0.69000000    2.42000008
   19.81388855   -1.00000000    0.69000000    2.42000008
   19.81722260   -1.00000000    0.69000000    2.40000010
   19.82722282   -1.00000000    0.69000000    2.42000008
   19.83055687   -1.00000000    0.67000002    2.42000008
   19.83388901   -1.00000000    0.67000002    2.40000010
   19.83694458   -1.00000000    0.67000002    2.40000010
   19.84027863   -1.00000000    0.69000000    2.40000010
   19.84388924   -1.00000000    0.67000002    2.42000008
   19.84722328   -1.00000000    0.69000000    2.40000010
   19.85027885   -1.00000000    0.70999998    2.40000010
   19.85361099   -1.00000000    0.69000000    2.40000010
   19.85694504   -1.00000000    0.69000000    2.40000010
   19.86000061   -1.00000000    0.69000000    2.40000010
   19.87027740   -1.00000000    0.69000000    2.40000010
   19.87333298   -1.00000000    0.69000000    2.40000010
   19.87694550   -1.00000000    0.69000000    2.40000010
   19.88027763   -1.00000000    0.69000000    2.40000010
   19.88333321   -1.00000000    0.70999998    2.40000010
   19.88666725   -1.00000000    0.70999998    2.40000010
   19.88999939   -1.00000000    0.69000000    2.40000010
   19.89305496   -1.00000000    0.70999998    2.40000010
   19.89638901   -1.00000000    0.69000000    2.40000010
   19.89944458   -1.00000000    0.70999998    2.40000010
   19.90277672   -1.00000000    0.69000000    2.40000010
   19.91305542   -1.00000000    0.70999998    2.40000010
   19.91611099   -1.00000000    0.75000000    2.39000010
   19.91944313   -1.00000000    0.75000000    2.39000010
   19.92277718   -1.00000000    0.75000000    2.39000010
   19.92583275   -1.00000000    0.75000000    2.39000010
   19.92916679   -1.00000000    0.73000002    2.39000010
   19.93249893   -1.00000000    0.73000002    2.39000010
   19.93555450   -1.00000000    0.73000002    2.39000010
   19.93888855   -1.00000000    0.73000002    2.39000010
   19.94249916   -1.00000000    0.75000000    2.39000010
   19.94583321   -1.00000000    0.75000000    2.39000010
   19.95583344   -1.00000000    0.75000000    2.39000010
   19.95916748   -1.00000000    0.79000002    2.39000010
   19.96250153   -1.00000000    0.76999998    2.39000010
   19.96555710   -1.00000000    0.76999998    2.40000010
   19.96888924   -1.00000000    0.76999998    2.40000010
   19.97222328   -1.00000000    0.79000002    2.39000010
   19.97555542   -1.00000000    0.79000002    2.39000010
   19.97888947   -1.00000000    0.79000002    2.39000010
   19.98194504   -1.00000000    0.76999998    2.39000010
   19.98527718   -1.00000000    0.76999998    2.36999989
   19.98861122   -1.00000000    0.75000000    2.36999989
   19.99861145   -1.00000000    0.75000000    2.39000010
   20.00194359   -1.00000000    0.75000000    2.39000010
   20.00527763   -1.00000000    0.76999998    2.39000010
   20.00861168   -1.00000000    0.76999998    2.39000010
   20.01194382   -1.00000000    0.75000000    2.36999989
   20.01499939   -1.00000000    0.75000000    2.36999989
   20.01833344   -1.00000000    0.75000000    2.36999989
   20.02166557   -1.00000000    0.75000000    2.36999989
   20.02472115   -1.00000000    0.75000000    2.36999989
   20.02805519   -1.00000000    0.75000000    2.36999989
   20.03111076   -1.00000000    0.75000000    2.36999989
   20.04194450   -1.00000000    0.75000000    2.36999989
   20.04527664   -1.00000000    0.75000000    2.36999989
   20.04833221   -1.00000000    0.75000000    2.36999989
   20.05166626   -1.00000000    0.75000000    2.36999989
   20.05499840   -1.00000000    0.75000000    2.36999989
   20.05805397   -1.00000000    0.75000000    2.36999989
   20.06138802   -1.00000000    0.75000000    2.36999989
   20.06444359   -1.00000000    0.75000000    2.36999989
   20.06777954   -1.00000000    0.76999998    2.34999990
   20.07111168   -1.00000000    0.75000000    2.36999989
   20.07416725   -1.00000000    0.76999998    2.34999990
   20.08444595   -1.00000000    0.76999998    2.34999990
   20.08750153   -1.00000000    0.76999998    2.34999990
   20.09083366   -1.00000000    0.75000000    2.34999990
   20.09416771   -1.00000000    0.75000000    2.36999989
   20.09722328   -1.00000000    0.75000000    2.36999989
   20.10055542   -1.00000000    0.75000000    2.34999990
   20.10388947   -1.00000000    0.75000000    2.36999989
   20.10694504   -1.00000000    0.75000000    2.34999990
   20.11055565   -1.00000000    0.75000000    2.36999989
   20.11388969   -1.00000000    0.75000000    2.34999990
   20.11694527   -1.00000000    0.75000000    2.34999990
   20.12722206   -1.00000000    0.76999998    2.34999990
   20.13055611   -1.00000000    0.75000000    2.34999990
   20.13361168   -1.00000000    0.75000000    2.34999990
   20.13694382   -1.00000000    0.75000000    2.34999990
   20.14027786   -1.00000000    0.76999998    2.32999992
   20.14361191   -1.00000000    0.80000001    2.32999992
   20.14694405   -1.00000000    0.80000001    2.32999992
   20.14999962   -1.00000000    0.80000001    2.32999992
   20.15333366   -1.00000000    0.81999999    2.32999992
   20.15666580   -1.00000000    0.81999999    2.32999992
   20.15972137   -1.00000000    0.86000001    2.32999992
   20.17000008   -1.00000000    0.83999997    2.32999992
   20.17333221   -1.00000000    0.83999997    2.32999992
   20.17694473   -1.00000000    0.83999997    2.32999992
   20.18027687   -1.00000000    0.83999997    2.32999992
   20.18333244   -1.00000000    0.83999997    2.32999992
   20.18666649   -1.00000000    0.81999999    2.32999992
   20.18999863   -1.00000000    0.79000002    2.30999994
   20.19305420   -1.00000000    0.79000002    2.32999992
   20.19638824   -1.00000000    0.79000002    2.30999994
   20.19972038   -1.00000000    0.79000002    2.30999994
   20.20277786   -1.00000000    0.79000002    2.32999992
