    HOUR (UT)   FLARE FACTOR    SKY TESTER    SUN TESTER
   11.86111164   -1.00000000   -1.00000000   -1.00000000
   11.89194393  208.67799377    0.00000000    0.00000000
   11.89499950  204.68800354    0.00000000    0.00000000
   11.89833355  195.46099854    0.00000000    0.00000000
   11.90166664  225.50599670    0.00000000    0.00000000
   11.90472221  242.81799316    0.00000000    0.00000000
   11.90805531  224.15699768    0.00000000    0.00000000
   11.91222191  224.15699768    0.00000000    0.00000000
   11.91611099  200.06500244    2.75000000    2.05999994
   11.91944504  206.88000488    2.75000000    2.05999994
   11.92277813  186.03399658    2.75000000    2.05999994
   11.92527771  211.27099609    2.75000000    2.05999994
   11.92611122  257.20800781    2.75000000    2.05999994
   11.92944431  228.03399658    2.75000000    2.05999994
   11.93249989  240.97500610    2.75000000    2.05999994
   11.93583298  224.34599304    2.75000000    2.05999994
   11.93916702  212.75900269    2.75000000    2.05999994
   11.94222260  217.52299500    2.75000000    2.05999994
   11.94555569  204.19599915    2.75000000    2.05999994
   11.94888878  234.48500061    2.75000000    2.05999994
   11.95499992  234.48500061    2.75000000    2.05999994
   11.95916653  226.21099854    2.75000000    2.05999994
   11.96249962  246.93899536    2.75000000    2.05999994
   11.96555519  257.86499023    2.75000000    2.05999994
   11.96888828  245.08200073    2.75000000    2.05999994
   11.97194386  261.29299927    2.75000000    2.05999994
   11.97527695  231.07600403    2.75000000    2.05999994
   11.97861099  218.67900085    2.75000000    2.05999994
   11.98166656  243.84800720    2.75000000    2.05999994
   11.98500061  260.53298950    2.75000000    2.05999994
   11.98833370  241.10299683    2.75000000    2.05999994
   11.99138927  270.43200684    2.75000000    2.05999994
   11.99194431  244.27000427    2.75000000    2.05999994
   11.99777794  244.27000427    2.75000000    2.05999994
   12.00194454  238.77799988    2.75000000    2.05999994
   12.00527763  239.92199707    2.75000000    2.05999994
   12.00833321  254.31500244    2.75000000    2.05999994
   12.01166630  233.35000610    2.75000000    2.05999994
   12.01500034  201.08599854    2.75000000    2.05999994
   12.01805496  220.12899780    2.75000000    2.05999994
   12.02138901  276.89700317    2.75000000    2.05999994
   12.02472210  245.38000488    2.75000000    2.05999994
   12.02527714  236.40199280    2.75000000    2.05999994
   12.02833271  270.01998901    2.75000000    2.05999994
   12.03138828  222.26699829    2.75000000    2.05999994
   12.03472233  227.97200012    2.75000000    2.05999994
   12.04083347  227.97200012    2.75000000    2.05999994
   12.04472256  224.16299438    2.75000000    2.05999994
   12.04805565  234.58299255    2.75000000    2.05999994
   12.05138874  222.45399475    2.75000000    2.05999994
   12.05444431  224.06100464    2.75000000    2.05999994
   12.05777836  238.90400696    2.75000000    2.05999994
   12.05861092  200.31500244    2.75000000    2.05999994
   12.06138897  228.60200500    2.75000000    2.05999994
   12.06444454  201.50599670    2.75000000    2.05999994
   12.06777763  197.30400085    2.75000000    2.05999994
   12.07111073  225.69999695    2.75000000    2.05999994
   12.07416630  204.55900574    2.75000000    2.05999994
   12.07750034  214.16400146    2.75000000    2.05999994
   12.08361053  214.16400146    2.75000000    2.05999994
   12.08777714  225.62899780    2.75000000    2.05999994
   12.09083271  231.60400391    2.75000000    2.05999994
   12.09194374  217.23699951    2.75000000    2.05999994
   12.09444427  191.69099426    2.75000000    2.05999994
   12.09749985  205.46800232    2.75000000    2.05999994
   12.10083389  217.06100464    2.75000000    2.05999994
   12.10416698  225.24000549    2.75000000    2.05999994
   12.10722256  212.84100342    2.75000000    2.05999994
   12.11055565  218.50799561    2.75000000    2.05999994
   12.11388969  238.37800598    2.75000000    2.05999994
   12.11694431  205.02200317    2.75000000    2.05999994
   12.12027836  224.01800537    2.75000000    2.05999994
   12.12638855  224.01800537    2.75000000    2.05999994
   12.13055611  207.75100708    2.75000000    2.05999994
   12.13388920  174.36099243    2.75000000    2.05999994
   12.13694477  216.03399658    2.75000000    2.05999994
   12.14027786  219.40499878    2.75000000    2.05999994
   12.14333344  204.58299255    2.75000000    2.05999994
   12.14666653  197.01800537    2.75000000    2.05999994
   12.14999962  204.49299622    2.75000000    2.05999994
   12.15305519  213.58799744    2.75000000    2.05999994
   12.15638828  234.58900452    2.75000000    2.05999994
   12.15861034  238.79600525    2.75000000    2.05999994
   12.15999985  207.19400024    2.75000000    2.05999994
   12.16333294  207.70799255    2.75000000    2.05999994
   12.16916656  207.70799255    2.75000000    2.05999994
   12.17333412  214.08099365    2.75000000    2.05999994
   12.17666721  220.15600586    2.75000000    2.05999994
   12.17972279  211.52200317    2.75000000    2.05999994
   12.18305588  212.21400452    2.75000000    2.05999994
   12.18638897  220.83999634    2.75000000    2.05999994
   12.18944454  262.94198608    2.75000000    2.05999994
   12.19194412  261.66299438    2.75000000    2.05999994
   12.19305515  235.29800415    2.75000000    2.05999994
   12.19611073  244.73699951    2.75000000    2.05999994
   12.19944477  268.48901367    2.75000000    2.05999994
   12.20277786  261.46600342    2.75000000    2.05999994
   12.20583344  267.60501099    2.75000000    2.05999994
   12.21194458  267.60501099    2.75000000    2.05999994
   12.21611118  270.75900269    2.75000000    2.05999994
   12.21944427  275.25900269    2.75000000    2.05999994
   12.22277737  287.83499146    2.75000000    2.05999994
   12.22527695  262.95401001    2.75000000    2.05999994
   12.22638798  291.90200806    2.75000000    2.05999994
   12.22944355  289.90301514    2.75000000    2.05999994
   12.23277760  296.34600830    2.75000000    2.05999994
   12.23611164  287.99700928    2.75000000    2.05999994
   12.23916721  266.83200073    2.75000000    2.05999994
   12.24250031  266.88299561    2.75000000    2.05999994
   12.24583340  264.61199951    2.75000000    2.05999994
   12.24888897  245.19599915    2.75000000    2.05999994
   12.25500011  245.19599915    2.75000000    2.05999994
   12.25888920  224.87300110    2.75000000    2.05999994
   12.26222229  279.69699097    2.75000000    2.05999994
   12.26555538  236.46299744    2.75000000    2.05999994
   12.26861095  254.65100098    2.75000000    2.05999994
   12.27194405  260.89199829    2.75000000    2.05999994
   12.27527714  251.49200439    2.75000000    2.05999994
   12.27833271  233.28700256    2.75000000    2.05999994
   12.28166676  207.18899536    2.75000000    2.05999994
   12.28472233  217.91799927    2.75000000    2.05999994
   12.28805637  224.49099731    2.75000000    2.05999994
   12.29138947  206.16000366    2.75000000    2.05999994
   12.29194450  219.16400146    2.75000000    2.05999994
   12.29805565  219.16400146    2.75000000    2.05999994
   12.30222225  229.26400757    2.75000000    2.05999994
   12.30527782  252.87100220    2.75000000    2.05999994
   12.30861092  240.99000549    2.75000000    2.05999994
   12.31194496  258.31698608    2.75000000    2.05999994
   12.31500053  261.83200073    2.75000000    2.05999994
   12.31833363  244.14300537    2.75000000    2.05999994
   12.32166672  250.13000488    2.75000000    2.05999994
   12.32472229  238.75300598    2.75000000    2.05999994
   12.32527733  227.44400024    2.75000000    2.05999994
   12.32833290  245.02699280    2.75000000    2.05999994
   12.33138847  253.43699646    2.75000000    2.05999994
   12.33472157  243.22799683    2.75000000    2.05999994
   12.34055519  243.22799683    2.75000000    2.05999994
   12.34472179  263.44601440    2.75000000    2.05999994
   12.34805489  266.04699707    2.75000000    2.05999994
   12.35111141  229.41099548    2.75000000    2.05999994
   12.35444450  254.37600708    2.75000000    2.05999994
   12.35750008  252.03399658    2.75000000    2.05999994
   12.35861111  246.89799500    2.75000000    2.05999994
   12.36138916  243.77699280    2.75000000    2.05999994
   12.36444473  239.64999390    2.75000000    2.05999994
   12.36777782  241.27000427    2.75000000    2.05999994
   12.37111092  224.81100464    2.75000000    2.05999994
   12.37416649  237.37300110    2.75000000    2.05999994
   12.37750053  253.96099854    2.75000000    2.05999994
   12.38333321  253.96099854    2.75000000    2.05999994
   12.38749981  256.06399536    2.75000000    2.05999994
   12.39083290  261.67300415    2.75000000    2.05999994
   12.39194393  247.98500061    2.75000000    2.05999994
   12.39444447  245.85600281    2.75000000    2.05999994
   12.39777756  271.25000000    2.75000000    2.05999994
   12.40083313  253.36500549    2.75000000    2.05999994
   12.40416622  234.08500671    2.75000000    2.05999994
   12.40722179  232.43499756    2.75000000    2.05999994
   12.41055489  240.69900513    2.75000000    2.05999994
   12.41388893  245.67199707    2.75000000    2.05999994
   12.41694450  256.32299805    2.75000000    2.05999994
   12.42027855  250.20399475    2.75000000    2.05999994
   12.42611122  250.20399475    2.75000000    2.05999994
   12.43027782  214.76600647    2.75000000    2.05999994
   12.43361092  205.39999390    2.75000000    2.05999994
   12.43694496  207.49299622    2.75000000    2.05999994
   12.44000053  217.23599243    2.75000000    2.05999994
   12.44333363  202.97500610    2.75000000    2.05999994
   12.44638920  217.00199890    2.75000000    2.05999994
   12.44972229  218.36700439    2.75000000    2.05999994
   12.45305538  209.39500427    2.75000000    2.05999994
   12.45611095  204.94000244    2.75000000    2.05999994
   12.45861053  226.81900024    2.75000000    2.05999994
   12.45972157  215.67199707    2.75000000    2.05999994
   12.46277714  189.63000488    2.75000000    2.05999994
   12.46916580  189.63000488    2.75000000    2.05999994
   12.47333336  197.75799561    2.75000000    2.05999994
   12.47638798  191.47500610    2.75000000    2.05999994
   12.47972202  186.41299438    2.75000000    2.05999994
   12.48277760  191.11999512    2.75000000    2.05999994
   12.48611164  176.98699951    2.75000000    2.05999994
   12.48944473  190.12800598    2.75000000    2.05999994
   12.49194431  194.51199341    2.75000000    2.05999994
   12.49305534  193.81100464    2.75000000    2.05999994
   12.49611092  201.91600037    2.75000000    2.05999994
   12.49944496  205.83299255    2.75000000    2.05999994
   12.50277805  169.34300232    2.75000000    2.05999994
   12.50583363  188.16299438    2.75000000    2.05999994
   12.51194477  188.16299438    2.75000000    2.05999994
   12.51611137  182.82600403    2.75000000    2.05999994
   12.51916599  183.58900452    2.75000000    2.05999994
   12.52250004  185.55099487    2.75000000    2.05999994
   12.52527714  179.17500305    2.75000000    2.05999994
   12.52611065  176.66200256    2.75000000    2.05999994
   12.52916622  186.67799377    2.75000000    2.05999994
   12.53249931  187.28999329    2.75000000    2.05999994
   12.53583336  178.26699829    2.75000000    2.05999994
   12.53888893  181.16299438    2.75000000    2.05999994
   12.54222298  178.13000488    2.75000000    2.05999994
   12.54555607  170.48100281    2.75000000    2.05999994
   12.54861164  190.07699585    2.75000000    2.05999994
   12.55472279  190.07699585    2.75000000    2.05999994
   12.55888939  181.27499390    2.75000000    2.05999994
   12.56222248  181.81100464    2.75000000    2.05999994
   12.56527805  182.19400024    2.75000000    2.05999994
   12.56861115  174.99800110    2.75000000    2.05999994
   12.57194424  183.71400452    2.75000000    2.05999994
   12.57499981  192.07600403    2.75000000    2.05999994
   12.57833290  175.56700134    2.75000000    2.05999994
   12.58138847  183.97300720    2.75000000    2.05999994
   12.58472157  187.39500427    2.75000000    2.05999994
   12.58805561  171.01800537    2.75000000    2.05999994
   12.59138870  177.08399963    2.75000000    2.05999994
   12.59194374  173.51699829    2.75000000    2.05999994
   12.59777737  173.51699829    2.75000000    2.05999994
   12.60194492  168.45100403    2.75000000    2.05999994
   12.60500050  169.62800598    2.75000000    2.05999994
   12.60833359  172.12500000    2.75000000    2.05999994
   12.61138916  171.63999939    2.75000000    2.05999994
   12.61472225  167.72900391    2.75000000    2.05999994
   12.61805534  165.00599670    2.75000000    2.05999994
   12.62111092  152.67199707    2.75000000    2.05999994
   12.62444496  162.71099854    2.75000000    2.05999994
   12.62527752  144.09300232    2.75000000    2.05999994
   12.62805557  162.39900208    2.75000000    2.05999994
   12.63138866  157.86799622    2.75000000    2.05999994
   12.63444424  167.80799866    2.75000000    2.05999994
   12.64055538  167.80799866    2.75000000    2.05999994
   12.64472198  153.77600098    2.75000000    2.05999994
   12.64777756  181.72200012    2.75000000    2.05999994
   12.65111065  159.30299377    2.75000000    2.05999994
   12.65444374  163.12600708    2.75000000    2.05999994
   12.65749931  176.84100342    2.75000000    2.05999994
   12.65861034  187.01199341    2.75000000    2.05999994
   12.66111088  172.76300049    2.75000000    2.05999994
   12.66444397  171.69099426    2.75000000    2.05999994
   12.66750050  172.17799377    2.75000000    2.05999994
   12.67083359  179.66400146    2.75000000    2.05999994
   12.67416668  180.64399719    2.75000000    2.05999994
   12.67722225  167.60400391    2.75000000    2.05999994
   12.68333340  167.60400391    2.75000000    2.05999994
   12.68750000  155.90600586    2.75000000    2.05999994
   12.69083309  162.51199341    2.75000000    2.05999994
   12.69194412  157.98399353    2.75000000    2.05999994
   12.69416714  161.25300598    2.75000000    2.05999994
   12.69750023  159.22200012    2.75000000    2.05999994
   12.70055580  158.35400391    2.75000000    2.05999994
   12.70388889  159.00000000    2.75000000    2.05999994
   12.70722198  163.95300293    2.75000000    2.05999994
   12.71027756  175.47000122    2.75000000    2.05999994
   12.71361065  172.33799744    2.75000000    2.05999994
   12.71666622  167.52099609    2.75000000    2.05999994
   12.71999931  162.12899780    2.75000000    2.05999994
   12.72611046  162.12899780    2.75000000    2.05999994
   12.73027706  172.56799316    2.75000000    2.05999994
   12.73361111  166.83200073    2.75000000    2.05999994
   12.73694515  171.88900757    2.75000000    2.05999994
   12.74000072  176.79899597    2.75000000    2.05999994
   12.74333382  182.09300232    2.75000000    2.05999994
   12.74666691  164.41200256    2.75000000    2.05999994
   12.74972248  174.38000488    2.75000000    2.05999994
   12.75305557  172.89599609    2.75000000    2.05999994
   12.75638866  169.20300293    2.75000000    2.05999994
   12.75888920  171.89999390    2.75000000    2.05999994
   12.75972176  184.18099976    2.75000000    2.05999994
   12.76305580  179.45799255    2.75000000    2.05999994
   12.76916599  179.45799255    2.75000000    2.05999994
   12.77333355  168.18699646    2.75000000    2.05999994
   12.77638817  168.16900635    2.75000000    2.05999994
   12.77972221  189.49200439    2.75000000    2.05999994
   12.78277779  167.36099243    2.75000000    2.05999994
   12.78611183  171.39500427    2.75000000    2.05999994
   12.78944492  169.44599915    2.75000000    2.05999994
   12.79222298  177.41499329    2.75000000    2.05999994
   12.79277802  159.32499695    2.75000000    2.05999994
   12.79611111  171.41000366    2.75000000    2.05999994
   12.79916668  151.65699768    2.75000000    2.05999994
   12.80249977  180.57800293    2.75000000    2.05999994
   12.80583382  159.73500061    2.75000000    2.05999994
   12.81194496  159.73500061    2.75000000    2.05999994
   12.81611156  155.83799744    2.75000000    2.05999994
   12.81916618  157.95199585    2.75000000    2.05999994
   12.82250023  166.22099304    2.75000000    2.05999994
   12.82555580  162.02000427    2.75000000    2.05999994
   12.82611084  155.77999878    2.75000000    2.05999994
   12.82944393  171.28700256    2.75000000    2.05999994
   12.83249950  157.42500305    2.75000000    2.05999994
   12.83583260  163.13999939    2.75000000    2.05999994
   12.83916664  154.79699707    2.75000000    2.05999994
   12.84222221  147.57499695    2.75000000    2.05999994
   12.84555531  177.82800293    2.75000000    2.05999994
   12.84888840  175.73500061    2.75000000    2.05999994
   12.85472298  175.73500061    2.75000000    2.05999994
   12.85888958  181.85800171    2.75000000    2.05999994
   12.86222267  173.96299744    2.75000000    2.05999994
   12.86527824  177.68099976    2.75000000    2.05999994
   12.86861134  187.22399902    2.75000000    2.05999994
   12.87194443  202.94299316    2.75000000    2.05999994
   12.87500000  174.21600342    2.75000000    2.05999994
   12.87833309  198.77999878    2.75000000    2.05999994
   12.88138866  188.78799438    2.75000000    2.05999994
   12.88472176  197.83299255    2.75000000    2.05999994
   12.88805580  178.85600281    2.75000000    2.05999994
   12.89111137  198.88200378    2.75000000    2.05999994
   12.89222240  190.97700500    2.75000000    2.05999994
   12.91277695  190.97700500    2.75000000    2.05999994
   12.91694450  176.81799316    2.75000000    2.05999994
   12.92027855  173.60200500    2.75000000    2.05999994
   12.92333412  170.81900024    2.75000000    2.05999994
   12.92555618  173.49499512    2.75000000    2.05999994
   12.92694473  157.55299377    2.75000000    2.05999994
   12.93027782  159.15100098    2.75000000    2.05999994
   12.93361092  170.46600342    2.75000000    2.05999994
   12.93666649  174.68899536    2.75000000    2.05999994
   12.94000053  186.99499512    2.75000000    2.05999994
   12.94305515  181.36399841    2.75000000    2.05999994
   12.94638920  153.27699280    2.75000000    2.05999994
   12.94972229  170.96099854    2.75000000    2.05999994
   12.95555496  170.96099854    2.75000000    2.05999994
   12.95972157  200.10800171    2.75000000    2.05999994
   12.96277714  199.91900635    2.75000000    2.05999994
   12.96611118  183.89100647    2.75000000    2.05999994
   12.96944427  195.19400024    2.75000000    2.05999994
   12.97249985  187.88600159    2.75000000    2.05999994
   12.97583294  161.75399780    2.75000000    2.05999994
   12.97916603  201.58799744    2.75000000    2.05999994
   12.98222160  196.47799683    2.75000000    2.05999994
   12.98555565  185.51800537    2.75000000    2.05999994
   12.98861122  174.61099243    2.75000000    2.05999994
   12.99194431  215.52600098    2.75000000    2.05999994
   12.99250031  198.41600037    2.75000000    2.05999994
   12.99833393  198.41600037    2.75000000    2.05999994
   13.00249958  181.74200439    2.75000000    2.05999994
   13.00583363  194.87800598    2.75000000    2.05999994
   13.00888920  194.47700500    2.75000000    2.05999994
   13.01222229  193.81300354    2.75000000    2.05999994
   13.01527786  222.37199402    2.75000000    2.05999994
   13.01861095  197.98399353    2.75000000    2.05999994
   13.02194405  176.50199890    2.75000000    2.05999994
   13.02499962  198.47000122    2.75000000    2.05999994
   13.02583313  192.81599426    2.75000000    2.05999994
   13.02888870  193.70300293    2.75000000    2.05999994
   13.03194427  204.75500488    2.75000000    2.05999994
   13.03527832  195.93400574    2.75000000    2.05999994
   13.04111195  195.93400574    2.75000000    2.05999994
   13.04527855  205.15899658    2.75000000    2.05999994
   13.04861164  163.38600159    2.75000000    2.05999994
   13.05166721  180.23599243    2.75000000    2.05999994
   13.05500031  186.45500183    2.75000000    2.05999994
   13.05833340  184.37300110    2.75000000    2.05999994
   13.05916691  181.72200012    2.75000000    2.05999994
   13.06166649  170.17300415    2.75000000    2.05999994
   13.06500053  187.99499512    2.75000000    2.05999994
   13.06833363  169.77400208    2.75000000    2.05999994
   13.07138920  174.99299622    2.75000000    2.05999994
   13.07472229  196.46600342    2.75000000    2.05999994
   13.07805538  202.67900085    2.75000000    2.05999994
   13.08416653  202.67900085    2.75000000    2.05999994
   13.08833313  179.64700317    2.75000000    2.05999994
   13.09138870  199.49699402    2.75000000    2.05999994
   13.09249973  197.38400269    2.75000000    2.05999994
   13.09527779  173.91200256    2.75000000    2.05999994
   13.09833336  180.37399292    2.75000000    2.05999994
   13.10166740  216.25999451    2.75000000    2.05999994
   13.10472298  196.07899475    2.75000000    2.05999994
   13.10805607  180.10600281    2.75000000    2.05999994
   13.11138916  184.21400452    2.75000000    2.05999994
   13.11444473  181.84700012    2.75000000    2.05999994
   13.11777782  190.34500122    2.75000000    2.05999994
   13.12111092  187.63200378    2.75000000    2.05999994
   13.12694454  187.63200378    2.75000000    2.05999994
   13.13111115  210.83799744    2.75000000    2.05999994
   13.13416672  207.24499512    2.75000000    2.05999994
   13.13749981  220.74499512    2.75000000    2.05999994
   13.14083290  218.45799255    2.75000000    2.05999994
   13.14388847  214.89900208    2.75000000    2.05999994
   13.14722252  197.58700562    2.75000000    2.05999994
   13.15055561  214.55400085    2.75000000    2.05999994
   13.15361118  218.96699524    2.75000000    2.05999994
   13.15694427  190.80200195    2.75000000    2.05999994
   13.15916634  229.74800110    2.75000000    2.05999994
   13.16055489  225.53999329    2.75000000    2.05999994
   13.16361046  217.97200012    2.75000000    2.05999994
   13.16972256  217.97200012    2.75000000    2.05999994
   13.17388916  225.71800232    2.75000000    2.05999994
   13.17722225  175.19400024    2.75000000    2.05999994
   13.18027782  198.56599426    2.75000000    2.05999994
   13.18361092  206.01699829    2.75000000    2.05999994
   13.18694496  220.14700317    2.75000000    2.05999994
   13.19000053  215.41600037    2.75000000    2.05999994
   13.19250011  211.01100159    2.75000000    2.05999994
   13.19388866  219.59599304    2.75000000    2.05999994
   13.19694424  188.71099854    2.75000000    2.05999994
   13.20027733  222.41400146    2.75000000    2.05999994
   13.20333290  249.54499817    2.75000000    2.05999994
   13.20666695  200.90800476    2.75000000    2.05999994
   13.21249962  200.90800476    2.75000000    2.05999994
   13.21666622  182.82699585    2.75000000    2.05999994
   13.21999931  215.34500122    2.75000000    2.05999994
   13.22333336  187.99899292    2.75000000    2.05999994
   13.22583294  197.27499390    2.75000000    2.05999994
   13.22694397  195.97000122    2.75000000    2.05999994
   13.22999954  200.27200317    2.75000000    2.05999994
   13.23333359  193.52099609    2.75000000    2.05999994
   13.23638916  193.09199524    2.75000000    2.05999994
   13.23972225  213.72900391    2.75000000    2.05999994
   13.24305534  236.02999878    2.75000000    2.05999994
   13.24611092  182.79299927    2.75000000    2.05999994
   13.24944496  187.75999451    2.75000000    2.05999994
   13.25555515  187.75999451    2.75000000    2.05999994
   13.25972176  193.19400024    2.75000000    2.05999994
   13.26277733  188.32800293    2.75000000    2.05999994
   13.26611137  181.83200073    2.75000000    2.05999994
   13.26916599  179.26300049    2.75000000    2.05999994
   13.27250004  207.71499634    2.75000000    2.05999994
   13.27583313  193.90400696    2.75000000    2.05999994
   13.27888870  173.91099548    2.75000000    2.05999994
   13.28222179  177.21600342    2.75000000    2.05999994
   13.28555584  197.41200256    2.75000000    2.05999994
   13.28861141  193.84199524    2.75000000    2.05999994
   13.29194450  177.86300659    2.75000000    2.05999994
   13.29250050  186.53300476    2.75000000    2.05999994
   13.29833412  186.53300476    2.75000000    2.05999994
   13.30249977  199.27999878    2.75000000    2.05999994
   13.30555534  169.98100281    2.75000000    2.05999994
   13.30888939  179.62100220    2.75000000    2.05999994
   13.31222248  198.69799805    2.75000000    2.05999994
   13.31527805  189.34199524    2.75000000    2.05999994
   13.31861115  190.51899719    2.75000000    2.05999994
   13.32194424  205.83000183    2.75000000    2.05999994
   13.32499981  204.21800232    2.75000000    2.05999994
   13.32583332  180.98500061    2.75000000    2.05999994
   13.32861137  188.72500610    2.75000000    2.05999994
   13.33166695  185.21600342    2.75000000    2.05999994
   13.33500004  168.33200073    2.75000000    2.05999994
   13.34111118  168.33200073    2.75000000    2.05999994
   13.34527779  173.73500061    2.75000000    2.05999994
   13.34861088  170.69799805    2.75000000    2.05999994
   13.35166740  179.90499878    2.75000000    2.05999994
   13.35500050  179.37300110    2.75000000    2.05999994
   13.35833359  185.18699646    2.75000000    2.05999994
   13.35916710  183.44799805    2.75000000    2.05999994
   13.36194515  169.79800415    2.75000000    2.05999994
   13.36500072  169.21200562    2.75000000    2.05999994
   13.36833382  176.33399963    2.75000000    2.05999994
   13.37194443  183.28900146    2.75000000    2.05999994
   13.37500000  172.71699524    2.75000000    2.05999994
   13.37833309  182.81399536    2.75000000    2.05999994
   13.38388920  182.81399536    2.75000000    2.05999994
   13.38805580  187.20399475    2.75000000    2.05999994
   13.39138889  179.70700073    2.75000000    2.05999994
   13.39249992  176.91200256    2.75000000    2.05999994
   13.39499950  175.23699951    2.75000000    2.05999994
   13.39805508  171.86199951    2.75000000    2.05999994
   13.40138817  172.56900024    2.75000000    2.05999994
   13.40472221  178.84399414    2.75000000    2.05999994
   13.50055599   -1.00000000   -1.00000000   -1.00000000
   13.73083305   -1.00000000   -1.00000000   -1.00000000
   13.90249920   -1.00000000   -1.00000000   -1.00000000
   13.93666649   99.65769958    2.75000000    2.05999994
   13.94000053  163.98899841    2.75000000    2.05999994
   13.94305515  158.10000610    2.75000000    2.05999994
   13.94638920  168.22300720    2.75000000    2.05999994
   13.94972229  162.97700500    2.75000000    2.05999994
   13.95277786  145.89900208    2.75000000    2.05999994
   13.95694447  145.89900208    2.75000000    2.05999994
   13.96111107  154.57000732    2.75000000    2.05999994
   13.96416664  162.20199585    2.75000000    2.05999994
   13.96749973  159.60800171    2.75000000    2.05999994
   13.96999931  168.08599854    2.75000000    2.05999994
   13.97111034  158.16000366    2.75000000    2.05999994
   13.97416592  132.06599426    2.75000000    2.05999994
   13.97749996  125.62699890    2.75000000    2.05999994
   13.98055553  147.41700745    2.75000000    2.05999994
   13.98388958  157.14100647    2.75000000    2.05999994
   13.98722267  152.36799622    2.75000000    2.05999994
   13.99027824  152.00399780    2.75000000    2.05999994
   13.99388885  140.89799500    2.75000000    2.05999994
   13.99972248  140.89799500    2.75000000    2.05999994
   14.00388908  132.00700378    2.75000000    2.05999994
   14.00722218  131.72500610    2.75000000    2.05999994
   14.01027775  129.93299866    2.75000000    2.05999994
   14.01361084  145.36999512    2.75000000    2.05999994
   14.01694393  128.97900391    2.75000000    2.05999994
   14.01999950  136.39999390    2.75000000    2.05999994
   14.02333355  124.87999725    2.75000000    2.05999994
   14.02666664  129.77299500    2.75000000    2.05999994
   14.02972221  136.77499390    2.75000000    2.05999994
   14.03305531  147.96200562    2.75000000    2.05999994
   14.03638935  139.89799500    2.75000000    2.05999994
   14.03666687  138.30599976    2.75000000    2.05999994
   14.04250050  138.30599976    2.75000000    2.05999994
   14.04666710  126.34700012    2.75000000    2.05999994
   14.05000019  136.58299255    2.75000000    2.05999994
   14.05333328  125.22899628    2.75000000    2.05999994
   14.05638885  145.88900757    2.75000000    2.05999994
   14.05972195  128.72999573    2.75000000    2.05999994
   14.06277752  151.52999878    2.75000000    2.05999994
   14.06611156  152.42399597    2.75000000    2.05999994
   14.06944466  145.75000000    2.75000000    2.05999994
   14.07027817  120.52200317    2.75000000    2.05999994
   14.07305527  143.55299377    2.75000000    2.05999994
   14.07638836  149.17700195    2.75000000    2.05999994
   14.07944393  140.14300537    2.75000000    2.05999994
   14.08555508  140.14300537    2.75000000    2.05999994
   14.08972168  141.67900085    2.75000000    2.05999994
   14.09277725  135.88900757    2.75000000    2.05999994
   14.09611034  142.11999512    2.75000000    2.05999994
   14.09916592  148.49200439    2.75000000    2.05999994
   14.10249996  138.85000610    2.75000000    2.05999994
   14.10333347  136.90699768    2.75000000    2.05999994
   14.10611153  134.80799866    2.75000000    2.05999994
   14.10944462  134.34100342    2.75000000    2.05999994
   14.11277771  126.95500183    2.75000000    2.05999994
   14.11583328  123.58100128    2.75000000    2.05999994
   14.11916637  135.15100098    2.75000000    2.05999994
   14.12250042  123.66000366    2.75000000    2.05999994
   14.12833309  123.66000366    2.75000000    2.05999994
   14.13249969  129.33099365    2.75000000    2.05999994
   14.13555527  113.71299744    2.75000000    2.05999994
   14.13666630  131.91099548    2.75000000    2.05999994
   14.13916683  120.74600220    2.75000000    2.05999994
   14.14249992  132.36199951    2.75000000    2.05999994
   14.14555550  128.33799744    2.75000000    2.05999994
   14.14888859  140.08599854    2.75000000    2.05999994
   14.15222168  137.77600098    2.75000000    2.05999994
   14.15527725  123.03700256    2.75000000    2.05999994
   14.15861034  125.28800201    2.75000000    2.05999994
   14.16166592  129.75799561    2.75000000    2.05999994
   14.16499996  131.88099670    2.75000000    2.05999994
   14.17111111  131.88099670    2.75000000    2.05999994
   14.17527771  139.63600159    2.75000000    2.05999994
   14.17861176  144.97700500    2.75000000    2.05999994
   14.18166733  125.73799896    2.75000000    2.05999994
   14.18500042  123.00599670    2.75000000    2.05999994
   14.18805599  124.00099945    2.75000000    2.05999994
   14.19138908  125.58999634    2.75000000    2.05999994
   14.19472218  123.83599854    2.75000000    2.05999994
   14.19805527  133.36300659    2.75000000    2.05999994
   14.20111084  117.58399963    2.75000000    2.05999994
   14.20333290  127.20700073    2.75000000    2.05999994
   14.20472240  103.75900269    2.75000000    2.05999994
   14.20805550  128.58399963    2.75000000    2.05999994
   14.21388912  128.58399963    2.75000000    2.05999994
   14.21805477  125.93499756    2.75000000    2.05999994
   14.22138882  130.78300476    2.75000000    2.05999994
   14.22444439  124.71900177    2.75000000    2.05999994
   14.22777748  120.00399780    2.75000000    2.05999994
   14.23111057  133.10600281    2.75000000    2.05999994
   14.23416710  142.49200439    2.75000000    2.05999994
   14.23666668  125.86499786    2.75000000    2.05999994
   14.23777771  147.16499329    2.75000000    2.05999994
   14.24111176  144.89100647    2.75000000    2.05999994
   14.24416733  140.61199951    2.75000000    2.05999994
   14.24750042  146.59300232    2.75000000    2.05999994
   14.25083351  147.73800659    2.75000000    2.05999994
   14.25694466  147.73800659    2.75000000    2.05999994
   14.26111126  145.26600647    2.75000000    2.05999994
   14.26416683  146.79100037    2.75000000    2.05999994
   14.26749992  139.94299316    2.75000000    2.05999994
   14.26999950  149.38099670    2.75000000    2.05999994
   14.27111053  136.37500000    2.75000000    2.05999994
   14.27444458  141.26100159    2.75000000    2.05999994
   14.27750015  146.50500488    2.75000000    2.05999994
   14.28083324  156.38400269    2.75000000    2.05999994
   14.28416729  139.66000366    2.75000000    2.05999994
   14.28722286  141.57099915    2.75000000    2.05999994
   14.29055595  132.17700195    2.75000000    2.05999994
   14.29388905  144.47300720    2.75000000    2.05999994
   14.29972267  144.47300720    2.75000000    2.05999994
   14.30388927  154.18099976    2.75000000    2.05999994
   14.30694485  144.09399414    2.75000000    2.05999994
   14.31027794  133.47300720    2.75000000    2.05999994
   14.31361103  144.65600586    2.75000000    2.05999994
   14.31666660  153.52799988    2.75000000    2.05999994
   14.31999969  154.95399475    2.75000000    2.05999994
   14.32305527  162.74800110    2.75000000    2.05999994
   14.32638836  165.57499695    2.75000000    2.05999994
   14.32972240  154.67399597    2.75000000    2.05999994
   14.33277798  171.45500183    2.75000000    2.05999994
   14.33611107  186.33399963    2.75000000    2.05999994
   14.33666611  185.19700623    2.75000000    2.05999994
   14.34249973  185.19700623    2.75000000    2.05999994
   14.34666634  137.35299683    2.75000000    2.05999994
   14.35000038  181.84800720    2.75000000    2.05999994
   14.35305595  157.55799866    2.75000000    2.05999994
   14.35638905  152.82699585    2.75000000    2.05999994
   14.35944462  145.75900269    2.75000000    2.05999994
   14.36277771  156.05099487    2.75000000    2.05999994
   14.36611176  171.88699341    2.75000000    2.05999994
   14.36944485  159.59399414    2.75000000    2.05999994
   14.36999989  151.03399658    2.75000000    2.05999994
   14.37277794  156.76199341    2.75000000    2.05999994
   14.37611103  167.64100647    2.75000000    2.05999994
   14.37916660  144.19700623    2.75000000    2.05999994
   14.38527775  144.19700623    2.75000000    2.05999994
   14.38944435  135.05099487    2.75000000    2.05999994
   14.39277744  138.29499817    2.75000000    2.05999994
   14.39611053  143.29200745    2.75000000    2.05999994
   14.39916611  154.54600525    2.75000000    2.05999994
   14.40249920  130.79600525    2.75000000    2.05999994
   14.40333271  136.71400452    2.75000000    2.05999994
   14.40611076  148.56100464    2.75000000    2.05999994
   14.40944386  138.16200256    2.75000000    2.05999994
   14.41249943  149.63299561    2.75000000    2.05999994
   14.41583252  138.29699707    2.75000000    2.05999994
   14.41916656  140.81100464    2.75000000    2.05999994
   14.42222214  149.69900513    2.75000000    2.05999994
   14.42833328  149.69900513    2.75000000    2.05999994
   14.43249989  151.82200623    2.75000000    2.05999994
   14.43555546  155.71600342    2.75000000    2.05999994
   14.43694496  148.00700378    2.75000000    2.05999994
   14.43916702  146.16200256    2.75000000    2.05999994
   14.44250011  124.51499939    2.75000000    2.05999994
   14.44555569  149.15400696    2.75000000    2.05999994
   14.44888878  141.02099609    2.75000000    2.05999994
   14.45222187  154.76199341    2.75000000    2.05999994
   14.45527744  152.39700317    2.75000000    2.05999994
   14.45861053  151.96000671    2.75000000    2.05999994
   14.46194458  151.25999451    2.75000000    2.05999994
   14.46500015  148.77900696    2.75000000    2.05999994
   14.47111034  148.77900696    2.75000000    2.05999994
   14.47527695  144.13499451    2.75000000    2.05999994
   14.47833252  151.45500183    2.75000000    2.05999994
   14.48166656  158.52600098    2.75000000    2.05999994
   14.48500061  154.34700012    2.75000000    2.05999994
   14.48805618  125.69300079    2.75000000    2.05999994
   14.49138927  136.77999878    2.75000000    2.05999994
   14.49444485  159.03399658    2.75000000    2.05999994
   14.49777794  163.08099365    2.75000000    2.05999994
   14.50111103  148.19999695    2.75000000    2.05999994
   14.50361156  142.83200073    2.75000000    2.05999994
   14.50444412  138.00700378    2.75000000    2.05999994
   14.50777817  158.54600525    2.75000000    2.05999994
   14.51388931  158.54600525    2.75000000    2.05999994
   14.51805496  154.48899841    2.75000000    2.05999994
   14.52138901  146.07099915    2.75000000    2.05999994
   14.52444458  152.79499817    2.75000000    2.05999994
   14.52777767  147.76100159    2.75000000    2.05999994
   14.53083324  149.81300354    2.75000000    2.05999994
   14.53416729  153.07099915    2.75000000    2.05999994
   14.53694534  146.84500122    2.75000000    2.05999994
   14.53777790  155.09100342    2.75000000    2.05999994
   14.54111195  149.17999268    2.75000000    2.05999994
   14.54416752  146.49699402    2.75000000    2.05999994
   14.54750061  151.29100037    2.75000000    2.05999994
   14.55083370  179.07400513    2.75000000    2.05999994
   14.55666733  179.07400513    2.75000000    2.05999994
   14.56083393  140.78799438    2.75000000    2.05999994
   14.56416702  148.56500244    2.75000000    2.05999994
   14.56722260  150.76699829    2.75000000    2.05999994
   14.57027817  156.32800293    2.75000000    2.05999994
   14.57083321  150.52200317    2.75000000    2.05999994
   14.57416630  161.46099854    2.75000000    2.05999994
   14.57722187  149.39300537    2.75000000    2.05999994
   14.58055592  130.10699463    2.75000000    2.05999994
   14.58388901  149.17900085    2.75000000    2.05999994
   14.58694458  154.08299255    2.75000000    2.05999994
   14.59027767  154.96200562    2.75000000    2.05999994
   14.59361076  150.38400269    2.75000000    2.05999994
   14.59972191  150.38400269    2.75000000    2.05999994
   14.60361195  174.17500305    2.75000000    2.05999994
   14.60694504  165.95399475    2.75000000    2.05999994
   14.61027813  159.50700378    2.75000000    2.05999994
   14.61333370  175.02499390    2.75000000    2.05999994
   14.61666679  157.69400024    2.75000000    2.05999994
   14.61999989  158.72700500    2.75000000    2.05999994
   14.62305546  163.95899963    2.75000000    2.05999994
   14.62638855  160.44799805    2.75000000    2.05999994
   14.62972260  146.33200073    2.75000000    2.05999994
   14.63277817  156.30000305    2.75000000    2.05999994
   14.63611126  160.78900146    2.75000000    2.05999994
   14.63694477  172.65899658    2.75000000    2.05999994
   14.64249992  172.65899658    2.75000000    2.05999994
   14.64666653  144.19299316    2.75000000    2.05999994
   14.64972210  153.16000366    2.75000000    2.05999994
   14.65305519  168.26199341    2.75000000    2.05999994
   14.65638828  150.99899292    2.75000000    2.05999994
   14.65944386  154.60200500    2.75000000    2.05999994
   14.66277695  155.93299866    2.75000000    2.05999994
   14.66583252  136.96499634    2.75000000    2.05999994
   14.66916656  150.49800110    2.75000000    2.05999994
   14.67027855  158.66600037    2.75000000    2.05999994
   14.67277813  150.16900635    2.75000000    2.05999994
   14.67611122  148.84199524    2.75000000    2.05999994
   14.67944431  147.52200317    2.75000000    2.05999994
   14.68527794  147.52200317    2.75000000    2.05999994
   14.68944454  145.48699951    2.75000000    2.05999994
   14.69277763  159.75599670    2.75000000    2.05999994
   14.69583321  173.85600281    2.75000000    2.05999994
   14.69916630  138.08299255    2.75000000    2.05999994
   14.70222187  153.41999817    2.75000000    2.05999994
   14.70361137  159.10800171    2.75000000    2.05999994
   14.70583344  153.36900330    2.75000000    2.05999994
   14.70916653  172.28700256    2.75000000    2.05999994
   14.71249962  156.67900085    2.75000000    2.05999994
   14.71555519  143.02200317    2.75000000    2.05999994
   14.71888828  169.80799866    2.75000000    2.05999994
   14.72194386  140.71499634    2.75000000    2.05999994
   14.72805500  140.71499634    2.75000000    2.05999994
   14.73222160  149.70599365    2.75000000    2.05999994
   14.73555565  159.25599670    2.75000000    2.05999994
   14.73694515  137.05999756    2.75000000    2.05999994
   14.73888874  162.03100586    2.75000000    2.05999994
   14.74222279  149.28300476    2.75000000    2.05999994
   14.74555588  145.87300110    2.75000000    2.05999994
   14.74861145  151.97300720    2.75000000    2.05999994
   14.75194454  149.42700195    2.75000000    2.05999994
   14.75500011  149.05299377    2.75000000    2.05999994
   14.75833321  159.88400269    2.75000000    2.05999994
   14.76166630  119.81099701    2.75000000    2.05999994
   14.76472187  149.66799927    2.75000000    2.05999994
   14.77111053  149.66799927    2.75000000    2.05999994
   14.77499962  149.13499451    2.75000000    2.05999994
   14.77833271  141.71800232    2.75000000    2.05999994
   14.78166676  163.25000000    2.75000000    2.05999994
   14.78500080  146.14399719    2.75000000    2.05999994
   14.78805637  134.89500427    2.75000000    2.05999994
   14.79138947  149.29200745    2.75000000    2.05999994
   14.79444504  132.27400208    2.75000000    2.05999994
   14.79777813  140.16000366    2.75000000    2.05999994
   14.80111122  132.02400208    2.75000000    2.05999994
   14.80361176  150.04299927    2.75000000    2.05999994
   14.80444431  129.28599548    2.75000000    2.05999994
   14.80777836  152.57299805    2.75000000    2.05999994
   14.81388950  152.57299805    2.75000000    2.05999994
   14.81805515  148.10800171    2.75000000    2.05999994
   14.82111073  135.11000061    2.75000000    2.05999994
   14.82444477  141.52799988    2.75000000    2.05999994
   14.82777786  140.36900330    2.75000000    2.05999994
   14.83083344  138.86099243    2.75000000    2.05999994
   14.83416653  155.24400330    2.75000000    2.05999994
   14.83694458  145.37500000    2.75000000    2.05999994
   14.83749962  154.76100159    2.75000000    2.05999994
   14.84083271  142.63600159    2.75000000    2.05999994
   14.84416676  154.46899414    2.75000000    2.05999994
   14.84722233  145.69599915    2.75000000    2.05999994
   14.85055637  147.36000061    2.75000000    2.05999994
   14.85666752  147.36000061    2.75000000    2.05999994
   14.86083412  137.98199463    2.75000000    2.05999994
   14.86416721  160.83900452    2.75000000    2.05999994
   14.86722279  145.21800232    2.75000000    2.05999994
   14.87027836  136.90100098    2.75000000    2.05999994
   14.87083340  141.84199524    2.75000000    2.05999994
   14.87416649  137.61500549    2.75000000    2.05999994
   14.87750053  140.94500732    2.75000000    2.05999994
   14.88055611  138.49400330    2.75000000    2.05999994
   14.88388920  144.38200378    2.75000000    2.05999994
   14.88694477  152.96400452    2.75000000    2.05999994
   14.89027786  156.41700745    2.75000000    2.05999994
   14.89361095  140.01800537    2.75000000    2.05999994
   14.89944458  140.01800537    2.75000000    2.05999994
   14.90361118  141.82600403    2.75000000    2.05999994
   14.90694427  133.72300720    2.75000000    2.05999994
   14.90999985  128.20399475    2.75000000    2.05999994
   14.91333294  141.08799744    2.75000000    2.05999994
   14.91666698  134.00599670    2.75000000    2.05999994
   14.91972256  153.97200012    2.75000000    2.05999994
   14.92305565  152.61300659    2.75000000    2.05999994
   14.92638874  158.99899292    2.75000000    2.05999994
   14.92944431  163.32800293    2.75000000    2.05999994
   14.93277836  165.75700378    2.75000000    2.05999994
   14.93583298  140.63099670    2.75000000    2.05999994
   14.93694496  138.63499451    2.75000000    2.05999994
   14.95749950  138.63499451    2.75000000    2.05999994
   14.96166611  207.82699585    2.75000000    2.05999994
   14.96500015  196.01199341    2.75000000    2.05999994
   14.96805477  204.11799622    2.75000000    2.05999994
   14.97027779  225.37300110    2.75000000    2.05999994
   14.97166634  202.66099548    2.75000000    2.05999994
   14.97499943  179.77099609    2.75000000    2.05999994
   14.97833252  214.77200317    2.75000000    2.05999994
   14.98138809  198.87600708    2.75000000    2.05999994
   14.98472214  192.14700317    2.75000000    2.05999994
   14.98805618  183.49400330    2.75000000    2.05999994
   14.99111176  184.77900696    2.75000000    2.05999994
   14.99444485  186.62699890    2.75000000    2.05999994
   15.00027752  186.62699890    2.75000000    2.05999994
   15.00444412  189.36900330    2.75000000    2.05999994
   15.00777817  192.70799255    2.75000000    2.05999994
   15.01083374  191.74699402    2.75000000    2.05999994
   15.01416683  174.58000183    2.75000000    2.05999994
   15.01722240  178.05000305    2.75000000    2.05999994
   15.02055550  180.23699951    2.75000000    2.05999994
   15.02388859  164.55999756    2.75000000    2.05999994
   15.02694416  183.75599670    2.75000000    2.05999994
   15.03027725  177.55400085    2.75000000    2.05999994
   15.03361130  188.11900330    2.75000000    2.05999994
   15.03666687  172.96499634    2.75000000    2.05999994
   15.03722286  167.72900391    2.75000000    2.05999994
   15.04305553  167.72900391    2.75000000    2.05999994
   15.04722309  180.97200012    2.75000000    2.05999994
   15.05055618  181.69799805    2.75000000    2.05999994
   15.05361176  182.10299683    2.75000000    2.05999994
   15.05694485  177.61199951    2.75000000    2.05999994
   15.06027794  177.93099976    2.75000000    2.05999994
   15.06333351  176.25799561    2.75000000    2.05999994
   15.06666660  203.55299377    2.75000000    2.05999994
   15.06999969  174.88000488    2.75000000    2.05999994
   15.07055569  191.64900208    2.75000000    2.05999994
   15.07361126  179.46600342    2.75000000    2.05999994
   15.07666683  186.68800354    2.75000000    2.05999994
   15.07999992  166.66400146    2.75000000    2.05999994
   15.08611107  166.66400146    2.75000000    2.05999994
   15.09000015  162.32699585    2.75000000    2.05999994
   15.09333324  175.82299805    2.75000000    2.05999994
   15.09666634  180.19200134    2.75000000    2.05999994
   15.09972191  170.99899292    2.75000000    2.05999994
   15.10305595  162.90299988    2.75000000    2.05999994
   15.10388947  147.25900269    2.75000000    2.05999994
   15.10666752  146.60400391    2.75000000    2.05999994
   15.10972214  156.55599976    2.75000000    2.05999994
   15.11305618  152.10499573    2.75000000    2.05999994
   15.11638927  163.27099609    2.75000000    2.05999994
   15.11944485  149.00500488    2.75000000    2.05999994
   15.12277794  147.58500671    2.75000000    2.05999994
   15.12888908  147.58500671    2.75000000    2.05999994
   15.13305569  138.97399902    2.75000000    2.05999994
   15.13611126  144.95899963    2.75000000    2.05999994
   15.13722229  139.19500732    2.75000000    2.05999994
   15.14000034  139.86500549    2.75000000    2.05999994
   15.14305496  138.68699646    2.75000000    2.05999994
   15.14638901  124.90699768    2.75000000    2.05999994
   15.14972210  131.92700195    2.75000000    2.05999994
   15.15277767  136.38800049    2.75000000    2.05999994
   15.15611076  130.55099487    2.75000000    2.05999994
   15.15916634  144.01600647    2.75000000    2.05999994
   15.16249943  152.09800720    2.75000000    2.05999994
   15.16583252  135.40400696    2.75000000    2.05999994
   15.17166710  135.40400696    2.75000000    2.05999994
   15.17583370  134.46600342    2.75000000    2.05999994
   15.17916679  124.07599640    2.75000000    2.05999994
   15.18222237  131.08500671    2.75000000    2.05999994
   15.18555546  133.51199341    2.75000000    2.05999994
   15.18861103  128.15400696    2.75000000    2.05999994
   15.19194412  128.11900330    2.75000000    2.05999994
   15.19527817  134.12199402    2.75000000    2.05999994
   15.19833374  142.11900330    2.75000000    2.05999994
   15.20166683  144.34199524    2.75000000    2.05999994
   15.20388889  137.86700439    2.75000000    2.05999994
   15.20527744  139.31900024    2.75000000    2.05999994
   15.20833302  117.14499664    2.75000000    2.05999994
   15.21444416  117.14499664    2.75000000    2.05999994
   15.21861076  131.61799622    2.75000000    2.05999994
   15.22194386  130.28599548    2.75000000    2.05999994
   15.22499943  138.39100647    2.75000000    2.05999994
   15.22833252  127.81900024    2.75000000    2.05999994
   15.23166656  134.29699707    2.75000000    2.05999994
   15.23472214  143.00100708    2.75000000    2.05999994
   15.23722267  131.28199768    2.75000000    2.05999994
   15.23861122  135.52799988    2.75000000    2.05999994
   15.24166679  133.11099243    2.75000000    2.05999994
   15.24499989  140.01499939    2.75000000    2.05999994
   15.24833393  145.33000183    2.75000000    2.05999994
   15.25138855  128.24899292    2.75000000    2.05999994
   15.25749969  128.24899292    2.75000000    2.05999994
   15.26138878  125.58899689    2.75000000    2.05999994
   15.26472187  127.95400238    2.75000000    2.05999994
   15.26805496  127.95800018    2.75000000    2.05999994
   15.27055550  124.53199768    2.75000000    2.05999994
   15.27166653  140.03300476    2.75000000    2.05999994
   15.27472210  131.36599731    2.75000000    2.05999994
   15.27805519  125.95500183    2.75000000    2.05999994
   15.28138828  133.49400330    2.75000000    2.05999994
   15.28444481  149.12699890    2.75000000    2.05999994
   15.28777790  122.48100281    2.75000000    2.05999994
   15.29083347  134.56900024    2.75000000    2.05999994
   15.29416752  144.43899536    2.75000000    2.05999994
   15.30027771  144.43899536    2.75000000    2.05999994
   15.30444431  131.58500671    2.75000000    2.05999994
   15.30749989  125.29499817    2.75000000    2.05999994
   15.31083393  139.38699341    2.75000000    2.05999994
   15.31416702  134.29400635    2.75000000    2.05999994
   15.31722260  130.67500305    2.75000000    2.05999994
   15.32055569  147.40899658    2.75000000    2.05999994
   15.32361126  141.75000000    2.75000000    2.05999994
   15.32694435  136.52999878    2.75000000    2.05999994
   15.33027744  141.82499695    2.75000000    2.05999994
   15.33333302  128.90600586    2.75000000    2.05999994
   15.33666611  130.93099976    2.75000000    2.05999994
   15.33722210  129.07600403    2.75000000    2.05999994
   15.34305477  129.07600403    2.75000000    2.05999994
   15.34722233  129.62699890    2.75000000    2.05999994
   15.35055637  122.61499786    2.75000000    2.05999994
   15.35361195  127.73000336    2.75000000    2.05999994
   15.35694504  137.66200256    2.75000000    2.05999994
   15.36000061  144.05200195    2.75000000    2.05999994
   15.36333370  128.43899536    2.75000000    2.05999994
   15.36666679  122.97000122    2.75000000    2.05999994
   15.36972237  132.68899536    2.75000000    2.05999994
   15.37055588  128.82000732    2.75000000    2.05999994
   15.37333393  128.80999756    2.75000000    2.05999994
   15.37638855  125.81099701    2.75000000    2.05999994
   15.37972260  119.85700226    2.75000000    2.05999994
   15.38583279  119.85700226    2.75000000    2.05999994
   15.39000034  125.58699799    2.75000000    2.05999994
   15.39333344  118.03500366    2.75000000    2.05999994
   15.39638901  127.53299713    2.75000000    2.05999994
   15.39972210  141.79499817    2.75000000    2.05999994
   15.40305519  133.53300476    2.75000000    2.05999994
   15.40388870  130.47900391    2.75000000    2.05999994
   15.40666676  122.82800293    2.75000000    2.05999994
   15.40972137  146.57299805    2.75000000    2.05999994
   15.41305542  136.13699341    2.75000000    2.05999994
   15.41638851  140.70599365    2.75000000    2.05999994
   15.41944504  131.87399292    2.75000000    2.05999994
   15.42277813  121.33200073    2.75000000    2.05999994
   15.42888927  121.33200073    2.75000000    2.05999994
   15.43277836  119.56300354    2.75000000    2.05999994
   15.43611145  143.60699463    2.75000000    2.05999994
   15.43722248  135.33500671    2.75000000    2.05999994
   15.43972206  125.74600220    2.75000000    2.05999994
   15.44277763  138.43400574    2.75000000    2.05999994
   15.44611073  145.14599609    2.75000000    2.05999994
   15.44944477  129.81900024    2.75000000    2.05999994
   15.45249939  129.53599548    2.75000000    2.05999994
   15.45583344  124.62000275    2.75000000    2.05999994
   15.45916653  134.53700256    2.75000000    2.05999994
   15.46222210  135.39399719    2.75000000    2.05999994
   15.46555519  152.72399902    2.75000000    2.05999994
   15.47166634  152.72399902    2.75000000    2.05999994
   15.47583294  126.41200256    2.75000000    2.05999994
   15.47888851  133.37800598    2.75000000    2.05999994
   15.48222160  128.63800049    2.75000000    2.05999994
   15.48555565  127.71399689    2.75000000    2.05999994
   15.48861122  122.07599640    2.75000000    2.05999994
   15.49194431  133.26199341    2.75000000    2.05999994
   15.49499989  132.55099487    2.75000000    2.05999994
   15.49833393  137.88600159    2.75000000    2.05999994
   15.50166702  137.42900085    2.75000000    2.05999994
   15.50388908  146.22799683    2.75000000    2.05999994
   15.50527763  120.39900208    2.75000000    2.05999994
   15.50833321  148.19400024    2.75000000    2.05999994
   15.51444435  148.19400024    2.75000000    2.05999994
   15.51861095  150.25799561    2.75000000    2.05999994
   15.52194405  165.65299988    2.75000000    2.05999994
   15.52499962  139.73199463    2.75000000    2.05999994
   15.52833271  153.55000305    2.75000000    2.05999994
   15.53138828  133.54100037    2.75000000    2.05999994
   15.53472233  120.73699951    2.75000000    2.05999994
   15.53722286  150.63699341    2.75000000    2.05999994
   15.53833389  148.14399719    2.75000000    2.05999994
   15.54138947  130.25799561    2.75000000    2.05999994
   15.54472256  132.82099915    2.75000000    2.05999994
   15.54805565  133.88800049    2.75000000    2.05999994
   15.55111122  123.26599884    2.75000000    2.05999994
   15.55722237  123.26599884    2.75000000    2.05999994
   15.56138897  131.47300720    2.75000000    2.05999994
   15.56472206  110.87599945    2.75000000    2.05999994
   15.56777763  123.01100159    2.75000000    2.05999994
   15.57055569  123.29000092    2.75000000    2.05999994
   15.57166672  130.50700378    2.75000000    2.05999994
   15.57472229  127.15200043    2.75000000    2.05999994
   15.57805538  124.33799744    2.75000000    2.05999994
   15.58138847  113.75499725    2.75000000    2.05999994
   15.58444405  126.10299683    2.75000000    2.05999994
   15.58777714  123.62500000    2.75000000    2.05999994
   15.59111118  130.14300537    2.75000000    2.05999994
   15.59416676  130.19999695    2.75000000    2.05999994
   15.60027790  130.19999695    2.75000000    2.05999994
   15.60416698  111.47599792    2.75000000    2.05999994
   15.60750008  108.43699646    2.75000000    2.05999994
   15.61083412  114.99700165    2.75000000    2.05999994
   15.61388969  115.44599915    2.75000000    2.05999994
   15.61722279  123.64099884    2.75000000    2.05999994
   15.62055588  120.21199799    2.75000000    2.05999994
   15.62361145  117.09700012    2.75000000    2.05999994
   15.62694454  109.31900024    2.75000000    2.05999994
   15.63027763  116.96399689    2.75000000    2.05999994
   15.63333321  116.89199829    2.75000000    2.05999994
   15.63666630  121.44000244    2.75000000    2.05999994
   15.63722229  120.53500366    2.75000000    2.05999994
   15.64305496  120.53500366    2.75000000    2.05999994
   15.64722252  108.95999908    2.75000000    2.05999994
   15.65027714  115.76699829    2.75000000    2.05999994
   15.65361118  120.28099823    2.75000000    2.05999994
   15.65694427  119.62699890    2.75000000    2.05999994
   15.65999985  116.81800079    2.75000000    2.05999994
   15.66333294  107.29799652    2.75000000    2.05999994
   15.66638851  106.70600128    2.75000000    2.05999994
   15.66972256  117.38999939    2.75000000    2.05999994
   15.67055607  109.56600189    2.75000000    2.05999994
   15.67333412  114.81900024    2.75000000    2.05999994
   15.67666721  118.46199799    2.75000000    2.05999994
   15.67972279  110.69799805    2.75000000    2.05999994
   15.68583298  110.69799805    2.75000000    2.05999994
   15.69000053  110.17500305    2.75000000    2.05999994
   15.69333363  113.34300232    2.75000000    2.05999994
   15.69638920  104.51000214    2.75000000    2.05999994
   15.69972229  123.58300018    2.75000000    2.05999994
   15.70277786  119.24199677    2.75000000    2.05999994
   15.70388889  118.96800232    2.75000000    2.05999994
   15.70638847  112.70300293    2.75000000    2.05999994
   15.70972157  111.68399811    2.75000000    2.05999994
   15.71277714  107.39499664    2.75000000    2.05999994
   15.71611118  125.70099640    2.75000000    2.05999994
   15.71916580  119.77700043    2.75000000    2.05999994
   15.72249985  111.83399963    2.75000000    2.05999994
   15.72861099  111.83399963    2.75000000    2.05999994
   15.73277760  112.95300293    2.75000000    2.05999994
   15.73611164  109.21700287    2.75000000    2.05999994
   15.73722267  107.85099792    2.75000000    2.05999994
   15.73972225  106.63999939    2.75000000    2.05999994
   15.74305534  109.33000183    2.75000000    2.05999994
   15.74611092  107.97899628    2.75000000    2.05999994
   15.74944496  107.16600037    2.75000000    2.05999994
   15.75249958  108.79199982    2.75000000    2.05999994
   15.75583363  105.32900238    2.75000000    2.05999994
   15.75916672  109.48000336    2.75000000    2.05999994
   15.76222229  115.12799835    2.75000000    2.05999994
   15.76555538  115.35099792    2.75000000    2.05999994
   15.77166653  115.35099792    2.75000000    2.05999994
   15.77555561  112.46600342    2.75000000    2.05999994
   15.77888870  108.81500244    2.75000000    2.05999994
   15.78222179  110.72399902    2.75000000    2.05999994
   15.78527832  109.76100159    2.75000000    2.05999994
   15.78861141  113.31400299    2.75000000    2.05999994
   15.79194450  114.40699768    2.75000000    2.05999994
   15.79527855  114.05599976    2.75000000    2.05999994
   15.79833412  107.75700378    2.75000000    2.05999994
   15.80166721  109.80200195    2.75000000    2.05999994
   15.80388927  105.35399628    2.75000000    2.05999994
   15.80527782  112.12200165    2.75000000    2.05999994
   15.80861092  112.22299957    2.75000000    2.05999994
   15.81444454  112.22299957    2.75000000    2.05999994
   15.81861115  109.19200134    2.75000000    2.05999994
   15.82166672  121.01699829    2.75000000    2.05999994
   15.82499981  126.06300354    2.75000000    2.05999994
   15.82833290  117.03800201    2.75000000    2.05999994
   15.83138847  120.04499817    2.75000000    2.05999994
   15.83472157  116.73500061    2.75000000    2.05999994
   15.83722210  120.73200226    2.75000000    2.05999994
   15.83833313  113.65799713    2.75000000    2.05999994
   15.84166622  118.33000183    2.75000000    2.05999994
   15.84472179  112.88999939    2.75000000    2.05999994
   15.84805489  115.66400146    2.75000000    2.05999994
   15.85111141  116.83200073    2.75000000    2.05999994
   15.85722256  116.83200073    2.75000000    2.05999994
   15.86138916  124.03099823    2.75000000    2.05999994
   15.86472225  118.30200195    2.75000000    2.05999994
   15.86777782  128.06100464    2.75000000    2.05999994
   15.87055588  121.06800079    2.75000000    2.05999994
   15.87138939  120.37000275    2.75000000    2.05999994
   15.87472248  119.32599640    2.75000000    2.05999994
   15.87777805  116.71700287    2.75000000    2.05999994
   15.88111115  130.67300415    2.75000000    2.05999994
   15.88444424  108.90599823    2.75000000    2.05999994
   15.88749981  100.55699921    2.75000000    2.05999994
   15.89083290  113.20200348    2.75000000    2.05999994
   15.89388847  116.44899750    2.75000000    2.05999994
   15.89999962  116.44899750    2.75000000    2.05999994
   15.90416622  110.92199707    2.75000000    2.05999994
   15.90749931  118.72000122    2.75000000    2.05999994
   15.91055489  121.17600250    2.75000000    2.05999994
   15.91388893  118.98500061    2.75000000    2.05999994
   15.91722298  114.25299835    2.75000000    2.05999994
   15.92027855  109.54799652    2.75000000    2.05999994
   15.92361164  111.50199890    2.75000000    2.05999994
   15.92666721  115.49400330    2.75000000    2.05999994
   15.93000031  110.95400238    2.75000000    2.05999994
   15.93333340  115.52300262    2.75000000    2.05999994
   15.93638897  107.87000275    2.75000000    2.05999994
   15.93722248  114.63700104    2.75000000    2.05999994
   15.94305515  114.63700104    2.75000000    2.05999994
   15.94694424  105.06199646    2.75000000    2.05999994
   15.95027733  111.53700256    2.75000000    2.05999994
   15.95361137  126.52600098    2.75000000    2.05999994
   15.97111034  124.08200073    2.75000000    2.05999994
   15.97361088  110.11399841    2.75000000    2.05999994
   15.97666645  119.25199890    2.75000000    2.05999994
   15.97999954  107.88400269    2.75000000    2.05999994
   15.98583317  107.88400269    2.75000000    2.05999994
   15.99000072  114.27799988    2.75000000    2.05999994
   15.99333382  111.25299835    2.75000000    2.05999994
   15.99638939  112.58399963    2.75000000    2.05999994
   15.99972248  111.70600128    2.75000000    2.05999994
   16.00305557  104.35700226    2.75000000    2.05999994
   16.00444412  107.10500336    2.75000000    2.05999994
   16.00638962  117.34999847    2.75000000    2.05999994
   16.00972176  123.96600342    2.75000000    2.05999994
   16.01277733  113.60800171    2.75000000    2.05999994
   16.01611137  113.36699677    2.75000000    2.05999994
   16.01944351  113.40200043    2.75000000    2.05999994
   16.02249908  115.25499725    2.75000000    2.05999994
   16.02861023  115.25499725    2.75000000    2.05999994
   16.03277779  119.18599701    2.75000000    2.05999994
   16.03610992  116.78800201    2.75000000    2.05999994
   16.03777695  110.00000000    2.75000000    2.05999994
   16.03972244  115.98400116    2.75000000    2.05999994
   16.04305458  108.16300201    2.75000000    2.05999994
   16.04611015  119.01200104    2.75000000    2.05999994
   16.04944420  116.72299957    2.75000000    2.05999994
   16.05277634  121.59400177    2.75000000    2.05999994
   16.05583191  110.41799927    2.75000000    2.05999994
   16.05916595  123.91500092    2.75000000    2.05999994
   16.06250000  118.85800171    2.75000000    2.05999994
   16.06555557  111.47799683    2.75000000    2.05999994
   16.07166672  111.47799683    2.75000000    2.05999994
   16.07583427  121.78800201    2.75000000    2.05999994
   16.07888985  111.21700287    2.75000000    2.05999994
   16.08222389  108.71399689    2.75000000    2.05999994
   16.08527756  110.90000153    2.75000000    2.05999994
   16.08861160  112.66999817    2.75000000    2.05999994
   16.09194565  110.83000183    2.75000000    2.05999994
   16.09500122  112.22399902    2.75000000    2.05999994
   16.09833336  111.02600098    2.75000000    2.05999994
   16.10166740  102.90799713    2.75000000    2.05999994
   16.10444450  117.02200317    2.75000000    2.05999994
   16.10499954  107.47699738    2.75000000    2.05999994
   16.10833359  117.65200043    2.75000000    2.05999994
   16.11444473  117.65200043    2.75000000    2.05999994
   16.11861038  124.16000366    2.75000000    2.05999994
   16.12166595  120.12699890    2.75000000    2.05999994
   16.12500000  119.91100311    2.75000000    2.05999994
   16.12833405  120.47499847    2.75000000    2.05999994
   16.13138962  113.69999695    2.75000000    2.05999994
   16.13472176  114.50399780    2.75000000    2.05999994
   16.13777733  118.02799988    2.75000000    2.05999994
   16.13861084  118.56099701    2.75000000    2.05999994
   16.14166641  120.79499817    2.75000000    2.05999994
   16.14500046  123.99900055    2.75000000    2.05999994
   16.14805603  116.75700378    2.75000000    2.05999994
   16.15138817  106.86399841    2.75000000    2.05999994
   16.15722275  106.86399841    2.75000000    2.05999994
   16.16138840  114.24400330    2.75000000    2.05999994
   16.16472244  129.32299805    2.75000000    2.05999994
   16.16777802  119.76899719    2.75000000    2.05999994
   16.17111015  133.66499329    2.75000000    2.05999994
   16.17138863  113.26699829    2.75000000    2.05999994
   16.17472076  131.97099304    2.75000000    2.05999994
   16.17777634  139.91200256    2.75000000    2.05999994
   16.18111038  117.96399689    2.75000000    2.05999994
   16.18444443  135.67700195    2.75000000    2.05999994
   16.18750000  129.99800110    2.75000000    2.05999994
   16.19083214  125.58599854    2.75000000    2.05999994
   16.19416618  127.03900146    2.75000000    2.05999994
   16.20000076  127.03900146    2.75000000    2.05999994
   16.20416832  130.94999695    2.75000000    2.05999994
   16.20472336  140.29200745    2.75000000    2.05999994
   16.20805550  123.08200073    2.75000000    2.05999994
   16.21111107  134.81100464    2.75000000    2.05999994
   16.21444511  104.93000031    2.75000000    2.05999994
   16.21777916  127.22299957    2.75000000    2.05999994
   16.22083473  132.27499390    2.75000000    2.05999994
   16.22416687  119.66699982    2.75000000    2.05999994
   16.22750092  139.71899414    2.75000000    2.05999994
   16.23055649  140.15299988    2.75000000    2.05999994
   16.23388863  121.33599854    2.75000000    2.05999994
   16.23722267  126.99600220    2.75000000    2.05999994
   16.23805618  128.52200317    2.75000000    2.05999994
   16.24305534  128.52200317    2.75000000    2.05999994
   16.24722290  135.71499634    2.75000000    2.05999994
   16.25027847  129.70500183    2.75000000    2.05999994
   16.25361061  132.03999329    2.75000000    2.05999994
   16.25666618  130.97300720    2.75000000    2.05999994
   16.26000023  129.86199951    2.75000000    2.05999994
   16.26333427  123.22399902    2.75000000    2.05999994
   16.26638794  118.48799896    2.75000000    2.05999994
   16.26972198  130.83599854    2.75000000    2.05999994
   16.27138901  122.52300262    2.75000000    2.05999994
   16.27333260  124.92299652    2.75000000    2.05999994
   16.27638817  124.76399994    2.75000000    2.05999994
   16.27972221  121.74400330    2.75000000    2.05999994
   16.28583336  121.74400330    2.75000000    2.05999994
   16.28999901  116.25399780    2.75000000    2.05999994
   16.29305458  133.38699341    2.75000000    2.05999994
   16.29638863  117.61100006    2.75000000    2.05999994
   16.29972076  118.33499908    2.75000000    2.05999994
   16.30277634  119.71299744    2.75000000    2.05999994
   16.30472183  111.89099884    2.75000000    2.05999994
   16.30638885  127.47499847    2.75000000    2.05999994
   16.30944443  124.96399689    2.75000000    2.05999994
   16.31277657  126.59799957    2.75000000    2.05999994
   16.31611061  124.45700073    2.75000000    2.05999994
   16.31916809  128.25799561    2.75000000    2.05999994
   16.32250023  118.65899658    2.75000000    2.05999994
   16.32861137  118.65899658    2.75000000    2.05999994
   16.33277893  122.34600067    2.75000000    2.05999994
   16.33611107  121.47299957    2.75000000    2.05999994
   16.33805656  125.55100250    2.75000000    2.05999994
   16.33972359  124.27100372    2.75000000    2.05999994
   16.34277916  132.13200378    2.75000000    2.05999994
   16.34611130  116.77600098    2.75000000    2.05999994
   16.34944534  129.38200378    2.75000000    2.05999994
   16.35250092  123.99600220    2.75000000    2.05999994
   16.35583305  109.22699738    2.75000000    2.05999994
   16.35916710  129.87800598    2.75000000    2.05999994
   16.36222267  131.03500366    2.75000000    2.05999994
   16.36555672  110.25599670    2.75000000    2.05999994
   16.37138939  110.25599670    2.75000000    2.05999994
   16.37555504  114.00399780    2.75000000    2.05999994
   16.37888908  122.85199738    2.75000000    2.05999994
   16.38222313  122.62500000    2.75000000    2.05999994
   16.38527679  112.21600342    2.75000000    2.05999994
   16.38861084  114.58100128    2.75000000    2.05999994
   16.39194489  118.31400299    2.75000000    2.05999994
   16.39500046  110.22299957    2.75000000    2.05999994
   16.39833260  109.68299866    2.75000000    2.05999994
   16.40166664  116.90699768    2.75000000    2.05999994
   16.40472221  115.43499756    2.75000000    2.05999994
   16.40527725  121.91100311    2.75000000    2.05999994
   16.40833282  116.67600250    2.75000000    2.05999994
   16.41444397  116.67600250    2.75000000    2.05999994
   16.41860962  123.81800079    2.75000000    2.05999994
   16.42166519  124.07800293    2.75000000    2.05999994
   16.42499924  115.63300323    2.75000000    2.05999994
   16.42805481  111.06800079    2.75000000    2.05999994
   16.43138885  116.76100159    2.75000000    2.05999994
   16.43472099  113.53500366    2.75000000    2.05999994
   16.43777657  112.17800140    2.75000000    2.05999994
   16.43833160  111.14399719    2.75000000    2.05999994
   16.44166565  125.06800079    2.75000000    2.05999994
   16.44472122  116.43900299    2.75000000    2.05999994
   16.44805527  113.58999634    2.75000000    2.05999994
   16.45138931  125.89600372    2.75000000    2.05999994
   16.45722389  125.89600372    2.75000000    2.05999994
   16.46138954  120.13600159    2.75000000    2.05999994
   16.46444511  132.89900208    2.75000000    2.05999994
   16.46777916  129.66999817    2.75000000    2.05999994
   16.47111130  138.49400330    2.75000000    2.05999994
   16.47166634  132.89399719    2.75000000    2.05999994
   16.47472191  124.99600220    2.75000000    2.05999994
   16.47805595  150.40100098    2.75000000    2.05999994
   16.48111153  132.29600525    2.75000000    2.05999994
   16.48444557  141.06599426    2.75000000    2.05999994
   16.48750114  128.44900513    2.75000000    2.05999994
   16.49083328  135.39199829    2.75000000    2.05999994
   16.49416733  138.51100159    2.75000000    2.05999994
   16.50000000  138.51100159    2.75000000    2.05999994
   16.50416756  141.02400208    2.75000000    2.05999994
   16.50499916  134.51899719    2.75000000    2.05999994
   16.50777817  149.43299866    2.75000000    2.05999994
   16.51083374  144.36099243    2.75000000    2.05999994
   16.51416588  134.97000122    2.75000000    2.05999994
   16.51749992  142.63999939    2.75000000    2.05999994
   16.52055550  126.13600159    2.75000000    2.05999994
   16.52388954  139.86999512    2.75000000    2.05999994
   16.52722168  135.48899841    2.75000000    2.05999994
   16.53027725  119.90000153    2.75000000    2.05999994
   16.53361130  147.60600281    2.75000000    2.05999994
   16.53666687  123.75099945    2.75000000    2.05999994
   16.53833199  131.34700012    2.75000000    2.05999994
   16.54277802  131.34700012    2.75000000    2.05999994
   16.54694366  129.23100281    2.75000000    2.05999994
   16.55027771  121.89099884    2.75000000    2.05999994
   16.55360985  142.20100403    2.75000000    2.05999994
   16.55666542  131.57200623    2.75000000    2.05999994
   16.55999947  148.31700134    2.75000000    2.05999994
   16.56333351  131.22799683    2.75000000    2.05999994
   16.56638718  135.96600342    2.75000000    2.05999994
   16.56972313  129.93499756    2.75000000    2.05999994
   16.57166672  134.72399902    2.75000000    2.05999994
   16.57333374  136.27299500    2.75000000    2.05999994
   16.57638931  136.29699707    2.75000000    2.05999994
   16.57972336  130.36099243    2.75000000    2.05999994
   16.58583450  130.36099243    2.75000000    2.05999994
   16.58972359  134.13299561    2.75000000    2.05999994
   16.59305573  137.06399536    2.75000000    2.05999994
   16.59638977  123.49199677    2.75000000    2.05999994
   16.59944534  137.93600464    2.75000000    2.05999994
   16.60277748  113.43499756    2.75000000    2.05999994
   16.60499954  125.32900238    2.75000000    2.05999994
   16.60639000  133.29100037    2.75000000    2.05999994
   16.60944557  129.69200134    2.75000000    2.05999994
   16.61277771  122.29000092    2.75000000    2.05999994
   16.61611176  129.92500305    2.75000000    2.05999994
   16.61916733  125.54799652    2.75000000    2.05999994
   16.62249947  123.41799927    2.75000000    2.05999994
   16.62861061  123.41799927    2.75000000    2.05999994
   16.63277817  126.02700043    2.75000000    2.05999994
   16.63583374  121.80999756    2.75000000    2.05999994
   16.63833237  122.68800354    2.75000000    2.05999994
   16.63972282  129.94000244    2.75000000    2.05999994
   16.64277840  125.69799805    2.75000000    2.05999994
   16.64611053  117.26599884    2.75000000    2.05999994
   16.64944458  123.44899750    2.75000000    2.05999994
   16.65250015  118.63899994    2.75000000    2.05999994
   16.65583229  117.31999969    2.75000000    2.05999994
   16.65916634  119.27400208    2.75000000    2.05999994
   16.66222191  117.00000000    2.75000000    2.05999994
   16.66555595  114.58699799    2.75000000    2.05999994
   16.67138863  114.58699799    2.75000000    2.05999994
   16.67555428  116.96399689    2.75000000    2.05999994
   16.67888832  131.08399963    2.75000000    2.05999994
   16.68194389  130.61199951    2.75000000    2.05999994
   16.68527603  122.63700104    2.75000000    2.05999994
   16.68861008  131.21000671    2.75000000    2.05999994
   16.69166565  123.00700378    2.75000000    2.05999994
   16.69499969  123.17400360    2.75000000    2.05999994
   16.69805527  127.95400238    2.75000000    2.05999994
   16.70138931  118.12899780    2.75000000    2.05999994
   16.70472336  122.77400208    2.75000000    2.05999994
   16.70639038  105.11199951    2.75000000    2.05999994
   16.70833397  130.31900024    2.75000000    2.05999994
   16.71416664  130.31900024    2.75000000    2.05999994
   16.71833420  131.72700500    2.75000000    2.05999994
   16.72166634  124.69999695    2.75000000    2.05999994
   16.72500038  127.43399811    2.75000000    2.05999994
   16.72805595  128.64599609    2.75000000    2.05999994
   16.73139000  130.29400635    2.75000000    2.05999994
   16.73472214  127.12400055    2.75000000    2.05999994
   16.73777771  114.16100311    2.75000000    2.05999994
   16.73972321  125.35600281    2.75000000    2.05999994
   16.74138832  125.45099640    2.75000000    2.05999994
   16.74444389  126.76599884    2.75000000    2.05999994
   16.74777794  133.45599365    2.75000000    2.05999994
   16.75111198  125.26499939    2.75000000    2.05999994
   16.75722313  125.26499939    2.75000000    2.05999994
   16.76138878  132.30200195    2.75000000    2.05999994
   16.76444435  118.72200012    2.75000000    2.05999994
   16.76777840  129.47399902    2.75000000    2.05999994
   16.77083397  122.17700195    2.75000000    2.05999994
   16.77333260  127.92500305    2.75000000    2.05999994
   16.77472115  142.72200012    2.75000000    2.05999994
   16.77777672  134.04299927    2.75000000    2.05999994
   16.78111076  141.19999695    2.75000000    2.05999994
   16.78416634  129.41299438    2.75000000    2.05999994
   16.78750038  128.76499939    2.75000000    2.05999994
   16.79083252  126.17199707    2.75000000    2.05999994
   16.79388809  132.30400085    2.75000000    2.05999994
   16.79999924  132.30400085    2.75000000    2.05999994
   16.80416679  127.33000183    2.75000000    2.05999994
   16.80666542  125.74700165    2.75000000    2.05999994
   16.80777740  130.47900391    2.75000000    2.05999994
   16.81083298  132.33900452    2.75000000    2.05999994
   16.81416512  122.65200043    2.75000000    2.05999994
   16.81722260  136.69099426    2.75000000    2.05999994
   16.82055664  128.52099609    2.75000000    2.05999994
   16.82389069  138.13999939    2.75000000    2.05999994
   16.82694626  123.73799896    2.75000000    2.05999994
   16.83027840  131.51699829    2.75000000    2.05999994
   16.83361244  126.33499908    2.75000000    2.05999994
   16.83666801  126.63099670    2.75000000    2.05999994
   16.84277916  126.63099670    2.75000000    2.05999994
   16.84694481  129.70399475    2.75000000    2.05999994
   16.85027885  126.81600189    2.75000000    2.05999994
   16.85333443  123.43499756    2.75000000    2.05999994
   16.85666656  123.12200165    2.75000000    2.05999994
   16.86000061  122.67299652    2.75000000    2.05999994
   16.86305618  125.31999969    2.75000000    2.05999994
   16.86638832  122.99600220    2.75000000    2.05999994
   16.86944389  125.77999878    2.75000000    2.05999994
   16.87277794  125.08100128    2.75000000    2.05999994
   16.87361145  131.53700256    2.75000000    2.05999994
   16.87638855  122.46399689    2.75000000    2.05999994
   16.87972260  129.31100464    2.75000000    2.05999994
   16.88555527  129.31100464    2.75000000    2.05999994
   16.88972282  124.41500092    2.75000000    2.05999994
   16.89305496  134.17999268    2.75000000    2.05999994
   16.89638901  124.28500366    2.75000000    2.05999994
   16.89972115  128.93299866    2.75000000    2.05999994
   16.90277672  122.45800018    2.75000000    2.05999994
   16.90611076  133.61199951    2.75000000    2.05999994
   16.90694427  131.30599976    2.75000000    2.05999994
   16.90972137  134.52000427    2.75000000    2.05999994
   16.91305542  132.41999817    2.75000000    2.05999994
   16.91611099  140.71299744    2.75000000    2.05999994
   16.91944313  132.56100464    2.75000000    2.05999994
   16.92277718  124.83200073    2.75000000    2.05999994
   16.92860985  124.83200073    2.75000000    2.05999994
   16.93277740  126.39399719    2.75000000    2.05999994
   16.93583298  133.78300476    2.75000000    2.05999994
   16.93916512  128.01199341    2.75000000    2.05999994
   16.94055557  132.50500488    2.75000000    2.05999994
   16.94277763  127.48999786    2.75000000    2.05999994
   16.94583321  133.84399414    2.75000000    2.05999994
   16.94916534  142.69000244    2.75000000    2.05999994
   16.95250130  138.26600647    2.75000000    2.05999994
   16.95555687  135.17500305    2.75000000    2.05999994
   16.95888901  131.94000244    2.75000000    2.05999994
   16.96222305  143.46400452    2.75000000    2.05999994
   16.96527863  140.09199524    2.75000000    2.05999994
   16.97138977  140.09199524    2.75000000    2.05999994
   16.98972321  141.73399353    2.75000000    2.05999994
   16.99305534  132.68299866    2.75000000    2.05999994
   16.99611092  128.07299805    2.75000000    2.05999994
   16.99944496  134.55900574    2.75000000    2.05999994
   17.00277710  133.91799927    2.75000000    2.05999994
   17.00583267  129.45500183    2.75000000    2.05999994
   17.00916672  134.94400024    2.75000000    2.05999994
   17.01444435  134.94400024    2.75000000    2.05999994
   17.01861000  126.73300171    2.75000000    2.05999994
   17.02166557  132.24699402    2.75000000    2.05999994
   17.02277756  123.89600372    2.75000000    2.05999994
   17.02555466  128.99899292    2.75000000    2.05999994
   17.02861023  143.17900085    2.75000000    2.05999994
   17.03194427  133.05799866    2.75000000    2.05999994
   17.03499985  131.70199585    2.75000000    2.05999994
   17.03833199  134.59700012    2.75000000    2.05999994
   17.04166603  135.53100586    2.75000000    2.05999994
   17.04472160  127.52100372    2.75000000    2.05999994
   17.04805565  134.74099731    2.75000000    2.05999994
   17.05138779  132.83599854    2.75000000    2.05999994
   17.05722237  132.83599854    2.75000000    2.05999994
   17.06138802  128.53300476    2.75000000    2.05999994
   17.06472206  126.62999725    2.75000000    2.05999994
   17.06777954  132.18899536    2.75000000    2.05999994
   17.07111168  124.49700165    2.75000000    2.05999994
   17.07444572  121.02200317    2.75000000    2.05999994
   17.07750130  119.88800049    2.75000000    2.05999994
   17.08083344  135.79899597    2.75000000    2.05999994
   17.08388901  130.69700623    2.75000000    2.05999994
   17.08722305  126.33100128    2.75000000    2.05999994
   17.08944511  127.63999939    2.75000000    2.05999994
   17.09055710  130.83099365    2.75000000    2.05999994
   17.09388924  124.55599976    2.75000000    2.05999994
   17.10000038  124.55599976    2.75000000    2.05999994
   17.10416794  150.93200684    2.75000000    2.05999994
   17.10750008  124.19899750    2.75000000    2.05999994
   17.11055565  150.69500732    2.75000000    2.05999994
   17.11388969  132.90400696    2.75000000    2.05999994
   17.11722183  144.28999329    2.75000000    2.05999994
   17.12027740  144.66799927    2.75000000    2.05999994
   17.12277794  140.22900391    2.75000000    2.05999994
   17.12416649  147.99699402    2.75000000    2.05999994
   17.12722206  142.25399780    2.75000000    2.05999994
   17.13055611  136.12300110    2.75000000    2.05999994
   17.13361168  140.34599304    2.75000000    2.05999994
   17.13694382  133.33900452    2.75000000    2.05999994
   17.14305496  133.33900452    2.75000000    2.05999994
   17.14694405  125.71299744    2.75000000    2.05999994
   17.15027809  131.65299988    2.75000000    2.05999994
   17.15361023  127.45899963    2.75000000    2.05999994
   17.15611076  139.20500183    2.75000000    2.05999994
   17.15722275  134.77600098    2.75000000    2.05999994
   17.16027832  138.40400696    2.75000000    2.05999994
   17.16361046  120.15799713    2.75000000    2.05999994
   17.16694450  136.41600037    2.75000000    2.05999994
   17.17000008  133.44200134    2.75000000    2.05999994
   17.17333221  137.67399597    2.75000000    2.05999994
   17.17666626  119.46900177    2.75000000    2.05999994
   17.17972183  133.35200500    2.75000000    2.05999994
   17.18583298  133.35200500    2.75000000    2.05999994
   17.18999863  129.03799438    2.75000000    2.05999994
   17.19305420  131.98100281    2.75000000    2.05999994
   17.19638824  122.71199799    2.75000000    2.05999994
   17.19972038  131.57800293    2.75000000    2.05999994
   17.20277786  122.58999634    2.75000000    2.05999994
   17.20611191  122.59999847    2.75000000    2.05999994
   17.20916748  124.53800201    2.75000000    2.05999994
   17.21250153  136.10200500    2.75000000    2.05999994
   17.21583366  126.20800018    2.75000000    2.05999994
   17.21888924  126.11199951    2.75000000    2.05999994
   17.22222328  124.81600189    2.75000000    2.05999994
   17.22277832  126.64099884    2.75000000    2.05999994
   17.22861099  126.64099884    2.75000000    2.05999994
   17.23277855  119.72799683    2.75000000    2.05999994
   17.23611069  111.92099762    2.75000000    2.05999994
   17.23916626  119.33300018    2.75000000    2.05999994
   17.24250031  113.38600159    2.75000000    2.05999994
   17.24555588  117.95200348    2.75000000    2.05999994
   17.24888992  121.38300323    2.75000000    2.05999994
   17.25222206  122.90000153    2.75000000    2.05999994
   17.25527763  113.97699738    2.75000000    2.05999994
   17.25611115  109.66899872    2.75000000    2.05999994
   17.25916672  170.24299622    2.75000000    2.05999994
   17.26222229  122.99900055    2.75000000    2.05999994
   17.26555634  120.89199829    2.75000000    2.05999994
   17.27166557  120.89199829    2.75000000    2.05999994
   17.27555466  104.11499786    2.75000000    2.05999994
   17.27888870  121.19000244    2.75000000    2.05999994
   17.28222275  112.15699768    2.75000000    2.05999994
   17.28527641  118.36000061    2.75000000    2.05999994
   17.28861046  109.23500061    2.75000000    2.05999994
   17.28944397  118.22200012    2.75000000    2.05999994
   17.29222107  113.47399902    2.75000000    2.05999994
   17.29555511  114.61199951    2.75000000    2.05999994
   17.29861069  122.01699829    2.75000000    2.05999994
   17.30194283  110.66799927    2.75000000    2.05999994
   17.30499840  112.79799652    2.75000000    2.05999994
   17.30833244  122.32399750    2.75000000    2.05999994
   17.31444359  122.32399750    2.75000000    2.05999994
   17.31861115  112.23200226    2.75000000    2.05999994
   17.32166672  123.35199738    2.75000000    2.05999994
   17.32277870  111.51599884    2.75000000    2.05999994
   17.32527924  113.05799866    2.75000000    2.05999994
   17.32861137  123.41999817    2.75000000    2.05999994
   17.33166695  115.73799896    2.75000000    2.05999994
   17.33500099  120.72499847    2.75000000    2.05999994
   17.33805656  117.87599945    2.75000000    2.05999994
   17.34138870  109.98999786    2.75000000    2.05999994
   17.34444427  113.14099884    2.75000000    2.05999994
   17.34777832  127.39900208    2.75000000    2.05999994
   17.35111237  118.32599640    2.75000000    2.05999994
   17.35722351  118.32599640    2.75000000    2.05999994
   17.36138916  114.15899658    2.75000000    2.05999994
   17.36444473  107.58499908    2.75000000    2.05999994
   17.36777878  117.24800110    2.75000000    2.05999994
   17.37111092  117.59999847    2.75000000    2.05999994
   17.37416649  119.10700226    2.75000000    2.05999994
   17.37750053  115.04599762    2.75000000    2.05999994
   17.38055611  121.56900024    2.75000000    2.05999994
   17.38388824  122.74099731    2.75000000    2.05999994
   17.38722229  120.43499756    2.75000000    2.05999994
   17.38944435  202.50199890    2.75000000    2.05999994
   17.39083290  151.82899475    2.75000000    2.05999994
   17.39388847  197.85600281    2.75000000    2.05999994
   17.39999962  197.85600281    2.75000000    2.05999994
   17.40416718  119.89600372    2.75000000    2.05999994
   17.40722275  131.41900635    2.75000000    2.05999994
   17.41055489  132.56100464    2.75000000    2.05999994
   17.41388893  116.23600006    2.75000000    2.05999994
   17.41694450  128.55900574    2.75000000    2.05999994
   17.42027664  127.22200012    2.75000000    2.05999994
   17.42277718  111.53500366    2.75000000    2.05999994
   17.42388916  131.85299683    2.75000000    2.05999994
   17.42694473  122.54299927    2.75000000    2.05999994
   17.43027687  114.21600342    2.75000000    2.05999994
   17.43361092  129.86199951    2.75000000    2.05999994
   17.43666649  114.21299744    2.75000000    2.05999994
   17.44277763  114.21299744    2.75000000    2.05999994
   17.44694328  114.77600098    2.75000000    2.05999994
   17.45027924  105.35199738    2.75000000    2.05999994
   17.45333481  110.49199677    2.75000000    2.05999994
   17.45611191  109.17700195    2.75000000    2.05999994
   17.45722389  112.11900330    2.75000000    2.05999994
   17.46027946  106.40299988    2.75000000    2.05999994
   17.46361160  115.78700256    2.75000000    2.05999994
   17.46694565  114.77100372    2.75000000    2.05999994
   17.47000122  115.21900177    2.75000000    2.05999994
   17.47333336  108.64900208    2.75000000    2.05999994
   17.47638893  116.79900360    2.75000000    2.05999994
   17.47972298  108.85900116    2.75000000    2.05999994
   17.48583412  108.85900116    2.75000000    2.05999994
   17.48972321  121.63400269    2.75000000    2.05999994
   17.49305534  120.91200256    2.75000000    2.05999994
   17.49638939  107.89900208    2.75000000    2.05999994
   17.49972153  121.73400116    2.75000000    2.05999994
   17.50277710  158.85000610    2.75000000    2.05999994
   17.50611115  134.72300720    2.75000000    2.05999994
   17.50944519  125.82499695    2.75000000    2.05999994
   17.51250076  147.78599548    2.75000000    2.05999994
   17.51583290  159.86000061    2.75000000    2.05999994
   17.51916695  133.27799988    2.75000000    2.05999994
   17.52222252  144.16000366    2.75000000    2.05999994
   17.52277756  144.08999634    2.75000000    2.05999994
   17.52861023  144.08999634    2.75000000    2.05999994
   17.53277779  124.12699890    2.75000000    2.05999994
   17.53610992  117.01999664    2.75000000    2.05999994
   17.53916550  127.15000153    2.75000000    2.05999994
   17.54249954  123.31800079    2.75000000    2.05999994
   17.54583359  111.01300049    2.75000000    2.05999994
   17.54888916  113.76699829    2.75000000    2.05999994
   17.55222130  117.75800323    2.75000000    2.05999994
   17.55527687  120.35299683    2.75000000    2.05999994
   17.55611038  131.33999634    2.75000000    2.05999994
   17.55888748  118.05000305    2.75000000    2.05999994
   17.56222153  135.23599243    2.75000000    2.05999994
   17.56527710  118.05799866    2.75000000    2.05999994
   17.57139015  118.05799866    2.75000000    2.05999994
   17.57555580   -1.00000000    2.75000000    2.05999994
   17.57888985   -1.00000000    2.75000000    2.05999994
   17.58194542   -1.00000000    2.75000000    2.05999994
   17.58527756   -1.00000000    2.75000000    2.05999994
   17.58861160  133.61399841    2.75000000    2.05999994
   17.59250069   -1.00000000    2.75000000    2.05999994
   17.59638977   -1.00000000    0.00000000    0.00000000
   17.60027885  153.25900269    0.00000000    0.00000000
   17.60416794   -1.00000000    0.00000000    0.00000000
