    HOUR (UT)   FLARE FACTOR    SKY TESTER    SUN TESTER
   12.27611065   -1.00000000   -1.00000000   -1.00000000
   12.30166721  353.62799072    1.83000004    0.47999999
   12.30472279  307.64199829    1.85000002    0.51999998
   12.30805588  320.56298828    1.91999996    0.51999998
   12.31111145  319.22000122    1.98000002    0.51999998
   12.31444454  406.37100220    2.03999996    0.50000000
   12.31638908  402.09799194    2.05999994    0.47999999
   12.31777763  395.67999268    2.07999992    0.47999999
   12.31916618  407.22299194    2.09999990    0.47999999
   12.32055569  395.25299072    2.13000011    0.47999999
   12.32194424  325.61099243    2.15000010    0.47999999
   12.32194424  307.64199829    1.85000002    0.51999998
   12.32194424  320.56298828    1.91999996    0.51999998
   12.32222176  319.22000122    1.98000002    0.51999998
   12.32222176  406.37100220    2.03999996    0.50000000
   12.32277775  324.50601196    2.15000010    0.50000000
   12.32583332  317.76501465    2.23000002    0.51999998
   12.32916641  290.11199951    2.30999994    0.52999997
   12.33222198  263.57998657    2.39000010    0.52999997
   12.33555508  266.64498901    2.48000002    0.55000001
   12.33888817  285.27099609    2.64000010    0.52999997
   12.34277725  285.27099609    2.80999994    0.52999997
   12.34694386  277.22399902    2.89000010    0.52999997
   12.35027790  303.26199341    2.91000009    0.51999998
   12.35333347  262.78799438    2.86999989    0.52999997
   12.35583401  256.25601196    2.82999992    0.55000001
   12.35694504  267.44198608    2.80999994    0.55000001
   12.36027813  257.34899902    2.71000004    0.55000001
   12.36333370  264.52999878    2.64000010    0.55000001
   12.36666679  231.64100647    2.57999992    0.56999999
   12.36972237  236.12100220    2.55999994    0.56999999
   12.37305546  236.27799988    2.57999992    0.56999999
   12.37638855  246.33799744    2.59999990    0.56999999
   12.37944412  236.77200317    2.64000010    0.56999999
   12.38583279  236.77200317    2.67000008    0.56999999
   12.38972187  248.18499756    2.59999990    0.55000001
   12.39305496  252.83099365    2.51999998    0.55000001
   12.39638901  241.85800171    2.40000010    0.56999999
   12.39944458  244.39799500    2.25000000    0.56999999
   12.40277767  240.58399963    2.15000010    0.56999999
   12.40583324  264.17001343    2.09999990    0.56999999
   12.40916634  264.66101074    2.05999994    0.55000001
   12.41249943  285.48999023    2.03999996    0.55000001
   12.41555500  308.35198975    2.03999996    0.55000001
   12.41888905  338.47698975    2.05999994    0.52999997
   12.42194462  344.67098999    2.15000010    0.51999998
   12.42250061  324.40100098    2.17000008    0.51999998
   12.42861176  324.40100098    2.42000008    0.55000001
   12.43277836  291.25000000    2.69000006    0.55000001
   12.43583298  258.45800781    2.84999990    0.55000001
   12.43916702  282.37799072    2.94000006    0.55000001
   12.44222260  271.58599854    3.01999998    0.55000001
   12.44555569  282.64401245    3.03999996    0.55000001
   12.44861126  358.05999756    4.90999985    2.15000010
   12.45194435  142.86099243    4.90999985    1.86000001
   12.45527744  134.27999878    4.90999985    1.26999998
   12.45583344  106.91799927    4.90999985    1.26999998
   12.45888901  157.44099426    4.90999985    1.48000002
   12.46194458  325.75900269    4.90999985    1.44000006
   12.46527767  347.61499023    4.90999985    1.44000006
   12.47138882  347.61499023    4.90999985    2.05999994
   12.47555542  405.73498535    4.90999985    1.91999996
   12.47749996  444.20199585    4.90999985    1.88000000
   12.47888851  462.57101440    4.90999985    1.83000004
   12.48027706  435.45800781    4.90999985    1.85000002
   12.48166656  408.63500977    4.90999985    1.85000002
   12.48305511  457.18200684    4.90999985    1.80999994
   12.48444462  406.63299561    4.90999985    1.76999998
   12.48583317  408.35598755    4.90999985    1.75000000
   12.48722267  376.06399536    4.90999985    1.76999998
   12.48861122  399.80200195    4.90999985    1.78999996
   12.49000072  281.04400635    4.90999985    1.80999994
   12.49000072  157.44099426    4.90999985    1.48000002
   12.49000072  325.75900269    4.90999985    1.44000006
   12.49000072  347.61499023    4.90999985    1.44000006
   12.49027824  405.73498535    4.90999985    1.91999996
   12.49027824  271.58599854    3.01999998    0.55000001
   12.49027824  282.64401245    3.03999996    0.55000001
   12.49055576  358.05999756    4.90999985    2.15000010
   12.49055576  142.86099243    4.90999985    1.86000001
   12.49055576  134.27999878    4.90999985    1.26999998
   12.49111176  228.63600159    4.90999985    1.78999996
   12.49444485  356.88699341    4.90999985    1.76999998
   12.49750042  142.66099548    4.90999985    1.69000006
   12.50083351  140.75900269    4.90999985    1.53999996
   12.50388908   78.23639679    4.90999985    1.39999998
   12.51055527   78.23639679    4.90999985    1.91999996
   12.51472187  270.66101074    4.90999985    2.15000010
   12.51805496  315.78399658    4.90999985    2.13000011
   12.52111053  276.14001465    4.90999985    2.11999989
   12.52361107  309.37500000    4.90999985    2.09999990
   12.52472210  280.68099976    4.90999985    2.09999990
   12.52805519  314.08499146    4.90999985    2.03999996
   12.53111076  342.21099854    4.90999985    2.00000000
   12.53444481  343.89599609    4.90999985    1.96000004
   12.53750038  334.42401123    4.90999985    2.00000000
   12.54083347  358.08499146    4.90999985    2.01999998
   12.54388905  382.39199829    4.90999985    2.03999996
   12.54722309  312.69100952    4.90999985    2.03999996
   12.55361176  312.69100952    4.90999985    1.94000006
   12.55749989  422.89801025    4.90999985    1.88000000
   12.55972195  532.60998535    4.90999985    1.89999998
   12.56083393  445.77200317    4.90999985    1.94000006
   12.56222248  355.93600464    4.90999985    2.00000000
   12.56361103  418.92700195    4.90999985    2.01999998
   12.56500053  413.24899292    4.90999985    2.05999994
   12.56638908  324.66500854    4.90999985    2.09999990
   12.56638908  314.08499146    4.90999985    2.03999996
   12.56666660  342.21099854    4.90999985    2.00000000
   12.56666660  343.89599609    4.90999985    1.96000004
   12.56666660  334.42401123    4.90999985    2.00000000
   12.56666660  358.08499146    4.90999985    2.01999998
   12.56666660  382.39199829    4.90999985    2.03999996
   12.56694412  312.69100952    4.90999985    2.03999996
   12.56694412  422.89801025    4.90999985    1.88000000
   12.56694412  280.68099976    4.90999985    2.09999990
   12.56750011  315.43600464    4.90999985    2.11999989
   12.57083321  448.66198730    4.90999985    2.09999990
   12.57277775  421.82000732    4.90999985    2.05999994
   12.57416630  355.86700439    4.90999985    2.05999994
   12.57555580  388.46200562    4.90999985    2.07999992
   12.57694435  399.45401001    4.90999985    2.07999992
   12.57833290  414.56201172    4.90999985    2.09999990
   12.57972240  425.15499878    4.90999985    2.09999990
   12.58111095  333.24398804    4.90999985    2.11999989
   12.58111095  315.43600464    4.90999985    2.11999989
   12.58111095  448.66198730    4.90999985    2.09999990
   12.58166695  386.14199829    4.90999985    2.11999989
   12.58500004  510.27398682    4.90999985    2.09999990
   12.58694458  446.51199341    4.90999985    2.03999996
   12.58805561  385.65798950    4.90999985    2.05999994
   12.58944416  412.45498657    4.90999985    2.11999989
   12.59083271  388.03698730    4.90999985    2.15000010
   12.59222221  410.98699951    4.90999985    2.17000008
   12.59361076  328.54000854    4.90999985    2.17000008
   12.59388828  386.14199829    4.90999985    2.11999989
   12.59388828  510.27398682    4.90999985    2.09999990
   12.59444427  357.54098511    4.90999985    2.17000008
   12.59777737  351.44900513    4.90999985    2.13000011
   12.60083389  432.25799561    4.90999985    2.09999990
   12.60277843  333.84100342    4.90999985    2.07999992
   12.60277843  357.54098511    4.90999985    2.17000008
   12.60305595  351.44900513    4.90999985    2.13000011
   12.60305595  432.25799561    4.90999985    2.09999990
   12.60472298  376.58801270    4.90999985    2.05999994
   12.60777855  427.24398804    4.90999985    2.01999998
   12.60972214  382.05999756    4.90999985    2.01999998
   12.61111164  388.39001465    4.90999985    2.07999992
   12.61250019  400.55899048    4.90999985    2.09999990
   12.61388969  377.82400513    4.90999985    2.09999990
   12.61527824  434.93399048    4.90999985    2.07999992
   12.61666679  391.99499512    4.90999985    2.05999994
   12.61805534  336.66299438    4.90999985    2.07999992
   12.61805534  376.58801270    4.90999985    2.05999994
   12.61833382  427.24398804    4.90999985    2.01999998
   12.61888885  340.82998657    4.90999985    2.15000010
   12.62222195  277.98999023    4.90999985    2.28999996
   12.62555599  296.66598511    4.90999985    2.28999996
   12.62861156  313.72500610    4.90999985    2.30999994
   12.63194466  330.92401123    4.90999985    2.28999996
   12.63527775  322.87899780    4.90999985    2.32999992
   12.63916683  322.87899780    4.90999985    2.30999994
   12.64333344  288.60501099    4.90999985    2.28999996
   12.64666653  301.41699219    4.90999985    2.26999998
   12.64972210  330.69299316    4.90999985    2.25000000
   12.65194416  342.97100830    4.90999985    2.21000004
   12.65333271  278.38400269    4.90999985    2.21000004
   12.65638828  280.02200317    4.90999985    2.19000006
   12.65972137  310.50799561    4.90999985    2.17000008
   12.66277695  339.65899658    4.90999985    2.15000010
   12.66611099  298.79501343    4.90999985    2.19000006
   12.66916656  274.96301270    4.90999985    2.19000006
   12.67277813  271.84899902    4.90999985    2.21000004
   12.67611122  263.23498535    4.90999985    2.21000004
   12.68222237  263.23498535    4.90999985    2.26999998
   12.68611145  277.67199707    4.90999985    2.26999998
   12.68944454  272.69299316    4.90999985    2.32999992
   12.69250011  250.70899963    4.57999992    2.30999994
   12.69583321  292.34799194    4.07999992    2.30999994
   12.70027733  246.84399414    3.51999998    2.34999990
   12.70361137  255.06900024    3.18000007    2.34999990
   12.70666695  244.73800659    2.84999990    2.34999990
   12.71000004  245.69000244    2.40000010    2.34999990
   12.71305561  254.31300354    2.30999994    2.34999990
   12.71638870  248.85200500    2.40000010    2.36999989
   12.71861076  251.64799500    2.42000008    2.36999989
   12.71999931  222.52099609    2.42000008    2.36999989
   12.72527695  222.52099609    2.07999992    2.39000010
   12.72944355  264.58200073    4.90999985    2.44000006
   12.73249912  240.93499756    4.90999985    2.44000006
   12.73583317  246.25900269    4.90999985    2.39000010
   12.73916721  238.55900574    4.90999985    2.40000010
   12.74222279  268.31399536    4.90999985    2.44000006
   12.74555588  232.81399536    4.90999985    2.44000006
   12.74861145  203.64599609    4.90999985    2.44000006
   12.75194454  227.38499451    4.90999985    2.46000004
   12.75249958  256.70199585    4.90999985    2.46000004
   12.75555515  217.30999756    4.90999985    2.46000004
   12.75888920  221.34399414    4.90999985    2.42000008
   12.76194477  215.13800049    4.90999985    2.42000008
   12.76805496  215.13800049    4.90999985    2.39000010
   12.77222157  231.53199768    4.90999985    2.39000010
   12.77527714  222.59399414    4.90999985    2.44000006
   12.77861118  227.71000671    4.90999985    2.44000006
   12.78194427  223.87300110    4.90999985    2.42000008
   12.78527832  228.86099243    4.90999985    2.30999994
   12.78555584  224.56100464    4.90999985    2.30999994
   12.78888893  218.40400696    4.90999985    2.44000006
   12.79222298  191.88299561    4.90999985    2.44000006
   12.79527855  212.76699829    4.90999985    2.44000006
   12.79861164  213.08700562    4.90999985    2.40000010
   12.80166721  219.53999329    4.90999985    2.40000010
   12.80500031  220.31199646    4.90999985    2.42000008
   12.81083393  220.31199646    4.90999985    2.40000010
   12.81500053  223.13800049    4.90999985    2.39000010
   12.81833363  204.92300415    4.90999985    2.42000008
   12.81888866  209.26600647    4.90999985    2.44000006
   12.82194424  214.42199707    4.90999985    2.46000004
   12.82527733  199.62699890    4.90999985    2.46000004
   12.82833290  206.82000732    4.90999985    2.44000006
   12.83166695  212.31700134    4.90999985    2.44000006
   12.83472157  210.20300293    4.90999985    2.46000004
   12.83805561  236.65600586    4.90999985    2.42000008
   12.84111118  212.29699707    4.90999985    2.44000006
   12.84444427  213.48300171    4.90999985    2.46000004
   12.84777737  212.22200012    4.90999985    2.46000004
   12.85388947  212.22200012    4.90999985    2.44000006
   12.85777855  209.30400085    4.90999985    2.48000002
   12.86111164  198.41499329    4.90999985    2.50000000
   12.86416721  205.47900391    4.90999985    2.46000004
   12.86750031  201.93699646    4.90999985    2.48000002
   12.87083340  193.15299988    4.90999985    2.48000002
   12.87388897  199.61799622    4.90999985    2.48000002
   12.87722206  199.81399536    4.90999985    2.50000000
   12.88027763  195.44900513    4.90999985    2.48000002
   12.88361073  209.56500244    4.90999985    2.50000000
   12.88555527  200.57600403    4.90999985    2.50000000
   12.88722229  206.59899902    4.90999985    2.50000000
   12.89055538  203.21200562    4.90999985    2.48000002
   12.89666653  203.21200562    4.90999985    2.39000010
   12.90083313  204.77499390    4.90999985    2.40000010
   12.90388870  194.89700317    4.90999985    2.48000002
   12.90722179  205.31799316    4.90999985    2.44000006
   12.91027737  220.58799744    4.90999985    2.42000008
   12.91361046  218.61900330    4.90999985    2.40000010
   12.91666698  258.46398926    4.90999985    2.30999994
   12.91916656  243.53599548    4.90999985    2.28999996
   12.92027855  233.86199951    4.90999985    2.30999994
   12.92361164  246.41499329    4.90999985    2.26999998
   12.92666721  284.34399414    4.90999985    2.25000000
   12.93000031  232.56900024    4.90999985    2.17000008
   12.93305588  258.92700195    4.90999985    2.21000004
   12.93944454  258.92700195    4.90999985    2.32999992
   12.94361115  215.40199280    4.90999985    2.40000010
   12.94666672  219.22999573    4.90999985    2.40000010
   12.94999981  241.17700195    4.90999985    2.40000010
   12.95249939  220.67799377    4.90999985    2.42000008
   12.95361137  215.03900146    4.90999985    2.42000008
   12.95694447  217.46099854    4.90999985    2.46000004
   12.96000004  212.60200500    4.90999985    2.46000004
   12.96333313  210.37800598    4.90999985    2.50000000
   12.96638870  207.89799500    4.90999985    2.51999998
   12.96972179  217.05599976    4.90999985    2.51999998
   12.97305489  213.02799988    4.90999985    2.51999998
   12.97611046  207.59700012    4.90999985    2.51999998
   12.98222160  207.59700012    4.90999985    2.51999998
   12.98638916  204.09599304    4.90999985    2.48000002
   12.98972225  216.02000427    4.90999985    2.46000004
   12.99277782  218.42199707    4.90999985    2.44000006
   12.99611092  223.27400208    4.90999985    2.42000008
   12.99916649  228.57200623    4.90999985    2.44000006
   13.00249958  209.94599915    4.90999985    2.46000004
   13.00583363  235.99000549    4.90999985    2.40000010
   13.00888920  268.52999878    4.90999985    2.30999994
   13.01222229  302.74899292    4.90999985    2.19000006
   13.01527786  285.68899536    4.90999985    2.15000010
   13.01861095  290.32800293    4.90999985    2.13000011
   13.01916599  315.44500732    4.90999985    2.13000011
   13.02527714  315.44500732    4.90999985    2.03999996
   13.02916622  309.13598633    4.90999985    2.15000010
   13.03249931  307.85900879    4.90999985    2.17000008
   13.03583336  263.21301270    4.90999985    2.19000006
   13.03888893  291.18200684    4.90999985    2.28999996
   13.04222298  256.35998535    4.90999985    2.30999994
   13.04527855  238.09800720    4.90999985    2.34999990
   13.04861164  262.80599976    4.90999985    2.36999989
   13.05166721  247.92300415    4.90999985    2.36999989
   13.05249977  232.37199402    4.90999985    2.39000010
   13.05527782  228.85400391    4.90999985    2.32999992
   13.05861092  231.60099792    4.90999985    2.36999989
   13.06166649  229.10099792    4.90999985    2.48000002
   13.06805515  229.10099792    4.90999985    2.53999996
   13.07222176  199.94400024    4.90999985    2.53999996
   13.07527733  232.00300598    4.90999985    2.53999996
   13.07861137  213.65499878    4.90999985    2.53999996
   13.08166695  201.84300232    4.90999985    2.53999996
   13.08500004  188.29899597    4.90999985    2.53999996
   13.08583260  208.78799438    4.90999985    2.53999996
   13.08861065  183.65699768    4.90999985    2.53999996
   13.09194374  206.44400024    4.90999985    2.51999998
   13.09499931  200.09399414    4.90999985    2.50000000
   13.09833336  175.62100220    4.90999985    2.51999998
   13.10138893  179.07000732    4.90999985    2.53999996
   13.10472298  185.94099426    4.90999985    2.50000000
   13.11083412  185.94099426    4.90999985    2.48000002
   13.11500072  202.27799988    4.90999985    2.46000004
   13.11833382  263.00299072    4.90999985    2.28999996
   13.11916637  293.39199829    4.90999985    2.19000006
   13.12166691  201.00999451    4.90999985    2.09999990
   13.12500000  176.25599670    4.90999985    2.39000010
   13.12805557  192.16600037    4.90999985    2.40000010
   13.13138866  213.18800354    4.90999985    2.48000002
   13.13472176  197.39700317    4.90999985    2.50000000
   13.13777733  203.04699707    4.90999985    2.46000004
   13.14111137  193.99200439    4.90999985    2.40000010
   13.14416695  212.29100037    4.90999985    2.44000006
   13.14750004  189.33099365    4.90999985    2.42000008
   13.15361118  189.33099365    4.90999985    2.34999990
   13.15777779  199.32200623    4.90999985    2.30999994
   13.16111088  207.08999634    4.90999985    2.40000010
   13.16416645  199.93200684    4.90999985    2.46000004
   13.16750050  191.30799866    4.90999985    2.48000002
   13.17055607  184.73599243    4.90999985    2.48000002
   13.17388916  174.01800537    4.90999985    2.53999996
   13.17722225  184.15299988    4.90999985    2.53999996
   13.18027782  178.72700500    4.90999985    2.53999996
   13.18361092  191.20700073    4.90999985    2.55999994
   13.18583298  176.87500000    4.90999985    2.55999994
   13.18694496  164.53500366    4.90999985    2.53999996
   13.19027805  179.09500122    4.90999985    2.55999994
   13.19666672  179.09500122    4.90999985    2.55999994
   13.20055580  170.96499634    4.90999985    2.55999994
   13.20388889  178.11700439    4.90999985    2.53999996
   13.20722198  179.64500427    4.90999985    2.53999996
   13.21027756  172.37199402    4.90999985    2.53999996
   13.21361065  170.52699280    4.90999985    2.55999994
   13.21666622  182.01899719    4.90999985    2.51999998
   13.21916580  176.14599609    4.90999985    2.50000000
   13.22027779  186.78399658    4.90999985    2.51999998
   13.22361088  192.43699646    4.90999985    2.51999998
   13.22666645  184.36099243    4.90999985    2.51999998
   13.22999954  189.88200378    4.90999985    2.51999998
   13.23333359  179.80599976    4.90999985    2.53999996
   13.23944473  179.80599976    4.90999985    2.48000002
   13.24361134  184.82699585    4.90999985    2.44000006
   13.24666691  184.92700195    4.90999985    2.42000008
   13.25000000  173.05000305    4.90999985    2.50000000
   13.25249958  170.56300354    4.90999985    2.50000000
   13.25333309  170.07899475    4.90999985    2.48000002
   13.25666714  171.22300720    4.90999985    2.51999998
   13.25972176  170.67700195    4.90999985    2.51999998
   13.26305580  163.02799988    4.90999985    2.51999998
   13.26638889  170.75999451    4.90999985    2.53999996
   13.26944447  177.21400452    4.90999985    2.51999998
   13.27277756  171.49800110    4.90999985    2.53999996
   13.27583313  167.02699280    4.90999985    2.53999996
   13.28222179  167.02699280    4.90999985    2.55999994
   13.28638935  165.23199463    4.90999985    2.55999994
   13.28944492  184.40199280    4.90999985    2.55999994
   13.29277802  167.41799927    4.90999985    2.53999996
   13.29611111  183.75500488    4.90999985    2.51999998
   13.29916668  199.65199280    4.90999985    2.50000000
   13.31888866  289.59201050    4.90999985    2.21000004
   13.31944466  285.25799561    4.90999985    2.21000004
   13.32527733  285.25799561    4.90999985    2.19000006
   13.32944393  204.67700195    4.90999985    2.21000004
   13.33277798  181.08000183    4.90999985    2.44000006
   13.33583260  261.91598511    4.90999985    2.25000000
   13.33916664  182.58700562    4.90999985    2.30999994
   13.34222221  189.64799500    4.90999985    2.53999996
   13.34555531  177.35299683    4.90999985    2.57999992
   13.34861088  181.13200378    4.90999985    2.53999996
   13.35194492  190.31900024    4.90999985    2.50000000
   13.35277843  188.90499878    4.90999985    2.46000004
   13.35527802  183.83099365    4.90999985    2.51999998
   13.35861111  199.44200134    4.90999985    2.40000010
   13.36166668  188.94400024    4.90999985    2.42000008
   13.36805534  188.94400024    4.90999985    2.50000000
   13.37222195  165.46400452    4.90999985    2.42000008
   13.37555599  180.02600098    4.90999985    2.50000000
   13.37861156  177.66299438    4.90999985    2.53999996
   13.38194466  179.25700378    4.90999985    2.59999990
   13.38500023  189.48500061    4.90999985    2.59999990
   13.38611126  182.19799805    4.90999985    2.59999990
   13.38861084  177.12500000    4.90999985    2.61999989
   13.39194393  185.64100647    4.90999985    2.59999990
   13.39499950  182.06700134    4.90999985    2.57999992
   13.39833355  185.79899597    4.90999985    2.55999994
   13.40166664  194.19299316    4.90999985    2.55999994
   13.40472221  176.06300354    4.90999985    2.55999994
   13.41111088  176.06300354    4.90999985    2.61999989
   13.41527748  212.79600525    4.90999985    2.42000008
   13.41861153  254.23199463    4.90999985    2.32999992
   13.41944504  249.21400452    4.90999985    2.30999994
   13.42194462  265.71499634    4.90999985    2.26999998
   13.42527771  211.59899902    4.90999985    2.39000010
   13.42861176  230.38299561    4.90999985    2.51999998
   13.43166733  235.02799988    4.90999985    2.55999994
   13.43500042  230.61900330    4.90999985    2.48000002
   13.43805599  276.96600342    4.90999985    2.44000006
   13.44138908  245.11999512    4.90999985    2.44000006
   13.44472218  224.24499512    4.90999985    2.50000000
   13.44777775  221.97500610    4.90999985    2.55999994
   13.45416641  221.97500610    4.90999985    2.57999992
   13.45833302  204.88900757    4.90999985    2.59999990
   13.46166611  214.88800049    4.90999985    2.59999990
   13.46555519  229.26600647    4.90999985    2.57999992
   13.46972179  200.86799622    4.90999985    2.57999992
   13.47416592  195.94400024    4.90999985    2.53999996
   13.47805500  198.86199951    4.90999985    2.53999996
   13.48194408  251.87100220    4.90999985    2.53999996
   13.48527813  225.89700317    4.90999985    2.51999998
   13.48611164  205.07299805    4.90999985    2.51999998
   13.48861122  215.35899353    4.90999985    2.51999998
   13.49194431  209.97300720    4.90999985    2.50000000
   13.49722290  209.97300720    4.90999985    2.32999992
   13.50194454  226.72900391    4.90999985    2.46000004
   13.50500011  200.94500732    4.90999985    2.57999992
   13.50833321  204.79499817    4.90999985    2.57999992
   13.51138878  212.97300720    4.90999985    2.57999992
   13.51472187  230.96000671    4.90999985    2.50000000
   13.51805496  239.52799988    4.90999985    2.40000010
   13.51944447  263.47900391    4.90999985    2.30999994
   13.52138901  256.66699219    4.90999985    2.28999996
   13.52472210  308.62100220    4.90999985    2.25000000
   13.52805519  507.13800049    4.90999985    2.11999989
   13.52999973  381.84201050    4.90999985    2.03999996
   13.53111076  244.52499390    4.90999985    1.98000002
   13.53138828  239.52799988    4.90999985    2.40000010
   13.53138828  256.66699219    4.90999985    2.28999996
   13.53138828  308.62100220    4.90999985    2.25000000
   13.53138828  507.13800049    4.90999985    2.11999989
   13.53138828  226.72900391    4.90999985    2.46000004
   13.53166676  200.94500732    4.90999985    2.57999992
   13.53166676  204.79499817    4.90999985    2.57999992
   13.53166676  212.97300720    4.90999985    2.57999992
   13.53166676  230.96000671    4.90999985    2.50000000
   13.53305531  429.81500244    4.90999985    1.86000001
   13.53527832  220.34300232    4.90999985    1.88000000
   13.53722286  514.51898193    4.90999985    1.78999996
   13.53944492  390.75201416    4.90999985    1.80999994
   13.54055595  330.42700195    4.90999985    2.01999998
   13.54055595  514.51898193    4.90999985    1.78999996
   13.54194450  275.98999023    4.90999985    2.05999994
   13.54500008  246.49899292    4.90999985    2.28999996
   13.54833412  237.00799561    4.90999985    2.32999992
   13.55166721  235.97799683    4.90999985    2.39000010
   13.55472279  231.25300598    4.90999985    2.39000010
   13.56138897  231.25300598    4.90999985    2.30999994
   13.56555557  218.85000610    4.90999985    2.42000008
   13.56888866  209.56100464    4.90999985    2.48000002
   13.57194424  232.67199707    4.90999985    2.36999989
   13.57444477  269.46701050    4.90999985    2.34999990
   13.57555580  253.36300659    4.90999985    2.32999992
   13.57861137  258.82800293    4.90999985    2.25000000
   13.58194447  245.35299683    4.90999985    2.19000006
   13.58527756  249.65499878    4.90999985    2.28999996
   13.58833313  282.31900024    4.90999985    2.25000000
   13.59166622  301.72100830    4.90999985    2.21000004
   13.59472179  271.18701172    4.90999985    2.28999996
   13.59805489  285.04199219    4.90999985    2.32999992
   13.60416698  285.04199219    4.90999985    2.39000010
   13.60833359  227.82499695    4.90999985    2.42000008
   13.61166668  249.40499878    4.90999985    2.39000010
   13.61500072  237.56199646    4.90999985    2.28999996
   13.61805534  283.20498657    4.90999985    2.28999996
   13.62138939  318.93099976    4.90999985    2.17000008
   13.62472248  496.32998657    4.90999985    2.28999996
   13.62722206  414.11099243    4.90999985    1.89999998
   13.62805557  336.18899536    4.90999985    2.05999994
   13.62805557  237.56199646    4.90999985    2.28999996
   13.62805557  283.20498657    4.90999985    2.28999996
   13.62805557  318.93099976    4.90999985    2.17000008
   13.62805557  496.32998657    4.90999985    2.28999996
   13.62833309  301.72100830    4.90999985    2.21000004
   13.62833309  271.18701172    4.90999985    2.28999996
   13.62833309  285.04199219    4.90999985    2.32999992
   13.62861156  227.82499695    4.90999985    2.42000008
   13.62861156  249.40499878    4.90999985    2.39000010
   13.63027763  304.35501099    4.90999985    2.13000011
   13.63333321  253.76800537    4.90999985    2.23000002
   13.63666630  295.83499146    4.90999985    2.23000002
   13.64000034  234.57600403    4.90999985    2.39000010
   13.64305496  225.33900452    4.90999985    2.46000004
   13.64861107  225.33900452    4.90999985    2.40000010
   13.65305519  236.21499634    4.90999985    2.51999998
   13.65611076  257.18099976    4.90999985    2.48000002
   13.65944386  377.89300537    4.90999985    2.03999996
   13.66194439  222.04400635    4.90999985    2.15000010
   13.66305542  215.10499573    4.90999985    2.26999998
   13.66638851  221.84199524    4.90999985    2.46000004
   13.66944504  215.94000244    4.90999985    2.44000006
   13.67277813  184.61500549    4.90999985    2.51999998
   13.67611122  248.12300110    4.90999985    2.44000006
   13.67916679  219.97799683    4.90999985    2.46000004
   13.68249989  263.25698853    4.90999985    2.46000004
   13.68555546  224.09599304    4.90999985    2.40000010
   13.69166660  224.09599304    4.90999985    2.51999998
   13.69583321  213.37600708    4.90999985    2.57999992
   13.69888878  203.30200195    4.90999985    2.50000000
   13.70222187  217.14900208    4.90999985    2.50000000
   13.70555496  232.74600220    4.90999985    2.51999998
   13.70861053  219.71800232    4.90999985    2.51999998
   13.71194458  253.06500244    4.90999985    2.44000006
   13.71500015  349.84698486    4.90999985    2.23000002
   13.71833324  427.03900146    4.90999985    1.98000002
   13.72027779  417.29400635    4.90999985    1.96000004
   13.72166634  339.02099609    4.90999985    1.96000004
   13.72166634  217.14900208    4.90999985    2.50000000
   13.72166634  232.74600220    4.90999985    2.51999998
   13.72166634  219.71800232    4.90999985    2.51999998
   13.72194386  253.06500244    4.90999985    2.44000006
   13.72194386  349.84698486    4.90999985    2.23000002
   13.72194386  427.03900146    4.90999985    1.98000002
   13.72194386  224.09599304    4.90999985    2.40000010
   13.72194386  213.37600708    4.90999985    2.57999992
   13.72222137  203.30200195    4.90999985    2.50000000
   13.72305489  363.28399658    4.90999985    2.01999998
   13.72611046  471.32000732    4.90999985    2.03999996
   13.72833252  477.63198853    4.90999985    2.01999998
   13.72944355  378.34899902    4.90999985    1.91999996
   13.73083305  447.28799438    4.90999985    1.75000000
   13.73222160  154.91200256    4.90999985    1.75000000
   13.73222160  363.28399658    4.90999985    2.01999998
   13.73249912  471.32000732    4.90999985    2.03999996
   13.73305511  204.85400391    4.90999985    1.85000002
   13.73611164  130.65199280    4.90999985    1.63000000
   13.73944473   38.24399948    4.90999985    1.55999994
   13.74277782   -1.00000000    4.90999985    1.46000004
   13.74583340   -1.00000000    4.90999985    1.07000005
   13.74916649   23.57019997    4.90999985    1.33000004
   13.75333309   23.57019997    4.90999985    1.53999996
   13.75749969  353.35800171    4.90999985    1.98000002
   13.76055527  263.57901001    4.90999985    2.15000010
   13.76388931  291.56201172    4.90999985    2.21000004
   13.76611137  248.25199890    4.90999985    2.28999996
   13.76749992  246.59800720    4.90999985    2.32999992
   13.77055550  234.42399597    4.90999985    2.32999992
   13.77388859  233.13000488    4.90999985    2.39000010
   13.77694416  256.14801025    4.90999985    2.28999996
   13.78027725  275.54199219    4.90999985    1.76999998
   13.78361130  218.31300354    4.90999985    2.42000008
   13.78666687  243.99499512    4.90999985    2.26999998
   13.79000092  223.72700500    4.90999985    2.28999996
   13.79611111  223.72700500    4.90999985    1.96000004
   13.80027771  303.30099487    4.90999985    2.01999998
   13.80361176  300.10501099    4.90999985    2.15000010
   13.80666733  320.07101440    4.90999985    2.23000002
   13.81000042  385.68499756    4.90999985    2.13000011
   13.81305599  108.03600311    4.90999985    1.76999998
   13.81638908   82.62010193    4.90999985    1.46000004
   13.81972218   61.37689972    4.90999985    1.66999996
   13.82277775   76.42960358    4.90999985    1.53999996
   13.82611084  220.25100708    4.90999985    1.76999998
   13.82944393   99.98239899    4.90999985    1.61000001
   13.83249950   -1.00000000    4.90999985    1.25000000
   13.83888817   -1.00000000    4.90999985    1.69000006
   13.84305477  352.34298706    4.90999985    1.96000004
   13.84638882  380.33200073    4.90999985    2.17000008
   13.84944439  246.08399963    4.90999985    2.13000011
   13.85277843  299.64401245    4.90999985    2.26999998
   13.85611153  288.10800171    4.90999985    2.19000006
   13.85916710  370.11999512    4.90999985    2.23000002
   13.86250019  410.65798950    4.90999985    1.98000002
   13.86444473  326.25201416    4.90999985    1.96000004
   13.86444473   -1.00000000    4.90999985    1.25000000
   13.86444473  352.34298706    4.90999985    1.96000004
   13.86472225  380.33200073    4.90999985    2.17000008
   13.86472225  246.08399963    4.90999985    2.13000011
   13.86472225  299.64401245    4.90999985    2.26999998
   13.86472225  288.10800171    4.90999985    2.19000006
   13.86500072  370.11999512    4.90999985    2.23000002
   13.86500072  410.65798950    4.90999985    1.98000002
   13.86500072   99.98239899    4.90999985    1.61000001
   13.86694431  172.84300232    4.90999985    1.85000002
   13.87027836  286.57598877    4.90999985    1.78999996
   13.87333393  432.41299438    4.90999985    1.96000004
   13.87527752  345.39001465    4.90999985    2.00000000
   13.87555599  172.84300232    4.90999985    1.85000002
   13.87555599  286.57598877    4.90999985    1.78999996
   13.87555599  432.41299438    4.90999985    1.96000004
   13.87750053  292.16500854    4.90999985    2.09999990
   13.88083363  287.66699219    4.90999985    2.03999996
   13.88388920  267.54598999    4.90999985    2.23000002
   13.88722229  436.16000366    4.90999985    2.23000002
   13.88916683  310.39099121    4.90999985    2.03999996
   13.88916683  292.16500854    4.90999985    2.09999990
   13.88944435  287.66699219    4.90999985    2.03999996
   13.88944435  267.54598999    4.90999985    2.23000002
   13.88944435  436.16000366    4.90999985    2.23000002
   13.89138889  321.62100220    4.90999985    2.13000011
   13.89472198  236.61900330    4.90999985    2.21000004
   13.89777756  206.89799500    4.90999985    2.34999990
   13.90111065  225.39700317    4.90999985    2.44000006
   13.90444374  248.41799927    4.90999985    2.36999989
   13.90999985  248.41799927    4.90999985    2.19000006
   13.91416645  436.45901489    4.90999985    2.03999996
   13.91611099  427.40701294    4.90999985    2.00000000
   13.91750050  367.48098755    4.90999985    2.00000000
   13.91888905  263.29901123    4.90999985    2.00000000
   13.91888905  321.62100220    4.90999985    2.13000011
   13.91888905  236.61900330    4.90999985    2.21000004
   13.91888905  206.89799500    4.90999985    2.34999990
   13.91888905  225.39700317    4.90999985    2.44000006
   13.91916656  248.41799927    4.90999985    2.36999989
   13.91916656  436.45901489    4.90999985    2.03999996
   13.91972256  370.94100952    4.90999985    1.91999996
   13.92305565  120.69899750    4.90999985    1.83000004
   13.92611122  199.38200378    4.90999985    1.75000000
   13.92944431  506.68301392    4.90999985    1.85000002
   13.93138885  314.58300781    4.90999985    2.00000000
   13.93138885  370.94100952    4.90999985    1.91999996
   13.93166733  120.69899750    4.90999985    1.83000004
   13.93166733  199.38200378    4.90999985    1.75000000
   13.93166733  506.68301392    4.90999985    1.85000002
   13.93361092  299.11401367    4.90999985    2.15000010
   13.93694496  458.90200806    4.90999985    2.11999989
   13.93888855  241.04100037    4.90999985    1.94000006
   13.93888855  299.11401367    4.90999985    2.15000010
   13.93888855  458.90200806    4.90999985    2.11999989
   13.94083309  169.07299805    4.90999985    1.78999996
   13.94416714  158.25199890    4.90999985    1.63000000
   13.94750023  222.29899597    4.90999985    1.64999998
   13.95055580  485.50000000    4.90999985    1.78999996
   13.95249939  432.71301270    4.90999985    1.88000000
   13.95388889  507.57400513    4.90999985    1.88000000
   13.95527744  421.40301514    4.90999985    1.94000006
   13.95666695  363.17700195    4.90999985    1.98000002
   13.95805550  342.86199951    4.90999985    2.09999990
   13.95805550  169.07299805    4.90999985    1.78999996
   13.95805550  158.25199890    4.90999985    1.63000000
   13.95833302  222.29899597    4.90999985    1.64999998
   13.95833302  485.50000000    4.90999985    1.78999996
   13.95888901  296.21099854    4.90999985    2.09999990
   13.96222210  271.15200806    4.90999985    2.21000004
   13.96527767  221.66600037    4.90999985    2.32999992
   13.96861076  275.75900269    4.90999985    2.32999992
   13.97166634  310.08499146    4.90999985    2.23000002
   13.97499943  304.59298706    4.90999985    2.15000010
   13.97916603  304.59298706    4.90999985    1.83000004
   13.98333359  321.41101074    4.90999985    2.15000010
   13.98638916  244.33799744    4.90999985    2.25000000
   13.98972225  229.74299622    4.90999985    2.42000008
   13.99194431  234.21899414    4.90999985    2.40000010
   13.99305534  215.93600464    4.90999985    2.42000008
   13.99638939  243.36199951    4.90999985    2.34999990
   13.99972248  224.54299927    4.90999985    2.36999989
   14.00277805  294.59600830    4.90999985    2.32999992
   14.00611115  252.73300171    4.90999985    2.25000000
   14.00944424  311.38000488    4.90999985    2.26999998
   14.01249981  198.43800354    4.90999985    2.00000000
   14.01583290  407.59100342    4.90999985    1.66999996
   14.01777744  384.01000977    4.90999985    1.96000004
   14.01916599  361.81500244    4.90999985    1.91999996
   14.02055550  225.29400635    4.90999985    1.88000000
   14.02055550  215.93600464    4.90999985    2.42000008
   14.02055550  243.36199951    4.90999985    2.34999990
   14.02055550  224.54299927    4.90999985    2.36999989
   14.02083302  294.59600830    4.90999985    2.32999992
   14.02083302  252.73300171    4.90999985    2.25000000
   14.02083302  311.38000488    4.90999985    2.26999998
   14.02083302  198.43800354    4.90999985    2.00000000
   14.02083302  407.59100342    4.90999985    1.66999996
   14.02083302  229.74299622    4.90999985    2.42000008
   14.02166653  341.90399170    4.90999985    1.86000001
   14.02472210  335.34600830    4.90999985    2.15000010
   14.02805519  225.84399414    4.90999985    2.19000006
   14.03111076  194.36599731    4.90999985    2.36999989
   14.03444481  240.79400635    4.90999985    2.34999990
   14.04111195  240.79400635    4.90999985    2.46000004
   14.04527855  228.53500366    4.90999985    2.48000002
   14.04861164  248.31500244    4.90999985    2.36999989
   14.05194473  214.23800659    4.90999985    2.40000010
   14.05416679  238.57800293    4.90999985    2.42000008
   14.05527782  230.38299561    4.90999985    2.40000010
   14.05861092  257.71200562    4.90999985    2.36999989
   14.06166649  268.45300293    4.90999985    2.28999996
   14.06500053  251.66000366    4.90999985    2.34999990
   14.06833363  262.09899902    4.90999985    2.28999996
   14.07138920  390.69900513    4.90999985    2.23000002
   14.07472229  489.48199463    4.90999985    2.00000000
   14.07666683  496.31698608    4.90999985    1.88000000
   14.07805538  408.35101318    4.90999985    1.91999996
   14.07944393  332.19400024    4.90999985    2.00000000
   14.07944393  257.71200562    4.90999985    2.36999989
   14.07944393  268.45300293    4.90999985    2.28999996
   14.07944393  251.66000366    4.90999985    2.34999990
   14.07944393  262.09899902    4.90999985    2.28999996
   14.07972240  390.69900513    4.90999985    2.23000002
   14.07972240  489.48199463    4.90999985    2.00000000
   14.07972240  248.31500244    4.90999985    2.36999989
   14.07972240  214.23800659    4.90999985    2.40000010
   14.07999992  230.38299561    4.90999985    2.40000010
   14.08055592  365.68499756    4.90999985    2.01999998
   14.08361053  244.49800110    4.90999985    2.07999992
   14.08694458  269.60800171    4.90999985    2.19000006
   14.09027767  191.42999268    4.90999985    2.28999996
   14.09333324  224.58200073    4.90999985    2.32999992
   14.10000038  224.58200073    4.90999985    2.26999998
   14.10416698  286.59899902    4.90999985    2.19000006
   14.10750008  300.48498535    4.90999985    2.19000006
   14.11083412  279.25201416    4.90999985    2.13000011
   14.11305618  283.76800537    4.90999985    2.15000010
   14.11416721  294.82299805    4.90999985    2.13000011
   14.11750031  259.14999390    4.90999985    2.17000008
   14.12055588  312.45300293    4.90999985    2.23000002
   14.12388897  348.86599731    4.90999985    2.09999990
   14.12722206  318.88299561    4.90999985    2.07999992
   14.13027763  307.97799683    4.90999985    2.15000010
   14.13361073  488.25399780    4.90999985    2.19000006
   14.13555527  436.66198730    4.90999985    1.94000006
   14.13694477  332.84399414    4.90999985    1.94000006
   14.13694477  259.14999390    4.90999985    2.17000008
   14.13694477  312.45300293    4.90999985    2.23000002
   14.13694477  348.86599731    4.90999985    2.09999990
   14.13694477  318.88299561    4.90999985    2.07999992
   14.13722229  307.97799683    4.90999985    2.15000010
   14.13722229  488.25399780    4.90999985    2.19000006
   14.13722229  300.48498535    4.90999985    2.19000006
   14.13722229  279.25201416    4.90999985    2.13000011
   14.13749981  294.82299805    4.90999985    2.13000011
   14.13861084  365.03601074    4.90999985    2.03999996
   14.14166641  254.16499329    4.90999985    2.07999992
   14.14499950  236.62600708    4.90999985    2.23000002
   14.14833355  233.04699707    4.90999985    2.40000010
   14.15138817  202.77299500    4.90999985    2.51999998
   14.15749931  202.77299500    4.90999985    2.57999992
   14.16166592  218.87100220    4.90999985    2.53999996
   14.16499996  204.48800659    4.90999985    2.57999992
   14.16833401  226.84899902    4.90999985    2.55999994
   14.17055607  222.33900452    4.90999985    2.51999998
   14.17166710  218.28999329    4.90999985    2.53999996
   14.17500019  203.42500305    4.90999985    2.57999992
   14.17805576  196.80299377    4.90999985    2.64000010
   14.18138885  190.63499451    4.90999985    2.59999990
   14.18472195  181.55599976    4.90999985    2.51999998
   14.18777752  169.54699707    4.90999985    2.59999990
   14.19111156  218.86999512    4.90999985    2.61999989
   14.19416714  239.52099609    4.90999985    2.50000000
   14.20055580  239.52099609    4.90999985    2.59999990
   14.20472240  221.55499268    4.90999985    2.48000002
   14.20777798  193.17700195    4.90999985    2.61999989
   14.21111107  194.09899902    4.90999985    2.61999989
   14.21416664  195.91200256    4.90999985    2.64000010
   14.21749973  208.10200500    4.90999985    2.64000010
   14.22083282  198.38900757    4.90999985    2.59999990
   14.22388840  211.86300659    4.90999985    2.59999990
   14.22722149  168.83500671    4.90999985    2.59999990
   14.23055553  182.29200745    4.90999985    2.64000010
   14.23361111  161.65400696    4.90999985    2.66000009
   14.23694515  196.13800049    4.90999985    2.69000006
   14.23750019  178.10699463    4.90999985    2.69000006
   14.24333382  178.10699463    4.90999985    2.69000006
   14.24750042  192.75199890    4.90999985    2.69000006
   14.25055599  188.80599976    4.90999985    2.69000006
   14.25388908  197.67599487    4.90999985    2.64000010
   14.25722218  195.35400391    4.90999985    2.61999989
   14.26027775  191.86500549    4.90999985    2.66000009
   14.26361084  185.07200623    4.90999985    2.66000009
   14.26694393  184.79600525    4.90999985    2.67000008
   14.26999950  150.94099426    4.90999985    2.69000006
   14.27083302  175.52900696    4.90999985    2.69000006
   14.27361107  166.65400696    4.90999985    2.69000006
   14.27694416  169.58599854    4.90999985    2.69000006
   14.28027725  185.82400513    4.90999985    2.67000008
   14.28611183  185.82400513    4.90999985    2.71000004
   14.29027843  199.19000244    4.90999985    2.71000004
   14.29361153  175.19000244    4.90999985    2.71000004
   14.29666710  196.80799866    4.90999985    2.69000006
   14.30000019  172.07099915    4.90999985    2.67000008
   14.30305576  167.83299255    4.90999985    2.69000006
   14.30416679  181.01100159    4.90999985    2.69000006
   14.30666733  366.90100098    4.90999985    2.69000006
   14.31000042  213.95199585    4.90999985    2.09999990
   14.31333351  231.71000671    4.90999985    2.13000011
   14.31638908  184.97500610    4.90999985    2.46000004
   14.33916664  184.97500610    4.90999985    2.69000006
   14.34333324  193.73699951    4.90999985    2.69000006
   14.34638882  182.26699829    4.90999985    2.66000009
   14.34972191  208.32499695    4.90999985    2.61999989
   14.35305595  220.79400635    4.90999985    2.50000000
   14.35611153  217.90400696    4.90999985    2.32999992
   14.35944462  218.20100403    4.90999985    2.28999996
   14.36277771  220.63400269    4.90999985    2.36999989
   14.36583328  389.53698730    4.90999985    2.26999998
   14.36916637  400.53298950    4.90999985    1.83000004
   14.37111092  529.97399902    4.90999985    1.85000002
   14.37250042  456.68200684    4.90999985    1.86000001
   14.37388897  350.44400024    4.90999985    1.88000000
   14.37527752  251.66600037    4.90999985    1.94000006
   14.37527752  389.53698730    4.90999985    2.26999998
   14.37527752  400.53298950    4.90999985    1.83000004
   14.37527752  193.73699951    4.90999985    2.69000006
   14.37527752  182.26699829    4.90999985    2.66000009
   14.37555599  208.32499695    4.90999985    2.61999989
   14.37555599  220.79400635    4.90999985    2.50000000
   14.37555599  217.90400696    4.90999985    2.32999992
   14.37555599  218.20100403    4.90999985    2.28999996
   14.37583351  220.63400269    4.90999985    2.36999989
   14.37638855  248.64799500    4.90999985    2.05999994
   14.37944412  204.43299866    4.90999985    2.50000000
   14.38277817  182.27000427    4.90999985    2.61999989
   14.38583279  189.32400513    4.90999985    2.64000010
   14.38916683  199.63000488    4.90999985    2.66000009
   14.39583302  199.63000488    4.90999985    2.66000009
   14.40027714  183.85299683    4.90999985    2.64000010
   14.40333271  202.05700684    4.90999985    2.61999989
   14.40666676  179.25999451    4.90999985    2.66000009
   14.40888882  181.24600220    4.90999985    2.69000006
   14.41027737  197.13400269    4.90999985    2.69000006
   14.41361046  205.88499451    4.90999985    2.59999990
   14.41666698  235.77600098    4.90999985    2.50000000
   14.42000008  213.00900269    4.90999985    2.46000004
   14.42305565  180.47599792    4.90999985    2.57999992
   14.42638874  188.38299561    4.90999985    2.67000008
   14.42972279  201.50900269    4.90999985    2.59999990
   14.43277836  261.95098877    4.90999985    2.26999998
   14.43888855  261.95098877    4.90999985    2.23000002
   14.44305515  318.05099487    4.90999985    2.34999990
   14.44611073  228.53700256    4.90999985    2.48000002
   14.44944477  211.68800354    4.90999985    2.39000010
   14.45249939  228.88000488    4.90999985    2.34999990
   14.45583344  267.21301270    4.90999985    2.32999992
   14.45916653  193.78199768    4.90999985    2.34999990
   14.46249962  226.74000549    4.90999985    2.42000008
   14.46555519  237.56900024    4.90999985    2.39000010
   14.46888828  412.52600098    4.90999985    2.23000002
   14.47083282  327.36999512    4.90999985    2.01999998
   14.47083282  211.68800354    4.90999985    2.39000010
   14.47083282  228.88000488    4.90999985    2.34999990
   14.47111034  267.21301270    4.90999985    2.32999992
   14.47111034  193.78199768    4.90999985    2.34999990
   14.47111034  226.74000549    4.90999985    2.42000008
   14.47111034  237.56900024    4.90999985    2.39000010
   14.47111034  412.52600098    4.90999985    2.23000002
   14.47138882  318.05099487    4.90999985    2.34999990
   14.47138882  228.53700256    4.90999985    2.48000002
   14.47305489  238.97900391    4.90999985    2.11999989
   14.47638798  288.60598755    4.90999985    2.23000002
   14.47944355  235.27499390    4.90999985    2.23000002
   14.48277760  248.48800659    4.90999985    2.25000000
   14.48583317  235.56599426    4.90999985    2.21000004
   14.49166679  235.56599426    4.90999985    2.23000002
   14.49583340  247.84399414    4.90999985    2.26999998
   14.49888897  200.78500366    4.90999985    2.28999996
   14.50222206  211.07899475    4.90999985    2.32999992
   14.50472260  238.47200012    4.90999985    2.32999992
   14.50583363  240.54699707    4.90999985    2.34999990
   14.50888920  212.19900513    4.90999985    2.34999990
   14.51222229  234.25999451    4.90999985    2.36999989
   14.51527786  269.20999146    4.90999985    2.26999998
   14.51861095  313.79901123    4.90999985    2.21000004
   14.52194405  462.20498657    4.90999985    2.05999994
   14.52388859  411.91699219    4.90999985    1.91999996
   14.52499962  172.84599304    4.90999985    1.98000002
   14.52527714  212.19900513    4.90999985    2.34999990
   14.52527714  234.25999451    4.90999985    2.36999989
   14.52527714  269.20999146    4.90999985    2.26999998
   14.52527714  313.79901123    4.90999985    2.21000004
   14.52527714  462.20498657    4.90999985    2.05999994
   14.52555561  247.84399414    4.90999985    2.26999998
   14.52555561  200.78500366    4.90999985    2.28999996
   14.52555561  211.07899475    4.90999985    2.32999992
   14.52555561  240.54699707    4.90999985    2.34999990
   14.52666664  142.88299561    4.90999985    1.98000002
   14.52999973  429.39599609    4.90999985    1.80999994
   14.53194427  380.35299683    4.90999985    1.91999996
   14.53333378  329.02700806    4.90999985    2.00000000
   14.53333378  142.88299561    4.90999985    1.98000002
   14.53333378  429.39599609    4.90999985    1.80999994
   14.53444481  313.29598999    4.90999985    2.01999998
   14.53777790  295.07299805    4.90999985    1.98000002
   14.54083347   91.45390320    4.90999985    1.88000000
   14.54416752   -1.00000000    4.90999985    1.75000000
   14.54750061   -1.00000000    4.90999985    1.38000000
   14.55388927   -1.00000000    4.90999985    1.11000001
   14.55805588   35.28469849    4.90999985    1.26999998
   14.56138897   -1.00000000    4.90999985    1.50000000
   14.56472206   -1.00000000    4.90999985    1.50000000
   14.56805515   -1.00000000    4.90999985    1.38000000
   14.57111073   -1.00000000    4.90999985    1.36000001
   14.57444477  105.47499847    4.90999985    1.55999994
   14.57777786  177.90499878    4.90999985    1.63000000
   14.58083344  347.47000122    4.90999985    1.80999994
   14.58416653  429.45300293    4.90999985    1.98000002
   14.58611107  341.44500732    4.90999985    1.98000002
   14.58611107   -1.00000000    4.90999985    1.36000001
   14.58638859  105.47499847    4.90999985    1.55999994
   14.58638859  177.90499878    4.90999985    1.63000000
   14.58638859  347.47000122    4.90999985    1.80999994
   14.58638859  429.45300293    4.90999985    1.98000002
   14.58638859   35.28469849    4.90999985    1.26999998
   14.58638859   -1.00000000    4.90999985    1.50000000
   14.58666611   -1.00000000    4.90999985    1.50000000
   14.58666611   -1.00000000    4.90999985    1.38000000
   14.58861065  298.72299194    4.90999985    2.05999994
   14.59166622  268.70098877    4.90999985    2.09999990
   14.59499931  268.61599731    4.90999985    2.19000006
   14.59833336  226.23399353    4.90999985    2.26999998
   14.60138893  234.60299683    4.90999985    2.34999990
   14.60694504  234.60299683    4.90999985    2.32999992
   14.61111164  246.50100708    4.90999985    2.34999990
   14.61416721  223.73699951    4.90999985    2.28999996
   14.61750031  216.65899658    4.90999985    2.40000010
   14.61999989  218.52600098    4.90999985    2.42000008
   14.62111092  235.53399658    4.90999985    2.40000010
   14.62416649  236.30099487    4.90999985    2.28999996
   14.62750053  188.36300659    4.90999985    2.46000004
   14.63055611  220.96099854    4.90999985    2.51999998
   14.63388920  206.39300537    4.90999985    2.50000000
   14.63722229  209.24600220    4.90999985    2.44000006
   14.64027786  262.69500732    4.90999985    2.40000010
   14.64361095  290.47100830    4.90999985    2.19000006
   14.64972210  290.47100830    4.90999985    2.42000008
   14.65388870  207.85200500    4.90999985    2.44000006
   14.65722179  175.09500122    4.90999985    2.51999998
   14.66027737  176.87600708    4.90999985    2.59999990
   14.66361046  179.79600525    4.90999985    2.66000009
   14.66666698  162.09800720    4.90999985    2.67000008
   14.67000008  179.66499329    4.90999985    2.71000004
   14.67333412  191.47799683    4.90999985    2.67000008
   14.67638874  177.17100525    4.90999985    2.55999994
   14.67972279  177.14500427    4.90999985    2.64000010
   14.68305588  168.58500671    4.90999985    2.69000006
   14.68611145  169.75000000    4.90999985    2.71000004
   14.68666649  169.69799805    4.90999985    2.71000004
   14.69250011  169.69799805    4.90999985    2.73000002
   14.69666672  165.92100525    4.90999985    2.73000002
   14.79527855   -1.00000000   -1.00000000   -1.00000000
   15.01972198   -1.00000000   -1.00000000   -1.00000000
   15.19222260   -1.00000000   -1.00000000   -1.00000000
   15.27305508  139.38900757    4.90999985    2.13000011
   15.27638817  305.60400391    4.90999985    2.25000000
   15.27972221  272.45498657    4.90999985    2.25000000
   15.28277779  261.19100952    4.90999985    2.44000006
   15.28611183  292.72399902    4.90999985    2.42000008
   15.28916740  275.86700439    4.90999985    2.26999998
   15.29333401  275.86700439    4.90999985    2.23000002
   15.29750061  268.37500000    4.90999985    2.23000002
   15.30083370  253.14599609    4.90999985    2.23000002
   15.30388927  321.71701050    4.90999985    2.26999998
   15.30638885  281.12600708    4.90999985    2.19000006
   15.30749989  245.95599365    4.90999985    2.19000006
   15.31083393  378.56799316    4.90999985    2.25000000
   15.31388950  269.44400024    4.90999985    2.09999990
   15.31722260  309.07699585    4.90999985    2.25000000
   15.32027817  394.13598633    4.90999985    2.25000000
   15.32361126  374.39599609    4.90999985    1.71000004
   15.32694435  318.73699951    4.90999985    2.13000011
   15.32999992  272.52999878    4.90999985    2.34999990
   15.33611107  272.52999878    4.90999985    2.19000006
   15.34027767  378.82800293    4.90999985    2.19000006
   15.34361076  338.36700439    4.90999985    2.07999992
   15.34694386  316.00000000    4.90999985    2.15000010
   15.35000038  248.96000671    4.90999985    2.25000000
   15.35333347  247.02699280    4.90999985    2.44000006
   15.35638905  233.49099731    4.90999985    2.50000000
   15.35972214  220.93299866    4.90999985    2.51999998
   15.36305618  241.45899963    4.90999985    2.51999998
   15.36611176  275.30398560    4.90999985    2.39000010
   15.36944485  309.60998535    4.90999985    2.30999994
   15.37277794  294.75698853    4.90999985    2.25000000
   15.37305546  325.92300415    4.90999985    2.23000002
   15.37916660  325.92300415    4.90999985    1.96000004
   15.38333321  513.34698486    4.90999985    2.07999992
   15.38527775  522.53698730    4.90999985    2.03999996
   15.38638878  457.39801025    4.90999985    2.03999996
   15.38777733  469.73400879    4.90999985    2.05999994
   15.38916683  503.59698486    4.90999985    2.07999992
   15.39055538  490.39999390    4.90999985    2.03999996
   15.39194393  487.05700684    4.90999985    2.05999994
   15.39333344  549.98797607    4.90999985    2.05999994
   15.39472198  528.21697998    4.90999985    2.07999992
   15.39611053  502.60198975    4.90999985    2.01999998
   15.39750004  184.56900024    4.90999985    2.00000000
   15.39777756  513.34698486    4.90999985    2.07999992
   15.39777756  248.96000671    4.90999985    2.25000000
   15.39777756  247.02699280    4.90999985    2.44000006
   15.39777756  233.49099731    4.90999985    2.50000000
   15.39777756  220.93299866    4.90999985    2.51999998
   15.39805508  241.45899963    4.90999985    2.51999998
   15.39805508  275.30398560    4.90999985    2.39000010
   15.39805508  309.60998535    4.90999985    2.30999994
   15.39805508  294.75698853    4.90999985    2.25000000
   15.39861107  146.85099792    4.90999985    1.96000004
   15.40194416  103.60600281    4.90999985    1.64999998
   15.40527725   -1.00000000   -1.00000000   -1.00000000
   15.40833282   -1.00000000    4.90999985    1.53999996
   15.41166592   -1.00000000    4.90999985    1.51999998
   15.41833401   -1.00000000    4.90999985    1.96000004
   15.42250061  547.89001465    4.90999985    2.01999998
   15.42444515  423.21398926    4.90999985    2.03999996
   15.42583370  489.95199585    4.90999985    2.00000000
   15.42722225  512.00201416    4.90999985    2.05999994
   15.42861176  346.61401367    4.90999985    1.96000004
   15.42861176  146.85099792    4.90999985    1.96000004
   15.42861176  103.60600281    4.90999985    1.64999998
   15.42888927   -1.00000000   -1.00000000   -1.00000000
   15.42888927   -1.00000000    4.90999985    1.53999996
   15.42888927   -1.00000000    4.90999985    1.51999998
   15.42888927  547.89001465    4.90999985    2.01999998
   15.42944431  361.14001465    4.90999985    1.96000004
   15.43277836  554.78198242    4.90999985    1.91999996
   15.43472195  485.78900146    4.90999985    2.00000000
   15.43611145  600.04797363    4.90999985    1.98000002
   15.43750000  366.72299194    4.90999985    2.05999994
   15.43888855  107.62400055    4.90999985    2.01999998
   15.43888855  361.14001465    4.90999985    1.96000004
   15.43888855  554.78198242    4.90999985    1.91999996
   15.43944454   91.34510040    4.90999985    1.88000000
   15.44277763   -1.00000000    4.90999985    1.46000004
   15.44583321   -1.00000000    4.90999985    1.33000004
   15.44916630   -1.00000000    4.90999985    1.21000004
   15.45249939   -1.00000000    4.90999985    1.44000006
   15.45555496   -1.00000000    4.90999985    1.44000006
   15.45972157   -1.00000000    4.90999985    1.51999998
   15.46388912   -1.00000000    4.90999985    1.25000000
   15.46722221   -1.00000000    4.90999985    1.41999996
   15.47027779   93.52490234    4.90999985    1.46000004
   15.47277737  169.09700012    4.90999985    1.69000006
   15.47388840  104.12799835    4.90999985    1.83000004
   15.47722149  148.91499329    4.90999985    1.75000000
   15.48027706  198.44999695    4.90999985    1.78999996
   15.48361111  500.89599609    4.90999985    1.89999998
   15.48555565  342.91000366    4.90999985    2.03999996
   15.48555565  104.12799835    4.90999985    1.83000004
   15.48583317  148.91499329    4.90999985    1.75000000
   15.48583317  198.44999695    4.90999985    1.78999996
   15.48583317  500.89599609    4.90999985    1.89999998
   15.48583317   -1.00000000    4.90999985    1.44000006
   15.48583317   -1.00000000    4.90999985    1.44000006
   15.48611164   -1.00000000    4.90999985    1.25000000
   15.48611164   -1.00000000    4.90999985    1.41999996
   15.48611164   93.52490234    4.90999985    1.46000004
   15.48805618  502.03500366    4.90999985    1.91999996
   15.49000072  526.29199219    4.90999985    1.96000004
   15.49138927  448.23599243    4.90999985    2.01999998
   15.49277782  430.59500122    4.90999985    2.03999996
   15.49416733  518.12799072    4.90999985    2.09999990
   15.49555588  515.62902832    4.90999985    1.94000006
   15.49694443  536.31298828    4.90999985    2.01999998
   15.49833393  470.58401489    4.90999985    2.01999998
   15.49972248  515.74499512    4.90999985    1.98000002
   15.50111103  247.76899719    4.90999985    2.03999996
   15.50111103  502.03500366    4.90999985    1.91999996
   15.50166702  419.56698608    4.90999985    2.01999998
   15.50361156  422.09799194    4.90999985    1.98000002
   15.50500011  486.51000977    4.90999985    2.03999996
   15.50638866  358.81100464    4.90999985    2.03999996
   15.50777817  359.95700073    4.90999985    1.89999998
   15.50916672  502.13299561    4.90999985    2.03999996
   15.51055527  378.03698730    4.90999985    2.05999994
   15.51194477  149.13900757    4.90999985    2.00000000
   15.51194477  419.56698608    4.90999985    2.01999998
   15.51249981  101.40899658    4.90999985    2.00000000
   15.51583290  187.92900085    4.90999985    1.73000002
   15.51916599  117.87200165    4.90999985    1.63000000
   15.52222157   67.01039886    4.90999985    1.64999998
   15.52555561  208.87399292    4.90999985    1.80999994
   15.52888870  238.47599792    4.90999985    1.85000002
   15.53305531  238.47599792    4.90999985    1.80999994
   15.53722286  308.59698486    4.90999985    2.01999998
   15.54027843  370.32101440    4.90999985    2.28999996
   15.54361153  299.70800781    4.90999985    2.07999992
   15.54583359  296.44198608    4.90999985    2.19000006
   15.54722309  369.89401245    4.90999985    2.17000008
   15.55055618  371.38101196    4.90999985    2.11999989
   15.55388927  291.30700684    4.90999985    2.28999996
   15.55694485  224.22500610    4.90999985    2.30999994
   15.56027794  216.77799988    4.90999985    2.40000010
   15.56333351  195.82099915    4.90999985    2.51999998
   15.56666660  217.65400696    4.90999985    2.53999996
   15.56999969  215.56199646    4.90999985    2.57999992
   15.57583332  215.56199646    4.90999985    2.39000010
   15.57999992  183.79699707    4.90999985    2.03999996
   15.58333302  507.18798828    4.90999985    1.94000006
   15.58527756  319.73098755    4.90999985    1.98000002
   15.58555508  371.38101196    4.90999985    2.11999989
   15.58583260  291.30700684    4.90999985    2.28999996
   15.58583260  224.22500610    4.90999985    2.30999994
   15.58583260  216.77799988    4.90999985    2.40000010
   15.58583260  195.82099915    4.90999985    2.51999998
   15.58611107  217.65400696    4.90999985    2.53999996
   15.58611107  215.56199646    4.90999985    2.57999992
   15.58611107  183.79699707    4.90999985    2.03999996
   15.58777714  380.38500977    4.90999985    2.23000002
   15.59111118  315.30599976    4.90999985    2.11999989
   15.59416676  296.26199341    4.90999985    2.23000002
   15.59749985  308.44198608    4.90999985    2.13000011
   15.60083389  393.59399414    4.90999985    2.19000006
   15.61000061  134.97200012    4.90999985    1.30999994
   15.61333370   67.97129822    4.90999985    1.60000002
   15.61666679  185.42799377    4.90999985    1.66999996
   15.61916637  163.38499451    4.90999985    1.88000000
   15.62027836   -1.00000000    4.90999985    1.80999994
   15.62361145  325.12298584    4.90999985    1.73000002
   15.62694454  463.42098999    4.90999985    2.01999998
   15.62888908  375.10101318    4.90999985    2.01999998
   15.63027763  400.07400513    4.90999985    2.03999996
   15.63138866  389.75500488    4.90999985    2.01999998
   15.63305569  364.07501221    4.90999985    2.07999992
   15.63416672  320.51998901    4.90999985    2.07999992
   15.63444424  325.12298584    4.90999985    1.73000002
   15.63444424  463.42098999    4.90999985    2.01999998
   15.63444424  296.26199341    4.90999985    2.23000002
   15.63444424  308.44198608    4.90999985    2.13000011
   15.63444424  393.59399414    4.90999985    2.19000006
   15.63472176  134.97200012    4.90999985    1.30999994
   15.63472176   67.97129822    4.90999985    1.60000002
   15.63472176  185.42799377    4.90999985    1.66999996
   15.63472176   -1.00000000    4.90999985    1.80999994
   15.63527775  368.22698975    4.90999985    1.94000006
   15.63861084   -1.00000000    4.90999985    1.55999994
   15.64194393   -1.00000000    4.90999985    1.39999998
   15.64499950   -1.00000000    4.90999985    1.16999996
   15.64833355   -1.00000000    4.90999985    1.03999996
   15.65499973   -1.00000000    4.90999985    1.28999996
   15.65916634   81.42410278    4.90999985    1.58000004
   15.66249943  365.85299683    4.90999985    1.66999996
   15.66555500  268.36898804    4.90999985    1.88000000
   15.66805553  450.80398560    4.90999985    1.94000006
   15.66916656  434.45700073    4.90999985    2.00000000
   15.67111111  432.41699219    4.90999985    2.01999998
   15.67250061  410.25100708    4.90999985    2.01999998
   15.67388916  407.84799194    4.90999985    2.01999998
   15.67527771  367.02301025    4.90999985    2.05999994
   15.67666721  312.41598511    4.90999985    2.09999990
   15.67666721  368.22698975    4.90999985    1.94000006
   15.67666721   -1.00000000    4.90999985    1.55999994
   15.67666721   -1.00000000    4.90999985    1.39999998
   15.67694473   -1.00000000    4.90999985    1.16999996
   15.67694473   -1.00000000    4.90999985    1.03999996
   15.67694473   81.42410278    4.90999985    1.58000004
   15.67694473  365.85299683    4.90999985    1.66999996
   15.67694473  268.36898804    4.90999985    1.88000000
   15.67722225  434.45700073    4.90999985    2.00000000
   15.67777824  323.45901489    4.90999985    2.11999989
   15.68083382  279.36099243    4.90999985    2.19000006
   15.68416691  318.17300415    4.90999985    2.19000006
   15.68750000  353.29098511    4.90999985    2.09999990
   15.69055557  278.01800537    4.90999985    2.15000010
   15.69750023  278.01800537    4.90999985    2.15000010
   15.70138836  355.61700439    4.90999985    2.13000011
   15.70472240  314.14300537    4.90999985    2.11999989
   15.70805550  276.73800659    4.90999985    2.15000010
   15.71055508  284.23199463    4.90999985    2.25000000
   15.71138859  263.83099365    4.90999985    2.25000000
   15.71472168  366.42001343    4.90999985    2.17000008
   15.71777725  247.47300720    4.90999985    2.00000000
   15.72111034  236.47999573    4.90999985    2.36999989
   15.72444439  241.44000244    4.90999985    2.40000010
   15.72749996  215.11500549    4.90999985    2.44000006
   15.73083305  209.37899780    4.90999985    2.55999994
   15.73416710  217.32499695    4.90999985    2.59999990
   15.74027824  217.32499695    4.90999985    2.55999994
   15.74444485  203.19299316    4.90999985    2.55999994
   15.74750042  214.34199524    4.90999985    2.50000000
   15.75083351  248.04299927    4.90999985    2.44000006
   15.75416660  296.33700562    4.90999985    2.34999990
   15.75749969  366.82998657    4.90999985    2.15000010
   15.76055527  106.11199951    4.90999985    1.85000002
   15.76388931   -1.00000000    4.90999985    1.51999998
   15.76694393   -1.00000000    4.90999985    1.36000001
   15.77027798   -1.00000000    4.90999985    1.51999998
   15.77361107   -1.00000000    4.90999985    1.64999998
   15.77666664   -1.00000000    4.90999985    1.30999994
   15.78305531   -1.00000000    4.90999985    1.73000002
   15.78722286  278.24899292    4.90999985    2.00000000
   15.79055595  446.64001465    4.90999985    2.01999998
   15.79250050  154.26199341    4.90999985    2.00000000
   15.79250050  278.24899292    4.90999985    2.00000000
   15.79250050  446.64001465    4.90999985    2.01999998
   15.79250050  366.82998657    4.90999985    2.15000010
   15.79277802  106.11199951    4.90999985    1.85000002
   15.79277802   -1.00000000    4.90999985    1.51999998
   15.79277802   -1.00000000    4.90999985    1.36000001
   15.79277802   -1.00000000    4.90999985    1.51999998
   15.79277802   -1.00000000    4.90999985    1.64999998
   15.79305553   -1.00000000    4.90999985    1.30999994
   15.79472256   -1.00000000    4.90999985    1.83000004
   15.79777813   -1.00000000    4.90999985    1.63000000
   15.80111122   -1.00000000    4.90999985    1.61000001
   15.80444431   -1.00000000    4.90999985    1.19000006
   15.80749989   -1.00000000    4.90999985    1.05999994
   15.81722260   -1.00000000    4.90999985    0.79000002
   15.82055569   -1.00000000    4.90999985    1.00000000
   15.82388878   -1.00000000    4.90999985    1.46000004
   15.82638836  189.66200256    4.90999985    1.25000000
   15.82722187  240.61500549    4.90999985    1.36000001
   15.83055592  292.91900635    4.90999985    2.07999992
   15.83361053  417.59698486    4.90999985    2.21000004
   15.83583260  326.91000366    4.90999985    2.07999992
   15.83583260  292.91900635    4.90999985    2.07999992
   15.83583260  417.59698486    4.90999985    2.21000004
   15.83583260   -1.00000000    4.90999985    1.61000001
   15.83583260   -1.00000000    4.90999985    1.19000006
   15.83611107   -1.00000000    4.90999985    1.05999994
   15.83611107   -1.00000000    4.90999985    0.79000002
   15.83611107   -1.00000000    4.90999985    1.00000000
   15.83611107   -1.00000000    4.90999985    1.46000004
   15.83611107  240.61500549    4.90999985    1.36000001
   15.83805561  171.51199341    4.90999985    1.85000002
   15.84138870   47.52349854    4.90999985    1.85000002
   15.84472179   -1.00000000    4.90999985    1.69000006
   15.84777737   -1.00000000    4.90999985    1.55999994
   15.85111141  212.84100342    4.90999985    1.21000004
   15.85638905  212.84100342    4.90999985    1.83000004
   15.86055565   -1.00000000    4.90999985    1.64999998
   15.86388969  178.00100708    4.90999985    1.39999998
   15.86694431  463.36999512    4.90999985    1.85000002
   15.86916637  345.10501099    4.90999985    1.96000004
   15.86916637  171.51199341    4.90999985    1.85000002
   15.86916637   47.52349854    4.90999985    1.85000002
   15.86916637   -1.00000000    4.90999985    1.69000006
   15.86944485   -1.00000000    4.90999985    1.55999994
   15.86944485  212.84100342    4.90999985    1.21000004
   15.86944485   -1.00000000    4.90999985    1.64999998
   15.86944485  178.00100708    4.90999985    1.39999998
   15.86944485  463.36999512    4.90999985    1.85000002
   15.87138939  371.70300293    4.90999985    2.21000004
   15.87472248  276.23001099    4.90999985    2.30999994
   15.87805557  228.54499817    4.90999985    2.50000000
   15.88111115  227.71099854    4.90999985    2.39000010
   15.88444424  251.67100525    4.90999985    2.34999990
   15.88972187  251.67100525    4.90999985    2.34999990
   15.89388847  209.41299438    4.90999985    2.23000002
   15.89722252  228.44400024    4.90999985    2.39000010
   15.90027714  237.46600342    4.90999985    2.26999998
   15.90277767  224.96699524    4.90999985    2.26999998
   15.90388870  230.77499390    4.90999985    2.26999998
   15.90722179  231.49699402    4.90999985    2.34999990
   15.91027737  192.81199646    4.90999985    2.44000006
   15.91361046  201.84399414    4.90999985    2.48000002
   15.91666698  210.09700012    4.90999985    2.48000002
   15.92000008  220.26899719    4.90999985    2.36999989
   15.92333412  168.63099670    4.90999985    2.42000008
   15.92638874  205.53599548    4.90999985    2.51999998
   15.93277836  205.53599548    4.90999985    2.53999996
   15.93666649  185.52600098    4.90999985    2.61999989
   15.94000053  188.75999451    4.90999985    2.66000009
   15.94333363  179.09700012    4.90999985    2.67000008
   15.94638920  174.70700073    4.90999985    2.64000010
   15.94972229  180.88000488    4.90999985    2.61999989
   15.95305538  182.34399414    4.90999985    2.64000010
   15.95611095  197.60200500    4.90999985    2.57999992
   15.95944405  178.76400757    4.90999985    2.50000000
   15.96249962  195.97399902    4.90999985    2.51999998
   15.96583271  189.67799377    4.90999985    2.44000006
   15.96916580  182.37600708    4.90999985    2.46000004
   15.96944427  198.86599731    4.90999985    2.44000006
   15.97555542  198.86599731    4.90999985    2.36999989
   15.97972202  301.32000732    4.90999985    2.30999994
   15.98277760  258.25799561    4.90999985    2.07999992
   15.98611164  184.80400085    4.90999985    2.32999992
   15.98944473  197.15600586    4.90999985    2.53999996
   15.99250031  177.89199829    4.90999985    2.69000006
   15.99583340  182.45899963    4.90999985    2.69000006
   15.99888897  182.53100586    4.90999985    2.67000008
   16.00222206  175.41900635    4.90999985    2.64000010
   16.00277710  195.27200317    4.90999985    2.64000010
   16.00583267  181.00000000    4.90999985    2.69000006
   16.00916672  189.00700378    4.90999985    2.67000008
   16.01222229  175.29600525    4.90999985    2.69000006
   16.01833344  175.29600525    4.90999985    2.64000010
   16.02249908  189.55400085    4.90999985    2.66000009
   16.02583313  188.35600281    4.90999985    2.66000009
   16.02888870  179.31900024    4.90999985    2.61999989
   16.03222275  182.55499268    4.90999985    2.67000008
   16.03527641  178.41099548    4.90999985    2.69000006
   16.03610992  173.01899719    4.90999985    2.69000006
   16.03888893  184.58000183    4.90999985    2.73000002
   16.04222107  184.14700317    4.90999985    2.71000004
   16.04527664  168.27900696    4.90999985    2.64000010
   16.04861069  182.11599731    4.90999985    2.64000010
   16.05194283  222.08000183    4.90999985    2.34999990
   16.05499840  216.13999939    4.90999985    2.28999996
   16.06110954  216.13999939    4.90999985    2.28999996
   16.06527710  211.36799622    4.90999985    2.28999996
   16.06861115  206.59199524    4.90999985    2.34999990
   16.06944466  202.14599609    4.90999985    2.26999998
   16.07222366  242.88699341    4.90999985    2.25000000
   16.07555580  248.55700684    4.90999985    2.19000006
   16.07861137  307.46301270    4.90999985    2.19000006
   16.08194542  404.27499390    4.90999985    2.07999992
   16.08388901  377.92300415    4.90999985    1.94000006
   16.08527756  389.11300659    4.90999985    2.03999996
   16.08666801  296.55999756    4.90999985    2.03999996
   16.08666801  404.27499390    4.90999985    2.07999992
   16.08666801  182.11599731    4.90999985    2.64000010
   16.08666801  222.08000183    4.90999985    2.34999990
   16.08666801  216.13999939    4.90999985    2.28999996
   16.08694458  211.36799622    4.90999985    2.28999996
   16.08694458  206.59199524    4.90999985    2.34999990
   16.08694458  242.88699341    4.90999985    2.25000000
   16.08694458  248.55700684    4.90999985    2.19000006
   16.08694458  307.46301270    4.90999985    2.19000006
   16.08750153  310.87298584    4.90999985    2.11999989
   16.09083366  299.03601074    4.90999985    2.15000010
   16.09416771  228.76199341    4.90999985    2.17000008
   16.09722328  348.73999023    4.90999985    2.28999996
   16.10055542  171.39700317    4.90999985    1.89999998
   16.10750008  171.39700317    4.90999985    1.60000002
   16.11138916  148.91099548    4.90999985    1.51999998
   16.11472321  396.26599121    4.90999985    1.80999994
   16.11805534  333.18200684    4.90999985    2.01999998
   16.12055588  240.91299438    4.90999985    2.17000008
   16.12138939  231.84399414    4.90999985    2.17000008
   16.12472153  234.64500427    4.90999985    2.11999989
   16.12777710  248.52099609    4.90999985    2.19000006
   16.13111115  310.50900269    4.90999985    2.19000006
   16.13444519  292.09600830    4.90999985    2.17000008
   16.13750076  277.04000854    4.90999985    2.11999989
   16.14083290  422.28298950    4.90999985    2.11999989
   16.14277840  217.39100647    4.90999985    2.15000010
   16.14277840  234.64500427    4.90999985    2.11999989
   16.14277840  248.52099609    4.90999985    2.19000006
   16.14305496  310.50900269    4.90999985    2.19000006
   16.14305496  292.09600830    4.90999985    2.17000008
   16.14305496  277.04000854    4.90999985    2.11999989
   16.14305496  422.28298950    4.90999985    2.11999989
   16.14305496  396.26599121    4.90999985    1.80999994
   16.14333344  333.18200684    4.90999985    2.01999998
   16.14333344  231.84399414    4.90999985    2.17000008
   16.14527702  250.62699890    4.90999985    2.39000010
   16.14861107  255.97099304    4.90999985    1.88000000
   16.15166664   -1.00000000    4.90999985    1.98000002
   16.15499878   -1.00000000    4.90999985    1.71000004
   16.15805435   -1.00000000    4.90999985    1.86000001
   16.16777802   -1.00000000    4.90999985    1.41999996
   16.17083359  266.13500977    4.90999985    1.41999996
   16.17416573  224.37300110    4.90999985    2.42000008
   16.17666626  246.59199524    4.90999985    2.46000004
   16.17749977  228.72000122    4.90999985    2.40000010
   16.18083191  224.75599670    4.90999985    2.32999992
   16.18416595  199.30400085    4.90999985    2.40000010
   16.18722153  197.41400146    4.90999985    2.50000000
   16.19055557  172.24200439    4.90999985    2.57999992
   16.19388771  187.88200378    4.90999985    2.66000009
   16.19694328  176.63000488    4.90999985    2.67000008
   16.20027924  179.11399841    4.90999985    2.66000009
   16.20639038  179.11399841    4.90999985    2.55999994
   16.21055603  200.57699585    4.90999985    2.57999992
   16.21389008  194.99000549    4.90999985    2.57999992
   16.21694565  193.20599365    4.90999985    2.59999990
   16.22027779  188.84599304    4.90999985    2.57999992
   16.22361183  196.11799622    4.90999985    2.61999989
   16.22666740  225.92799377    4.90999985    2.64000010
   16.23000145  125.94400024    4.90999985    2.61999989
   16.23333359  218.01899719    4.90999985    2.28999996
   16.23638916  190.30000305    4.90999985    2.55999994
   16.23972321  174.92999268    4.90999985    2.59999990
   16.24305534  203.11700439    4.90999985    2.61999989
   16.24333382  199.02699280    4.90999985    2.61999989
   16.24916649  199.02699280    4.90999985    2.48000002
   16.25333405  199.70700073    4.90999985    2.66000009
   16.25666618  195.37100220    4.90999985    2.66000009
   16.26000023  210.91900635    4.90999985    2.44000006
   16.26305580  228.30099487    4.90999985    2.44000006
   16.26638794  203.14799500    4.90999985    2.36999989
   16.26944351  264.70098877    4.90999985    2.26999998
   16.27277756  235.55499268    4.90999985    2.13000011
   16.28999901  184.83900452    4.90999985    2.46000004
   16.29388809  184.83900452    4.90999985    2.51999998
   16.29805565  211.49000549    4.90999985    2.48000002
   16.30138779  186.89999390    4.90999985    2.53999996
   16.30472183  206.80299377    4.90999985    2.42000008
   16.30805397  191.63499451    4.90999985    2.46000004
   16.31110954  177.96699524    4.90999985    2.46000004
   16.31444359  179.41799927    4.90999985    2.51999998
   16.31750107  204.65499878    4.90999985    2.50000000
   16.32083511  190.30000305    4.90999985    2.50000000
   16.32305717  170.66000366    4.90999985    2.50000000
   16.32444572  170.96499634    4.90999985    2.51999998
   16.32777786  192.14300537    4.90999985    2.53999996
   16.33083344  145.97399902    4.90999985    2.50000000
   16.33694458  145.97399902    4.90999985    2.61999989
   16.34111214  192.34800720    4.90999985    2.61999989
   16.34416771  183.16099548    4.90999985    2.57999992
   16.34749985  183.08799744    4.90999985    2.59999990
   16.35055542  203.00100708    4.90999985    2.61999989
   16.35388947  180.07000732    4.90999985    2.61999989
   16.35639000  171.58399963    4.90999985    2.67000008
   16.35750008  180.69099426    4.90999985    2.69000006
   16.36083412  180.50300598    4.90999985    2.67000008
   16.36388969  175.77499390    4.90999985    2.66000009
   16.36722183  168.53500366    4.90999985    2.69000006
   16.37027740  158.83999634    4.90999985    2.69000006
   16.37361145  168.01600647    4.90999985    2.69000006
   16.37972260  168.01600647    4.90999985    2.73000002
   16.38388824  165.41499329    4.90999985    2.71000004
   16.38694382  181.74699402    4.90999985    2.59999990
   16.38972282  179.40400696    4.90999985    2.57999992
   16.39055634  181.95300293    4.90999985    2.57999992
   16.39388847  176.59899902    4.90999985    2.57999992
   16.39694405  188.57800293    4.90999985    2.59999990
   16.40027809  184.40499878    4.90999985    2.50000000
   16.40333366  182.53900146    4.90999985    2.53999996
   16.40666580  173.32600403    4.90999985    2.59999990
   16.40999985  182.40100098    4.90999985    2.53999996
   16.41305542  181.76899719    4.90999985    2.53999996
   16.41638756  179.84100342    4.90999985    2.53999996
   16.42249870  179.84100342    4.90999985    2.57999992
   16.42666626  191.68600464    4.90999985    2.61999989
   16.43000031  191.97999573    4.90999985    2.64000010
   16.43305397  168.81100464    4.90999985    2.66000009
   16.43638802  157.19299316    4.90999985    2.69000006
   16.43972206  175.78700256    4.90999985    2.71000004
   16.44277763  150.09300232    4.90999985    2.71000004
   16.44610977  177.18899536    4.90999985    2.73000002
   16.44916534  175.53900146    4.90999985    2.67000008
   16.45250130  167.09800720    4.90999985    2.73000002
   16.45583344  172.76100159    4.90999985    2.71000004
   16.45750046  163.79200745    4.90999985    2.73000002
   16.45944595  172.52200317    4.90999985    2.69000006
   16.46527863  172.52200317    4.90999985    2.57999992
   16.46944427  164.98800659    4.90999985    2.55999994
   16.47277832  167.06399536    4.90999985    2.67000008
   16.47611237  162.17799377    4.90999985    2.64000010
   16.47916794  152.87600708    4.90999985    2.75000000
   16.48250008  163.65100098    4.90999985    2.76999998
   16.48555565  161.83799744    4.90999985    2.75000000
   16.48888969  164.13200378    4.90999985    2.73000002
   16.49083328  169.16099548    4.90999985    2.75000000
   16.49250031  153.51499939    4.90999985    2.75000000
   16.49583435  166.91999817    4.90999985    2.75000000
   16.49888992  176.88400269    4.90999985    2.75000000
   16.50222206  190.30000305    4.90999985    2.71000004
   16.50833321  190.30000305    4.90999985    2.42000008
   16.51250076  209.81100464    4.90999985    2.26999998
   16.51555634  213.50300598    4.90999985    2.55999994
   16.51888847  173.79200745    4.90999985    2.69000006
   16.52194405  179.40499878    4.90999985    2.69000006
   16.52444458  167.67399597    4.90999985    2.66000009
   16.52583313  158.90600586    4.90999985    2.64000010
   16.52888870  168.85800171    4.90999985    2.71000004
   16.53222275  161.18800354    4.90999985    2.73000002
   16.53527641  157.35699463    4.90999985    2.71000004
   16.53861046  157.94500732    4.90999985    2.71000004
   16.54194450  162.30900574    4.90999985    2.69000006
   16.54500008  157.69000244    4.90999985    2.71000004
   16.55111122  157.69000244    4.90999985    2.66000009
   16.55527687  180.29899597    4.90999985    2.61999989
   16.55777740  233.60099792    4.90999985    2.40000010
   16.55888748  215.76400757    4.90999985    2.26999998
   16.56194305  181.58900452    4.90999985    2.30999994
   16.56527710  176.03300476    4.90999985    2.66000009
   16.56861115  166.61500549    4.90999985    2.71000004
   16.57166672  156.24600220    4.90999985    2.61999989
   16.57500076  154.79800415    4.90999985    2.67000008
   16.57833481  152.30499268    4.90999985    2.73000002
   16.58139038  148.17599487    4.90999985    2.78999996
   16.58472252  156.89900208    4.90999985    2.80999994
   16.58777809  158.21200562    4.90999985    2.80999994
   16.59388924  158.21200562    4.90999985    2.78999996
   16.59805679  153.02499390    4.90999985    2.78999996
   16.60138893  152.85499573    4.90999985    2.78999996
   16.60444450  145.69799805    4.90999985    2.78999996
   16.60777855  159.22000122    4.90999985    2.73000002
   16.61111069  157.33700562    4.90999985    2.76999998
   16.61416626  147.73300171    4.90999985    2.80999994
   16.61750031  165.52400208    4.90999985    2.80999994
   16.62055588  157.43800354    4.90999985    2.80999994
   16.62388992  145.60299683    4.90999985    2.80999994
   16.62472153  151.29200745    4.90999985    2.80999994
   16.62750053  157.45500183    4.90999985    2.80999994
   16.63083267  143.32099915    4.90999985    2.80999994
   16.63666725  143.32099915    4.90999985    2.80999994
   16.64083290  153.17599487    4.90999985    2.80999994
   16.64416695  164.37600708    4.90999985    2.78999996
   16.64722252  159.36799622    4.90999985    2.76999998
   16.65055466  151.56599426    4.90999985    2.75000000
   16.65388870  162.89500427    4.90999985    2.71000004
   16.65694427  159.96200562    4.90999985    2.67000008
   16.65805435  154.32400513    4.90999985    2.66000009
   16.66055489  162.07200623    4.90999985    2.71000004
   16.66388893  153.42999268    4.90999985    2.78999996
   16.66694450  161.08399963    4.90999985    2.78999996
   16.67027664  152.93200684    4.90999985    2.78999996
   16.67361069  157.36199951    4.90999985    2.80999994
   16.67972183  157.36199951    4.90999985    2.76999998
   16.68361092  153.88900757    4.90999985    2.78999996
   16.68694305  151.47999573    4.90999985    2.78999996
   16.69027710  154.63699341    4.90999985    2.78999996
   16.69166565  156.39100647    4.90999985    2.78999996
   16.69388771  151.40400696    4.90999985    2.78999996
   16.69722176  159.64900208    4.90999985    2.78999996
   16.70027924  158.84199524    4.90999985    2.78999996
   16.70361137  160.60400391    4.90999985    2.67000008
   16.70666695  156.15199280    4.90999985    2.75000000
   16.71000099  167.25100708    4.90999985    2.73000002
   16.71333504  149.06199646    4.90999985    2.76999998
   16.71638870  154.80599976    4.90999985    2.75000000
   16.72249985  154.80599976    4.90999985    2.76999998
   16.72666740  155.69400024    4.90999985    2.76999998
   16.72972298  154.26100159    4.90999985    2.69000006
   16.73305511  160.91999817    4.90999985    2.80999994
   16.73638916  162.28199768    4.90999985    2.78999996
   16.73944473  166.15100098    4.90999985    2.80999994
   16.74277878  156.10499573    4.90999985    2.78999996
   16.74583435  158.07400513    4.90999985    2.80999994
   16.74916649  157.93400574    4.90999985    2.78999996
   16.75250053  156.17900085    4.90999985    2.78999996
   16.75555611  150.25999451    4.90999985    2.78999996
   16.75833321  162.27099609    4.90999985    2.80999994
   16.75916672  159.35899353    4.90999985    2.80999994
   16.76527786  159.35899353    4.90999985    2.78999996
   16.76944351  221.86099243    4.90999985    2.75000000
   16.77277756  211.07899475    4.90999985    2.73000002
   16.77583313  233.34599304    4.90999985    2.66000009
   16.77916718  232.63600159    4.90999985    2.59999990
   16.78249931  243.91299438    4.90999985    2.57999992
   16.78555489  216.26100159    4.90999985    2.46000004
   16.78888893  198.11300659    4.90999985    2.48000002
   16.79166603  226.16499329    4.90999985    2.53999996
   16.79249954  174.33999634    4.90999985    2.57999992
   16.79555511  231.57600403    4.90999985    2.53999996
   16.79888916  197.38299561    4.90999985    2.57999992
   16.80222130  174.27900696    4.90999985    2.67000008
   16.80805397  174.27900696    4.90999985    2.78999996
   16.81222153  155.71600342    4.90999985    2.78999996
   16.81555557  158.14900208    4.90999985    2.78999996
   16.81861115  169.20700073    4.90999985    2.66000009
   16.82194519  159.73399353    4.90999985    2.69000006
   16.82500076  171.83599854    4.90999985    2.73000002
   16.82555580  163.16999817    4.90999985    2.73000002
   16.82861137  151.46000671    4.90999985    2.71000004
   16.83194542  169.38499451    4.90999985    2.69000006
   16.83527756  155.16700745    4.90999985    2.66000009
   16.83833313  152.30499268    4.90999985    2.71000004
   16.84166718  159.33599854    4.90999985    2.71000004
   16.84472275  154.52000427    4.90999985    2.71000004
   16.85111237  154.52000427    4.90999985    2.64000010
   16.85499954  152.15199280    4.90999985    2.78999996
   16.85833359  156.92599487    4.90999985    2.80999994
   16.85888863  161.96299744    4.90999985    2.80999994
   16.86194420  142.11599731    4.90999985    2.80999994
   16.86527824  176.04699707    4.90999985    2.75000000
   16.86861038  170.84599304    4.90999985    2.64000010
   16.87166595  165.29699707    4.90999985    2.66000009
   16.87500000  166.27099609    4.90999985    2.73000002
   16.87833405  162.82499695    4.90999985    2.69000006
   16.88138962  175.72399902    4.90999985    2.61999989
   16.88472176  180.06199646    4.90999985    2.50000000
   16.88777733  181.62399292    4.90999985    2.48000002
   16.89388847  181.62399292    4.90999985    2.61999989
   16.89805603  159.53900146    4.90999985    2.67000008
   16.90111160  172.48500061    4.90999985    2.71000004
   16.90444374  161.68099976    4.90999985    2.73000002
   16.90777779  156.37199402    4.90999985    2.76999998
   16.91110992  146.27799988    4.90999985    2.76999998
   16.91416550  148.95799255    4.90999985    2.76999998
   16.91749954  154.74600220    4.90999985    2.78999996
   16.92055511  154.54100037    4.90999985    2.78999996
   16.92388916  158.36099243    4.90999985    2.78999996
   16.92499924  152.37399292    4.90999985    2.80999994
   16.92749977  155.37600708    4.90999985    2.80999994
   16.93083191  149.91400146    4.90999985    2.80999994
   16.93666649  149.91400146    4.90999985    2.78999996
   16.94083214  153.16200256    4.90999985    2.80999994
   16.94416618  147.98300171    4.90999985    2.78999996
   16.94722176  155.59300232    4.90999985    2.80999994
   16.95055580  155.44900513    4.90999985    2.80999994
   16.95388985  156.20700073    4.90999985    2.78999996
   16.95694542  150.29600525    4.90999985    2.78999996
   16.95833397  161.46600342    4.90999985    2.78999996
   16.96055603  158.72500610    4.90999985    2.80999994
   16.96361160  156.04699707    4.90999985    2.80999994
   16.96694565  156.80599976    4.90999985    2.78999996
   16.97027779  149.29800415    4.90999985    2.80999994
   16.97333336  150.49600220    4.90999985    2.80999994
   16.97944450  150.49600220    4.90999985    2.78999996
   16.98361206  167.07400513    4.90999985    2.78999996
   16.98694420  167.52499390    4.90999985    2.78999996
   16.98999977  157.94400024    4.90999985    2.76999998
   16.99194527  153.98800659    4.90999985    2.76999998
   16.99388885  175.13499451    4.90999985    2.75000000
   16.99694443  173.60200500    4.90999985    2.75000000
   17.00027847  180.88499451    4.90999985    2.76999998
   17.00361061  159.81900024    4.90999985    2.76999998
   17.00666618  171.49099731    4.90999985    2.67000008
   17.01000023  178.67599487    4.90999985    2.73000002
   17.01305580  186.97799683    4.90999985    2.78999996
   17.01638794  192.83700562    4.90999985    2.78999996
   17.02249908  192.83700562    4.90999985    2.78999996
   17.02638817  167.64999390    4.90999985    2.73000002
   17.02972221  176.45300293    4.90999985    2.73000002
   17.03305435  164.45500183    4.90999985    2.73000002
   17.03610992  160.74899292    4.90999985    2.73000002
   17.03944397  173.72700500    4.90999985    2.73000002
   17.04277802  179.30999756    4.90999985    2.66000009
   17.04583359  154.82400513    4.90999985    2.71000004
   17.04916573  168.21099854    4.90999985    2.75000000
   17.05222130  164.22200012    4.90999985    2.73000002
   17.05555534  177.36900330    4.90999985    2.76999998
   17.05861092  161.30299377    4.90999985    2.76999998
   17.05916595  164.69999695    4.90999985    2.76999998
   17.06527710  164.69999695    4.90999985    2.76999998
   17.06944466  159.13400269    4.90999985    2.76999998
   17.07250023  139.30700684    4.90999985    2.76999998
   17.07583427  155.29600525    4.90999985    2.76999998
   17.07916832  150.33200073    4.90999985    2.76999998
   17.08222389  171.81100464    4.90999985    2.71000004
   17.08555603  164.02699280    4.90999985    2.69000006
   17.08861160  163.11999512    4.90999985    2.64000010
   17.09194565  163.33000183    4.90999985    2.67000008
   17.09250069  173.84800720    4.90999985    2.67000008
   17.09555626  170.58700562    4.90999985    2.67000008
   17.09889030  170.42599487    4.90999985    2.69000006
   17.10222244  162.86999512    4.90999985    2.71000004
   17.10805511  162.86999512    4.90999985    2.71000004
   17.11222267  175.22099304    4.90999985    2.69000006
   17.11555672  153.24099731    4.90999985    2.69000006
   17.11861038  163.88099670    4.90999985    2.73000002
   17.12194443  173.78199768    4.90999985    2.73000002
   17.12500000  195.13400269    4.90999985    2.71000004
   17.12555504  187.05400085    4.90999985    2.71000004
   17.12888908  167.68400574    4.90999985    2.73000002
   17.13194466  166.23399353    4.90999985    2.73000002
   17.13527679  156.50300598    4.90999985    2.76999998
   17.13861084  165.79699707    4.90999985    2.78999996
   17.14166641  165.25100708    4.90999985    2.73000002
   17.14500046  163.94099426    4.90999985    2.76999998
   17.15083313  163.94099426    4.90999985    2.78999996
   17.15499878  157.30700684    4.90999985    2.76999998
   17.15833282  146.83200073    4.90999985    2.76999998
   17.15888786  151.85400391    4.90999985    2.76999998
   17.16194344  148.66700745    4.90999985    2.76999998
   17.16527748  160.68600464    4.90999985    2.75000000
   17.16833305  155.32000732    4.90999985    2.75000000
   17.17166519  151.28100586    4.90999985    2.75000000
   17.17472076  160.32299805    4.90999985    2.75000000
   17.17805481  153.14500427    4.90999985    2.75000000
   17.18138885  155.06100464    4.90999985    2.75000000
   17.18444443  165.62300110    4.90999985    2.73000002
   17.18777657  160.97799683    4.90999985    2.75000000
   17.19388771  160.97799683    4.90999985    2.71000004
   17.19777679  167.13900757    4.90999985    2.71000004
   17.20111275  151.58599854    4.90999985    2.71000004
   17.20444489  154.52799988    4.90999985    2.75000000
   17.20750046  160.94999695    4.90999985    2.75000000
   17.21083450  158.26499939    4.90999985    2.76999998
   17.21416664  156.02699280    4.90999985    2.75000000
   17.21722221  162.89799500    4.90999985    2.73000002
   17.22055626  156.65600586    4.90999985    2.75000000
   17.22361183  156.96600342    4.90999985    2.76999998
   17.22555542  164.14599609    4.90999985    2.76999998
   17.22722244  159.97099304    4.90999985    2.76999998
   17.23055649  162.17999268    4.90999985    2.73000002
   17.23666763  162.17999268    4.90999985    2.73000002
   17.24083328  147.82400513    4.90999985    2.73000002
   17.24388885  160.89199829    4.90999985    2.75000000
   17.24722290  161.58000183    4.90999985    2.73000002
   17.25055504  152.12899780    4.90999985    2.73000002
   17.25361061  155.61900330    4.90999985    2.73000002
   17.25694466  163.19599915    4.90999985    2.73000002
   17.25888824  161.34100342    4.90999985    2.73000002
   17.26055527  157.08299255    4.90999985    2.73000002
   17.26388931  154.89700317    4.90999985    2.71000004
   17.26694489  163.15299988    4.90999985    2.61999989
   17.27027702  151.35499573    4.90999985    2.69000006
   17.27333260  153.30099487    4.90999985    2.71000004
   17.27944374  153.30099487    4.90999985    2.73000002
   17.28361130  160.55200195    4.90999985    2.76999998
   17.28694344  148.06900024    4.90999985    2.67000008
   17.28999901  156.54100037    4.90999985    2.76999998
   17.30722237  157.05400085    4.90999985    2.61999989
   17.30999947  155.29899597    4.90999985    2.66000009
   17.31305504  169.28799438    4.90999985    2.55999994
   17.31638718  182.60200500    4.90999985    2.53999996
   17.32250023  182.60200500    4.90999985    2.55999994
   17.32666779  175.53799438    4.90999985    2.51999998
   17.32972336  187.92199707    4.90999985    2.48000002
   17.33305550  185.60600281    4.90999985    2.40000010
   17.33638954  171.80200195    4.90999985    2.50000000
   17.33944511  169.23599243    4.90999985    2.59999990
   17.34055710  162.58299255    4.90999985    2.59999990
   17.34333420  165.71200562    4.90999985    2.61999989
   17.34638977  165.91999817    4.90999985    2.69000006
   17.34972191  152.17100525    4.90999985    2.71000004
   17.35305595  163.53100586    4.90999985    2.73000002
   17.35611153  164.24499512    4.90999985    2.75000000
   17.35944557  158.99299622    4.90999985    2.76999998
   17.36527824  158.99299622    4.90999985    2.78999996
   17.36944389  156.93600464    4.90999985    2.78999996
   17.37249947  145.99499512    4.90999985    2.76999998
   17.37388992  149.61799622    4.90999985    2.78999996
   17.37638855  155.69099426    4.90999985    2.76999998
   17.37944412  150.07699585    4.90999985    2.78999996
   17.38277817  159.56900024    4.90999985    2.78999996
   17.38583374  165.51499939    4.90999985    2.80999994
   17.38916588  161.58500671    4.90999985    2.78999996
   17.39249992  163.90499878    4.90999985    2.78999996
   17.39555550  157.51600647    4.90999985    2.80999994
   17.39888954  157.88600159    4.90999985    2.78999996
   17.40194321  150.44900513    4.90999985    2.73000002
   17.40805435  150.44900513    4.90999985    2.75000000
   17.41222191  167.40800476    4.90999985    2.73000002
   17.41555595  161.54400635    4.90999985    2.73000002
   17.41860962  152.67399597    4.90999985    2.73000002
   17.42194366  177.53199768    4.90999985    2.75000000
   17.42527771  179.10699463    4.90999985    2.71000004
   17.42833328  170.83900452    4.90999985    2.71000004
   17.43166542  190.90699768    4.90999985    2.69000006
   17.43499947  206.00199890    4.90999985    2.61999989
   17.43805504  202.73399353    4.90999985    2.55999994
   17.44055557  192.08900452    4.90999985    2.51999998
   17.44194412  190.98399353    4.90999985    2.50000000
   17.44499969  190.03300476    4.90999985    2.50000000
   17.45083427  190.03300476    4.90999985    2.48000002
   17.45499992  227.34399414    4.90999985    2.39000010
   17.45833397  194.32099915    4.90999985    2.46000004
   17.46166801  182.77299500    4.90999985    2.48000002
   17.46472359  205.00500488    4.90999985    2.44000006
   17.46805573  206.55499268    4.90999985    2.48000002
   17.47111130  176.17700195    4.90999985    2.51999998
   17.47389030  175.60000610    4.90999985    2.53999996
   17.47500038  171.11300659    4.90999985    2.55999994
   17.47805595  190.64599609    4.90999985    2.53999996
   17.48139000  187.56300354    4.90999985    2.53999996
   17.48444557  181.13400269    4.90999985    2.67000008
   17.48777771  185.59599304    4.90999985    2.53999996
   17.49388885  185.59599304    4.90999985    2.64000010
   17.49805641  203.85099792    4.90999985    2.46000004
   17.50111198  222.61599731    4.90999985    2.36999989
   17.50444412  205.64100647    4.90999985    2.46000004
   17.50722313  176.44400024    4.90999985    2.53999996
   17.50805473  174.29499817    4.90999985    2.53999996
   17.51138878  179.12500000    4.90999985    2.55999994
   17.51444435  186.76699829    4.90999985    2.53999996
   17.51777840  212.11599731    4.90999985    2.61999989
   17.52083397  192.05000305    4.90999985    2.53999996
   17.52416611  189.88400269    4.90999985    2.61999989
   17.52750015  165.89100647    4.90999985    2.55999994
   17.53055573  168.87500000    4.90999985    2.57999992
   17.53666687  168.87500000    4.90999985    2.51999998
   17.54083252  179.35000610    4.90999985    2.64000010
   17.54388809  156.36900330    4.90999985    2.66000009
   17.54722214  172.08299255    4.90999985    2.57999992
   17.55055428  165.72599792    4.90999985    2.69000006
   17.55360985  143.18600464    4.90999985    2.64000010
   17.55694389  141.18099976    4.90999985    2.69000006
   17.56027794  165.13600159    4.90999985    2.69000006
   17.56333351  154.43499756    4.90999985    2.69000006
   17.56666756  183.34300232    4.90999985    2.66000009
   17.56972313  161.11900330    4.90999985    2.71000004
   17.57305717  145.47599792    4.90999985    2.75000000
   17.57389069  147.23199463    4.90999985    2.75000000
   17.57944489  147.23199463    4.90999985    2.73000002
   17.58361244  175.59599304    4.90999985    2.73000002
   17.58694458  149.24899292    4.90999985    2.75000000
   17.59000015  156.90100098    4.90999985    2.75000000
   17.59333420  154.49800110    4.90999985    2.73000002
   17.59666824  151.69900513    4.90999985    2.71000004
   17.59972191  148.62600708    4.90999985    2.71000004
   17.60305595  153.79600525    4.90999985    2.71000004
   17.60611153  164.29800415    4.90999985    2.67000008
   17.60722351  159.18899536    4.90999985    2.64000010
   17.61000061  150.76499939    4.90999985    2.61999989
   17.61305618  156.17700195    4.90999985    2.61999989
   17.61638832  151.02600098    4.90999985    2.61999989
   17.62222290  151.02600098    4.90999985    2.61999989
   17.62638855  156.93200684    4.90999985    2.59999990
   17.62972260  171.12800598    4.90999985    2.57999992
   17.63305473  157.33700562    4.90999985    2.61999989
   17.63611031  166.11700439    4.90999985    2.64000010
   17.63944435  147.35800171    4.90999985    2.64000010
   17.64055634  156.20399475    4.90999985    2.64000010
   17.64305496  162.26199341    4.90999985    2.66000009
   17.64611053  159.10499573    4.90999985    2.66000009
   17.64944458  168.20599365    4.90999985    2.67000008
   17.65250015  160.25000000    4.90999985    2.66000009
   17.65583229  162.46200562    4.90999985    2.66000009
   17.65916634  156.33200073    4.90999985    2.66000009
   17.66527748  156.33200073    4.90999985    2.69000006
   17.66944313  170.12399292    4.90999985    2.73000002
   17.67249870  157.60600281    4.90999985    2.69000006
   17.67388916  156.96699524    4.90999985    2.69000006
   17.67638779  156.95799255    4.90999985    2.69000006
   17.67944336  172.72399902    4.90999985    2.69000006
   17.68277740  176.50599670    4.90999985    2.71000004
   17.68583298  196.80999756    4.90999985    2.69000006
   17.68916512  170.00100708    4.90999985    2.61999989
   17.69249916  185.97599792    4.90999985    2.64000010
   17.69555473  179.47599792    4.90999985    2.61999989
   17.69888878  185.83700562    4.90999985    2.67000008
   17.70222282  199.90199280    4.90999985    2.66000009
   17.70805550  199.90199280    4.90999985    2.59999990
   17.71222305  191.80400085    4.90999985    2.53999996
   17.71527863  186.05599976    4.90999985    2.61999989
   17.71861076  223.23100281    4.90999985    2.66000009
   17.72194481  164.91999817    4.90999985    2.61999989
   17.72500038  183.64300537    4.90999985    2.76999998
   17.72833443  151.93499756    4.90999985    2.76999998
   17.73166656  168.90699768    4.90999985    2.76999998
   17.73472214  161.77799988    4.90999985    2.78999996
   17.73805618  139.88200378    4.90999985    2.71000004
   17.74055672  156.35499573    4.90999985    2.78999996
   17.74166679  166.45199585    4.90999985    2.80999994
   17.74472237  157.10099792    4.90999985    2.78999996
   17.75083351  157.10099792    4.90999985    2.78999996
   17.75499916  144.53900146    4.90999985    2.73000002
   17.75833321  160.21299744    4.90999985    2.73000002
   17.76138878  155.15699768    4.90999985    2.78999996
   17.76472282  165.82200623    4.90999985    2.76999998
   17.76805496  166.94299316    4.90999985    2.76999998
   17.77111053  170.14100647    4.90999985    2.76999998
   17.77388954  170.72200012    4.90999985    2.76999998
   17.77499962  158.46499634    4.90999985    2.78999996
   17.77805519  176.59300232    4.90999985    2.76999998
   17.78138924  150.36399841    4.90999985    2.76999998
   17.78472137  164.60200500    4.90999985    2.78999996
   17.78777695  156.80299377    4.90999985    2.71000004
   17.79388809  156.80299377    4.90999985    2.73000002
   17.79777718  164.19599915    4.90999985    2.73000002
   17.80111122  146.29100037    4.90999985    2.69000006
   17.80444336  153.61900330    4.90999985    2.64000010
   17.80722237  161.04699707    4.90999985    2.64000010
   17.80805397  157.07299805    4.90999985    2.64000010
   17.81110954  151.97900391    4.90999985    2.69000006
   17.81444359  160.79299927    4.90999985    2.73000002
   17.81750107  150.49699402    4.90999985    2.69000006
   17.82083511  158.94799805    4.90999985    2.69000006
   17.82416725  165.41900635    4.90999985    2.69000006
   17.82722282  167.90800476    4.90999985    2.66000009
   17.83055687  167.25100708    4.90999985    2.64000010
   17.83666801  167.25100708    4.90999985    2.69000006
   17.84083366  154.47599792    4.90999985    2.71000004
   17.84416771  161.58700562    4.90999985    2.69000006
   17.84722328  180.36500549    4.90999985    2.71000004
   17.85055542  166.61700439    4.90999985    2.69000006
   17.85361099  191.47500610    4.90999985    2.53999996
   17.85694504  175.53799438    4.90999985    2.30999994
   17.86027908  163.11399841    4.90999985    2.69000006
   17.86333466  176.65899658    4.90999985    2.73000002
   17.86666679  152.24800110    4.90999985    2.73000002
   17.87000084  157.99099731    4.90999985    2.73000002
   17.87305641  144.97599792    4.90999985    2.73000002
   17.87388992  165.06399536    4.90999985    2.73000002
   17.87944412  165.06399536    4.90999985    2.69000006
   17.88361168  177.97700500    4.90999985    2.44000006
   17.88666725  150.30400085    4.90999985    2.53999996
   17.88999939  165.94000244    4.90999985    2.61999989
   17.89333344  184.60200500    4.90999985    2.55999994
   17.89638901  204.44000244    4.90999985    2.53999996
   17.89972115  240.83200073    4.90999985    2.51999998
   17.90305519  201.46299744    4.90999985    2.48000002
   17.90611076  227.02900696    4.90999985    2.46000004
   17.90722275  244.27400208    4.90999985    2.42000008
   17.90972137  217.53399658    4.90999985    2.28999996
   17.91277695  266.39199829    4.90999985    2.23000002
   17.91611099  199.07800293    4.90999985    2.34999990
   17.92222214  199.07800293    4.90999985    2.30999994
   17.92638779  222.16600037    4.90999985    2.28999996
   17.92972183  256.76000977    4.90999985    2.11999989
   17.93277740  215.58999634    4.90999985    2.15000010
   17.93610954  207.90899658    4.90999985    2.36999989
   17.93944359  176.41200256    4.90999985    2.50000000
   17.94055557  216.23500061    4.90999985    2.51999998
   17.94305420  251.76400757    4.90999985    2.32999992
   17.94610977  194.19200134    4.90999985    2.30999994
   17.94944382  174.31599426    4.90999985    2.44000006
   17.95277786  163.51199341    4.90999985    2.46000004
   17.95583344  219.26400757    4.90999985    2.48000002
   17.95916748  233.26499939    4.90999985    2.28999996
   17.96500015  233.26499939    4.90999985    2.32999992
   17.96916771  149.97000122    4.90999985    2.46000004
   17.97249985  174.13299561    4.90999985    2.53999996
   17.97389030  182.05200195    4.90999985    2.48000002
   17.97611237  209.49899292    4.90999985    2.42000008
   17.97916794  274.79901123    4.90999985    2.28999996
   17.98250008  332.94500732    4.90999985    2.25000000
   17.98583412  276.29998779    4.90999985    2.15000010
   17.98888969  309.55899048    4.90999985    2.15000010
   17.99222183  316.98999023    4.90999985    1.91999996
   17.99555588  261.84500122    4.90999985    2.21000004
   17.99861145  284.71600342    4.90999985    2.19000006
   18.00194359  321.54901123    4.90999985    2.17000008
   18.00805473  321.54901123    4.90999985    2.09999990
   18.01222229  244.74299622    4.90999985    2.32999992
   18.01527786  217.15600586    4.90999985    2.26999998
   18.01861000  198.95100403    4.90999985    2.28999996
   18.02166557  182.44099426    4.90999985    2.26999998
   18.02499962  170.76300049    4.90999985    2.39000010
   18.02833366  212.50000000    4.90999985    2.36999989
   18.03138924  187.56500244    4.90999985    2.30999994
   18.03472137   -1.00000000    4.90999985    1.91999996
   18.03805542   -1.00000000    4.90999985    1.61000001
   18.04166603   -1.00000000    4.90999985    1.66999996
   18.04472160  106.94799805    4.90999985    1.73000002
   18.05083275  106.94799805    4.90999985    2.15000010
   18.05499840  130.53199768    4.90999985    2.03999996
   18.05805397  170.09300232    4.90999985    1.78999996
   18.06138802  215.24499512    4.90999985    2.15000010
   18.06472206  208.15400696    4.90999985    2.28999996
   18.06777954  212.84199524    4.90999985    2.25000000
   18.07111168  204.77799988    4.90999985    2.13000011
   18.07389069  183.51699829    4.90999985    2.36999989
   18.07472229  174.84500122    4.90999985    2.40000010
   18.07777786  193.67100525    4.90999985    2.34999990
   18.08111191  193.72900391    4.90999985    2.26999998
   18.08444595  206.70300293    4.90999985    2.26999998
   18.08750153  260.64700317    4.90999985    2.28999996
   18.09361267  260.64700317    4.90999985    2.07999992
   18.09777832  298.75299072    4.90999985    1.86000001
   18.10111237  200.33999634    4.90999985    2.05999994
   18.10416794   -1.00000000   -1.00000000   -1.00000000
   18.10722351  162.02200317    4.90999985    1.73000002
   18.10777855  148.85299683    4.90999985    1.73000002
   18.11083412  289.65399170    4.90999985    1.94000006
   18.11416626  123.39600372    4.90999985    1.91999996
   18.11750031   77.84750366    4.90999985    1.73000002
   18.12055588   59.19950104    4.90999985    1.78999996
   18.12388992  145.93499756    4.90999985    1.61000001
   18.12722206  314.21301270    4.90999985    2.05999994
   18.13027763  258.07699585    4.90999985    2.15000010
   18.13638878  258.07699585    4.90999985    2.15000010
   18.14055634  250.72799683    4.90999985    2.30999994
   18.14388847  252.61799622    4.90999985    2.32999992
   18.14722252  294.44500732    4.90999985    2.19000006
   18.15027809  291.91198730    4.90999985    2.13000011
   18.15361023  240.12199402    4.90999985    2.26999998
   18.15666580  235.63200378    4.90999985    2.39000010
   18.15999985  225.88400269    4.90999985    2.36999989
   18.16333389  198.14399719    4.90999985    2.53999996
   18.16638756  196.13499451    4.90999985    2.51999998
   18.16972160  209.39700317    4.90999985    2.48000002
   18.17305565  180.52900696    4.90999985    2.46000004
   18.17388916  211.89300537    4.90999985    2.44000006
   18.17944336  211.89300537    4.90999985    2.48000002
   18.18361092  173.69200134    4.90999985    2.51999998
   18.18666649  180.76499939    4.90999985    2.50000000
   18.18999863  212.50000000    4.90999985    2.46000004
   18.19333267  160.84100342    4.90999985    2.46000004
   18.19638824  205.10200500    4.90999985    2.44000006
   18.19972038  197.99499512    4.90999985    2.40000010
   18.20305634  205.84700012    4.90999985    2.42000008
   18.20611191  238.13800049    4.90999985    2.36999989
   18.20722389  190.63200378    4.90999985    2.34999990
   18.20972252  209.35200500    4.90999985    2.32999992
   18.21277809  174.26499939    4.90999985    2.40000010
   18.21611214  200.78100586    4.90999985    2.34999990
   18.22222328  200.78100586    4.90999985    2.39000010
   18.22638893  172.87600708    4.90999985    2.40000010
   18.22944450  155.03700256    4.90999985    2.42000008
   18.23277855  167.52799988    4.90999985    2.46000004
   18.23611069  182.51499939    4.90999985    2.51999998
   18.23916626  159.31199646    4.90999985    2.50000000
   18.24055672  176.60099792    4.90999985    2.55999994
   18.24277878  173.00199890    4.90999985    2.59999990
   18.24583435  131.15800476    4.90999985    2.66000009
   18.24916649  178.76100159    4.90999985    2.67000008
   18.25250053  163.69599915    4.90999985    2.42000008
   18.25555611  175.19900513    4.90999985    2.39000010
   18.25888824  217.68699646    4.90999985    2.34999990
   18.26499939  217.68699646    4.90999985    2.25000000
   18.26916695  260.26199341    4.90999985    2.09999990
   18.27249908  167.49099731    4.90999985    2.23000002
   18.27388954  186.39700317    4.90999985    2.36999989
   18.27611160  171.71299744    4.90999985    2.36999989
   18.27944374  147.92199707    4.90999985    2.50000000
   18.28249931  169.29800415    4.90999985    2.59999990
   18.28583336  173.78700256    4.90999985    2.40000010
   18.28888893  231.53799438    4.90999985    2.50000000
   18.29222107  210.29800415    4.90999985    2.26999998
   18.29555511  218.89900208    4.90999985    2.21000004
   18.29861069  260.32299805    4.90999985    2.21000004
   18.30194283  235.67100525    4.90999985    2.19000006
   18.32444572  204.65499878    4.90999985    2.30999994
   18.32472229  228.37100220    4.90999985    2.30999994
   18.32805634  298.20700073    4.90999985    2.15000010
   18.33139038  195.89599609    4.90999985    1.91999996
   18.33444595  284.95498657    4.90999985    1.89999998
   18.33777809  253.41900635    4.90999985    2.09999990
   18.34055710  302.22100830    4.90999985    2.01999998
   18.34138870  290.26998901    4.90999985    2.01999998
   18.34472275  335.93099976    4.90999985    2.00000000
   18.35083389  335.93099976    4.90999985    2.13000011
   18.35499954  222.18800354    4.90999985    2.26999998
   18.35805511  205.62399292    4.90999985    2.28999996
   18.36138916  282.73001099    4.90999985    2.30999994
   18.36472321  238.66000366    4.90999985    2.07999992
   18.36777878  295.98098755    4.90999985    1.86000001
   18.37111092  195.00799561    4.90999985    1.96000004
   18.37388992  204.21299744    4.90999985    2.26999998
   18.37472153  218.07099915    4.90999985    2.26999998
   18.37805557  200.97599792    4.90999985    2.26999998
   18.38138962  211.44200134    4.90999985    2.34999990
   18.38444519  247.27600098    4.90999985    2.28999996
   18.38777733  228.07000732    4.90999985    2.17000008
   18.39361191  228.07000732    4.90999985    2.30999994
   18.39777756  177.24400330    4.90999985    2.36999989
   18.40111160  176.25700378    4.90999985    2.32999992
   18.40416718  180.99099731    4.90999985    2.39000010
   18.40722275  202.56300354    4.90999985    2.39000010
   18.40777779  210.60400391    4.90999985    2.32999992
   18.41110992  253.33599854    4.90999985    2.13000011
   18.41416550  192.55099487    4.90999985    2.05999994
   18.41749954  177.55700684    4.90999985    2.30999994
   18.42055511  173.93299866    4.90999985    2.40000010
   18.42388916  174.39599609    4.90999985    2.42000008
   18.42722130  174.33200073    4.90999985    2.34999990
   18.43027687  172.89100647    4.90999985    2.44000006
   18.43638802  172.89100647    4.90999985    2.46000004
   18.44055557  211.54299927    4.90999985    2.46000004
   18.44111061  211.12399292    4.90999985    2.48000002
   18.44416618  231.19200134    4.90999985    2.46000004
   18.44749832  243.90100098    4.90999985    2.44000006
   18.45083427  251.48399353    4.90999985    2.44000006
   18.45388985  279.91000366    4.90999985    2.32999992
   18.45722389  309.44699097    4.90999985    2.23000002
   18.46055603  360.36499023    4.90999985    1.94000006
   18.46361160  334.92498779    4.90999985    1.89999998
   18.46694565  332.32901001    4.90999985    2.00000000
   18.47000122  260.10101318    4.90999985    2.15000010
   18.47333336  248.19400024    4.90999985    1.96000004
   18.47389030  234.30599976    4.90999985    2.25000000
   18.47944450  234.30599976    4.90999985    1.98000002
   18.48333359  211.94599915    4.90999985    2.30999994
   18.48666763  197.40299988    4.90999985    2.25000000
   18.48999977  267.59100342    4.90999985    2.36999989
   18.49305534  361.41198730    4.90999985    2.00000000
   18.49638939  298.19000244    4.90999985    1.98000002
   18.49972153  198.58599854    4.90999985    2.21000004
   18.50277710  205.49600220    4.90999985    2.26999998
   18.50611115  245.98399353    4.90999985    2.34999990
   18.50722313  243.84300232    4.90999985    2.25000000
   18.50972176  325.59698486    4.90999985    2.19000006
   18.51305580  275.70498657    4.90999985    1.91999996
   18.51611137  299.50500488    4.90999985    2.07999992
   18.52222252  299.50500488    4.90999985    2.17000008
   18.52638817  250.56599426    4.90999985    2.30999994
   18.52944374  347.07998657    4.90999985    2.25000000
   18.53277779  247.75999451    4.90999985    1.91999996
   18.53610992  191.44900513    4.90999985    2.30999994
   18.53916550  196.35200500    4.90999985    2.39000010
   18.54055595  211.86900330    4.90999985    2.36999989
   18.54277802  229.19900513    4.90999985    2.34999990
   18.54611015  265.02999878    4.90999985    2.21000004
   18.54944420  216.78199768    4.90999985    2.26999998
   18.55249977  223.83200073    4.90999985    2.32999992
   18.55583191  236.65899658    4.90999985    2.01999998
   18.55888748  231.64199829    4.90999985    2.11999989
   18.56499863  231.64199829    4.90999985    2.30999994
   18.56916809  195.86799622    4.90999985    2.26999998
   18.57250023  170.14300537    4.90999985    2.32999992
   18.57389069  182.74200439    4.90999985    2.32999992
   18.57611275  170.45199585    4.90999985    2.40000010
   18.57944489  185.33000183    4.90999985    2.34999990
   18.58250046  210.11700439    4.90999985    2.25000000
   18.58583450  215.57400513    4.90999985    2.30999994
   18.58916664  399.39599609    4.90999985    2.07999992
   18.59222221  168.29699707    4.90999985    2.05999994
   18.59555626  301.33200073    4.90999985    1.94000006
   18.59861183   -1.00000000    4.90999985    1.78999996
   18.60194397   45.12630081    4.90999985    1.58000004
   18.60777855   45.12630081    4.90999985    1.63000000
   18.61194420   74.93370056    4.90999985    1.73000002
   18.61527824   36.07099915    4.90999985    1.73000002
   18.61833382   -1.00000000   -1.00000000   -1.00000000
   18.62166595   -1.00000000    4.90999985    1.60000002
   18.62500000   -1.00000000    4.90999985    1.39999998
   18.62805557   -1.00000000    4.90999985    1.36000001
   18.63138962  175.58900452    4.90999985    1.55999994
   18.63472176  472.78601074    4.90999985    1.98000002
   18.63666725  327.52700806    4.90999985    2.03999996
   18.63666725   -1.00000000   -1.00000000   -1.00000000
   18.63666725   -1.00000000    4.90999985    1.60000002
   18.63666725   -1.00000000    4.90999985    1.39999998
   18.63694382   -1.00000000    4.90999985    1.36000001
   18.63694382  175.58900452    4.90999985    1.55999994
   18.63694382  472.78601074    4.90999985    1.98000002
   18.63694382   45.12630081    4.90999985    1.58000004
   18.63694382   74.93370056    4.90999985    1.73000002
   18.63722229   36.07099915    4.90999985    1.73000002
   18.63916588  500.19699097    4.90999985    2.03999996
   18.64111137  219.56399536    4.90999985    1.98000002
   18.64305496  177.11500549    4.90999985    1.85000002
   18.64611053  209.91799927    4.90999985    1.88000000
   18.64944458   85.86080170    4.90999985    1.86000001
   18.65277672   -1.00000000    4.90999985    1.66999996
   18.65583229  135.33399963    4.90999985    1.63000000
   18.66166687  135.33399963    4.90999985    1.85000002
   18.66583252  221.67500305    4.90999985    1.71000004
   18.66916656   93.22049713    4.90999985    1.96000004
   18.67249870  362.96798706    4.90999985    1.86000001
   18.67499924  395.11599731    4.90999985    1.96000004
   18.67583275  489.86898804    4.90999985    1.91999996
   18.67777634  418.99899292    4.90999985    2.00000000
   18.67916679  235.95300293    4.90999985    2.01999998
   18.67916679  177.11500549    4.90999985    1.85000002
   18.67916679  209.91799927    4.90999985    1.88000000
   18.67944336   85.86080170    4.90999985    1.86000001
   18.67944336   -1.00000000    4.90999985    1.66999996
   18.67944336  135.33399963    4.90999985    1.63000000
   18.67944336  221.67500305    4.90999985    1.71000004
   18.67944336   93.22049713    4.90999985    1.96000004
   18.67972183  362.96798706    4.90999985    1.86000001
   18.67972183  489.86898804    4.90999985    1.91999996
   18.68083191  218.50599670    4.90999985    1.96000004
   18.68388748  121.92199707    4.90999985    1.86000001
   18.68722153  308.33700562    4.90999985    1.85000002
   18.69055557  455.10400391    4.90999985    2.32999992
   18.69249916  227.58299255    4.90999985    2.15000010
   18.69249916  218.50599670    4.90999985    1.96000004
   18.69249916  121.92199707    4.90999985    1.86000001
   18.69249916  308.33700562    4.90999985    1.85000002
   18.69277763  455.10400391    4.90999985    2.32999992
   18.69444275  100.97299957    4.90999985    1.91999996
   18.69749832  118.45300293    4.90999985    1.71000004
   18.70083427  210.40199280    4.90999985    1.76999998
   18.70416832  141.60099792    4.90999985    1.94000006
   18.70722389  164.74899292    4.90999985    1.86000001
   18.71333504  164.74899292    4.90999985    1.66999996
   18.71722221  277.11300659    4.90999985    2.13000011
   18.72055626  133.41799927    4.90999985    1.85000002
   18.72389030  258.13198853    4.90999985    1.80999994
   18.72638893  223.52000427    4.90999985    2.19000006
   18.72722244  199.15800476    4.90999985    2.25000000
   18.73055649  215.52900696    4.90999985    2.17000008
   18.73388863  188.31100464    4.90999985    2.50000000
   18.73694420  228.68699646    4.90999985    2.48000002
   18.74027824  175.86199951    4.90999985    2.48000002
   18.74333382  234.30900574    4.90999985    2.42000008
   18.74666786  202.11799622    4.90999985    2.21000004
   18.75000000  196.33299255    4.90999985    2.44000006
   18.75611115  196.33299255    4.90999985    2.34999990
   18.76027870  223.71099854    4.90999985    2.30999994
   18.76333427  290.88500977    4.90999985    2.15000010
   18.76666641  304.96600342    4.90999985    2.11999989
   18.77000046  252.50500488    4.90999985    2.03999996
   18.77305603  233.95799255    4.90999985    2.03999996
   18.77638817  177.97999573    4.90999985    2.15000010
   18.77944374  176.44000244    4.90999985    2.30999994
   18.78277779  190.37199402    4.90999985    2.30999994
   18.78610992  226.88299561    4.90999985    2.23000002
   18.78916550  171.28700256    4.90999985    2.28999996
   18.79249954  169.02499390    4.90999985    2.39000010
   18.79305458  165.80499268    4.90999985    2.39000010
   18.79888916  165.80499268    4.90999985    2.40000010
   18.80305481  169.25300598    4.90999985    2.50000000
   18.80638885  165.53999329    4.90999985    2.42000008
   18.80944443  183.57400513    4.90999985    2.42000008
   18.81277657  168.86099243    4.90999985    2.46000004
   18.81583214  142.65199280    4.90999985    2.42000008
   18.81916809  193.75700378    4.90999985    2.28999996
   18.82250023  199.78599548    4.90999985    2.19000006
   18.82555580  254.60600281    4.90999985    2.19000006
   18.82638931  294.07901001    4.90999985    2.15000010
   18.82944489  131.18299866    4.90999985    1.94000006
   18.83250046  297.85101318    4.90999985    1.85000002
   18.83583450  272.29000854    4.90999985    2.03999996
   18.84166718  272.29000854    4.90999985    1.86000001
   18.84583473  124.45099640    4.90999985    1.41999996
   18.84916687  305.13500977    4.90999985    1.91999996
   18.85222244  232.45500183    4.90999985    2.21000004
   18.85555649  327.45700073    4.90999985    2.28999996
   18.85888863  378.75399780    4.90999985    1.96000004
   18.85972214  347.77398682    4.90999985    1.96000004
   18.86222267  244.32200623    4.90999985    2.15000010
   18.86555672  341.34698486    4.90999985    2.09999990
   18.86888885  157.08399963    4.90999985    2.01999998
   18.87194443  222.78599548    4.90999985    2.17000008
   18.87527847  202.46800232    4.90999985    2.26999998
   18.87833405  235.53500366    4.90999985    2.23000002
   18.88472176  235.53500366    4.90999985    2.15000010
   18.88861084  298.55499268    4.90999985    2.15000010
   18.89194489   -1.00000000    4.90999985    1.89999998
   18.89555550   -1.00000000    4.90999985    1.64999998
   18.89888954   -1.00000000    4.90999985    1.61000001
   18.90194321   -1.00000000    4.90999985    1.39999998
   18.90527725   -1.00000000    4.90999985    1.55999994
   18.90861130   -1.00000000    4.90999985    1.50000000
   18.91166687  134.58999634    4.90999985    1.51999998
   18.91499901  192.30900574    4.90999985    2.03999996
   18.91833305  227.93499756    4.90999985    2.32999992
   18.92138863  239.23699951    4.90999985    2.17000008
   18.92749977  239.23699951    4.90999985    2.25000000
   18.93166542  191.99400330    4.90999985    2.39000010
   18.93472099  183.99299622    4.90999985    2.44000006
   18.93805504  250.05999756    4.90999985    2.42000008
   18.94138718  137.67100525    4.90999985    2.00000000
   18.94444275  120.63800049    4.90999985    1.89999998
   18.94777679   68.58080292    4.90999985    1.69000006
   18.95083427  239.62600708    4.90999985    1.66999996
   18.95416832  174.55599976    4.90999985    2.19000006
   18.95750046  152.09300232    4.90999985    2.40000010
   18.95972252  155.56500244    4.90999985    2.48000002
   18.96083450  144.36199951    4.90999985    2.51999998
   18.96416664  139.20700073    4.90999985    2.53999996
   18.97027779  139.20700073    4.90999985    2.57999992
   18.97444534  212.79299927    4.90999985    2.44000006
   18.97777748  269.88500977    4.90999985    2.11999989
   18.98083305   94.37100220    4.90999985    1.85000002
   18.98416710  190.20100403    4.90999985    1.66999996
   18.98722267  206.25900269    4.90999985    2.01999998
   18.99055672  269.97601318    4.90999985    1.86000001
   18.99305534  182.02600098    4.90999985    2.23000002
   18.99416733  185.06199646    4.90999985    2.34999990
   18.99749947  169.98500061    4.90999985    2.39000010
   19.00083351  159.66000366    4.90999985    2.39000010
   19.00388908  168.79699707    4.90999985    2.25000000
   19.00722313  195.82299805    4.90999985    2.39000010
   19.01305580  195.82299805    4.90999985    2.23000002
   19.01722145  158.50399780    4.90999985    2.36999989
   19.02055550  169.18800354    4.90999985    2.46000004
   19.02361107  155.75599670    4.90999985    2.42000008
   19.02638817  155.14599609    4.90999985    2.46000004
   19.02722168  154.96400452    4.90999985    2.50000000
   19.03055573  164.09800720    4.90999985    2.51999998
   19.03388786  165.81399536    4.90999985    2.50000000
   19.03694344  160.64100647    4.90999985    2.46000004
   19.04027748  219.38800049    4.90999985    2.30999994
   19.04361153  312.39898682    4.90999985    2.17000008
   19.04666710  284.23800659    4.90999985    1.98000002
   19.04999924   -1.00000000    4.90999985    1.83000004
   19.05611038   -1.00000000    4.90999985    1.55999994
   19.05999947   -1.00000000    4.90999985    1.36000001
   19.06333351  163.72200012    4.90999985    1.75000000
   19.06666756  225.83799744    4.90999985    1.78999996
   19.06972313  304.80499268    4.90999985    2.05999994
   19.07305717  295.25299072    4.90999985    2.03999996
   19.07638931  230.74000549    4.90999985    2.09999990
   19.07944489  217.82499695    4.90999985    2.17000008
   19.08277893  339.60699463    4.90999985    2.13000011
   19.08583450  304.05700684    4.90999985    2.07999992
   19.08916664  111.39600372    4.90999985    1.98000002
   19.09250069  169.77299500    4.90999985    1.76999998
   19.09305573  162.32099915    4.90999985    1.85000002
   19.09889030  162.32099915    4.90999985    1.85000002
   19.10305595  408.10598755    4.90999985    2.01999998
   19.10499954  267.18499756    4.90999985    2.07999992
   19.10499954  217.82499695    4.90999985    2.17000008
   19.10499954  339.60699463    4.90999985    2.13000011
   19.10499954  304.05700684    4.90999985    2.07999992
   19.10527802  111.39600372    4.90999985    1.98000002
   19.10527802  169.77299500    4.90999985    1.76999998
   19.10527802  408.10598755    4.90999985    2.01999998
   19.10527802  304.80499268    4.90999985    2.05999994
   19.10527802  295.25299072    4.90999985    2.03999996
   19.10555649  230.74000549    4.90999985    2.09999990
   19.10722351  100.94699860    4.90999985    1.96000004
   19.11027908   -1.00000000    4.90999985    1.73000002
   19.11361122   -1.00000000    4.90999985    1.48000002
   19.11694527   -1.00000000    4.90999985    1.36000001
   19.12000084   -1.00000000    4.90999985    1.38000000
   19.12972260   -1.00000000    4.90999985    1.46000004
   19.13305473   -1.00000000    4.90999985    1.48000002
   19.13638878   -1.00000000    4.90999985    1.50000000
   19.13972282   -1.00000000    4.90999985    1.53999996
   19.14305496  160.42100525    4.90999985    1.61000001
   19.14611053  147.83900452    4.90999985    1.76999998
   19.14944458  319.87899780    4.90999985    1.83000004
   19.15277672  302.37500000    4.90999985    2.00000000
   19.15583229  301.02700806    4.90999985    2.09999990
   19.15916634   -1.00000000    4.90999985    2.09999990
   19.16222191   -1.00000000    4.90999985    1.55999994
   19.17277718   -1.00000000    4.90999985    1.34000003
   19.17583275   -1.00000000    4.90999985    1.23000002
   19.17916679   -1.00000000    4.90999985    1.46000004
   19.18222237   23.57019997    4.90999985    1.53999996
   19.18555450  112.32399750    4.90999985    1.73000002
   19.18888855   83.89459991    4.90999985    1.73000002
   19.19194412   -1.00000000    4.90999985    1.64999998
   19.19527626   89.27359772    4.90999985    1.61000001
   19.19861031   -1.00000000    4.90999985    1.69000006
   19.20166779   -1.00000000    4.90999985    1.61000001
   19.20499992   -1.00000000    4.90999985    1.46000004
   19.21555710   -1.00000000    4.90999985    0.88000000
   19.21861076   -1.00000000    4.90999985    0.75000000
   19.22194481   -1.00000000    4.90999985    1.03999996
   19.22527885  305.67999268    4.90999985    1.83000004
   19.22833443  183.17900085    4.90999985    2.26999998
   19.23166656  186.30200195    4.90999985    2.32999992
   19.23500061  209.42999268    4.90999985    2.36999989
   19.23805618  219.01499939    4.90999985    2.34999990
   19.23888969  210.78199768    4.90999985    2.26999998
   19.24194527  186.00000000    4.90999985    2.23000002
   19.24500084  203.22599792    4.90999985    2.42000008
   19.24833298  196.58599854    4.90999985    2.28999996
   19.25416756  196.58599854    4.90999985    2.39000010
   19.25833321  202.68699646    4.90999985    2.32999992
   19.26166725  198.64399719    4.90999985    2.32999992
   19.26499939  208.53599548    4.90999985    2.19000006
   19.26805496  161.66600037    4.90999985    2.50000000
   19.27138901  192.15100098    4.90999985    2.48000002
   19.27222252  179.52799988    4.90999985    2.32999992
   19.27472115  179.38299561    4.90999985    2.36999989
   19.27805519  210.11599731    4.90999985    2.32999992
   19.28138924  268.50000000    4.90999985    2.00000000
   19.28444481  268.01699829    4.90999985    2.21000004
   19.28777695  103.29199982    4.90999985    1.76999998
   19.29111099   -1.00000000    4.90999985    1.76999998
   19.29722214   -1.00000000    4.90999985    1.07000005
   19.30138779   99.73770142    4.90999985    1.30999994
   19.30444336  270.70300293    4.90999985    1.91999996
   19.30555534  276.96398926    4.90999985    2.09999990
   19.30833244  312.82800293    4.90999985    2.01999998
   19.31138802  340.69500732    4.90999985    1.98000002
   19.31472206  138.02799988    4.90999985    1.91999996
   19.31777954  281.81399536    4.90999985    2.03999996
   19.32111168  346.94500732    4.90999985    2.07999992
   19.32444572   -1.00000000    4.90999985    1.83000004
   19.34500122   -1.00000000    4.90999985    1.61000001
   19.34916687  259.49398804    4.90999985    1.34000003
   19.35222244  177.29600525    4.90999985    2.44000006
   19.35555649  194.61999512    4.90999985    2.46000004
   19.35888863   93.13980103    4.90999985    1.98000002
   19.36194420   -1.00000000    4.90999985    1.19000006
   19.36527824  122.27500153    4.90999985    1.44000006
   19.36833382  248.08000183    4.90999985    1.98000002
   19.37166595  192.45199585    4.90999985    2.19000006
   19.37500000  192.39599609    4.90999985    2.42000008
   19.37583351  188.64999390    4.90999985    2.44000006
   19.37833405  163.46499634    4.90999985    2.34999990
   19.38166618  158.92399597    4.90999985    2.55999994
   19.38777733  158.92399597    4.90999985    2.32999992
   19.39194489  133.57099915    4.90999985    2.15000010
   19.39500046   -1.00000000    4.90999985    1.76999998
   19.39833260   -1.00000000    4.90999985    1.50000000
   19.40138817   -1.00000000    4.90999985    1.33000004
   19.40472221  156.17900085    4.90999985    1.51999998
   19.40805435  310.45599365    4.90999985    1.98000002
   19.40916634  213.02000427    4.90999985    1.94000006
   19.41138840  308.04199219    4.90999985    2.13000011
   19.41472244  338.58999634    4.90999985    2.19000006
   19.41805458  295.59899902    4.90999985    2.00000000
   19.42111015  286.48699951    4.90999985    1.91999996
   19.42444420  247.10400391    4.90999985    2.17000008
   19.43055534  247.10400391    4.90999985    1.46000004
   19.43472099   -1.00000000    4.90999985    1.26999998
   19.43777657   -1.00000000    4.90999985    0.98000002
   19.44111061   -1.00000000    4.90999985    0.63000000
   19.44472122   -1.00000000    4.90999985    0.80000001
   19.44805527   -1.00000000    4.90999985    1.33000004
   19.45111275   -1.00000000    4.90999985    1.30999994
   19.45444489  160.54100037    4.90999985    1.66999996
   19.45750046  144.56500244    4.90999985    2.00000000
   19.46083450   -1.00000000    4.90999985    1.73000002
   19.46416664  133.14300537    4.90999985    1.19000006
   19.46722221  119.83599854    4.90999985    1.91999996
   19.47333336  119.83599854    4.90999985    1.55999994
   19.47750092  255.95700073    4.90999985    1.60000002
   19.48083305  110.21499634    4.90999985    1.91999996
   19.48388863  101.68699646    4.90999985    1.55999994
   19.48722267  335.32699585    4.90999985    1.76999998
   19.49055672  323.11401367    4.90999985    1.89999998
   19.49361229   54.17929840    4.90999985    1.78999996
   19.49694443  355.39199829    4.90999985    1.73000002
   19.50000000   -1.00000000    4.90999985    1.89999998
   19.50333405   23.57019997    4.90999985    1.39999998
   19.50666618   -1.00000000    4.90999985    1.64999998
   19.51027870   -1.00000000    4.90999985    1.53999996
   19.51611137   -1.00000000    4.90999985    1.75000000
   19.52027702  123.36199951    4.90999985    1.91999996
   19.52361107   -1.00000000    4.90999985    1.50000000
   19.52666664   -1.00000000    4.90999985    1.38000000
   19.53000069   -1.00000000    4.90999985    1.25000000
   19.53333282   67.40720367    4.90999985    1.41999996
   19.53638840  266.90899658    4.90999985    1.76999998
   19.53972244  574.20098877    4.90999985    2.00000000
   19.54166603  385.22399902    4.90999985    1.91999996
   19.54305458  312.88500977    4.90999985    1.89999998
   19.54305458   -1.00000000    4.90999985    1.64999998
   19.54305458   -1.00000000    4.90999985    1.53999996
   19.54305458  123.36199951    4.90999985    1.91999996
   19.54305458   -1.00000000    4.90999985    1.50000000
   19.54333305   -1.00000000    4.90999985    1.38000000
   19.54333305   -1.00000000    4.90999985    1.25000000
   19.54333305   67.40720367    4.90999985    1.41999996
   19.54333305  266.90899658    4.90999985    1.76999998
   19.54333305  574.20098877    4.90999985    2.00000000
   19.54472160  543.33697510    4.90999985    1.86000001
   19.54666710  685.33599854    4.90999985    1.98000002
   19.54777718  421.02899170    4.90999985    2.00000000
   19.54916573  568.20001221    4.90999985    2.03999996
   19.55055428  513.89001465    4.90999985    2.07999992
   19.55194283  393.54501343    4.90999985    2.05999994
   19.55333328  361.45401001    4.90999985    2.17000008
   19.55472183  389.76901245    4.90999985    2.19000006
   19.55611038  303.25100708    4.90999985    2.17000008
   19.55638885  543.33697510    4.90999985    1.86000001
   19.55694389  298.54501343    4.90999985    2.19000006
   19.55999947  345.52801514    4.90999985    2.23000002
   19.56333351  307.59100342    4.90999985    2.23000002
   19.56666756  327.29299927    4.90999985    2.25000000
   19.56972313  393.92401123    4.90999985    2.17000008
   19.57305717  466.98901367    4.90999985    2.15000010
   19.57500076  403.46301270    4.90999985    2.15000010
   19.57638931  324.41699219    4.90999985    2.23000002
   19.57638931  298.54501343    4.90999985    2.19000006
   19.57638931  345.52801514    4.90999985    2.23000002
   19.57638931  307.59100342    4.90999985    2.23000002
   19.57666779  327.29299927    4.90999985    2.25000000
   19.57666779  393.92401123    4.90999985    2.17000008
   19.57666779  466.98901367    4.90999985    2.15000010
   19.57750130  339.67599487    4.90999985    2.25000000
   19.58083344  273.65701294    4.90999985    2.28999996
   19.58388901  284.62500000    4.90999985    2.23000002
   19.58722305  294.05300903    4.90999985    2.19000006
   19.59027863  271.88900757    4.90999985    2.25000000
   19.59722328  271.88900757    4.90999985    1.85000002
   19.60138893   77.98329926    4.90999985    1.61000001
   19.60444450  229.46800232    4.90999985    1.73000002
   19.60777855   47.82410049    4.90999985    1.80999994
   19.61027908   66.01090240    4.90999985    1.63000000
   19.61111069   -1.00000000    4.90999985    1.63000000
   19.61444473   -1.00000000    4.90999985    1.53999996
   19.61777878   -1.00000000    4.90999985    1.55999994
   19.62083435   -1.00000000    4.90999985    1.36000001
   19.62416649   -1.00000000    4.90999985    1.50000000
   19.62722206   -1.00000000    4.90999985    1.50000000
   19.63055611   -1.00000000    4.90999985    1.36000001
   19.63388824   -1.00000000    4.90999985    1.46000004
   19.64416695   -1.00000000    4.90999985    1.28999996
   19.64722252   -1.00000000    4.90999985    1.11000001
   19.65055466   -1.00000000    4.90999985    1.03999996
   19.65361023   -1.00000000    4.90999985    1.26999998
   19.65694427   -1.00000000    4.90999985    1.34000003
   19.66027832   -1.00000000    4.90999985    1.51999998
   19.66333389   -1.00000000    4.90999985    1.60000002
   19.66666603  161.53599548    4.90999985    1.53999996
   19.67000008  120.03800201    4.90999985    1.91999996
   19.67305565  104.68000031    4.90999985    1.78999996
   19.67638779  126.53600311    4.90999985    1.76999998
   19.67694473  146.08900452    4.90999985    1.76999998
   19.68277740  146.08900452    4.90999985    2.23000002
   19.68694305  167.78700256    4.90999985    1.98000002
   19.69027710   -1.00000000    4.90999985    1.71000004
   19.69333267   -1.00000000    4.90999985    1.33000004
   19.69666672   -1.00000000    4.90999985    1.30999994
   19.69972038   -1.00000000    4.90999985    1.11000001
   19.70305634   -1.00000000    4.90999985    1.01999998
   19.70639038  116.94999695    4.90999985    1.53999996
   19.70944595  120.83499908    4.90999985    1.76999998
   19.71027946   23.57019997    4.90999985    1.78999996
   19.71305656   -1.00000000    4.90999985    1.58000004
   19.71638870   51.17750168    4.90999985    1.55999994
   19.71972275  164.46000671    4.90999985    1.71000004
   19.72555542  164.46000671    4.90999985    1.66999996
   19.72972298  211.10200500    4.90999985    2.09999990
   19.73305511  196.22900391    4.90999985    2.26999998
   19.73611069  213.83999634    4.90999985    2.25000000
   19.73944473  235.87800598    4.90999985    2.13000011
   19.74277878  241.27000427    4.90999985    2.11999989
   19.74361229  242.46200562    4.90999985    2.09999990
   19.74611092  198.17500305    4.90999985    2.07999992
   19.74944496  247.52200317    4.90999985    2.07999992
   19.75277710  210.20500183    4.90999985    2.17000008
   19.75583267  297.79299927    4.90999985    2.05999994
   19.75916672  214.68499756    4.90999985    2.00000000
   19.76250076  172.02799988    4.90999985    1.75000000
   19.76861000  172.02799988    4.90999985    2.00000000
   19.77249908  302.68301392    4.90999985    1.78999996
   19.77583313  350.14199829    4.90999985    1.98000002
   19.77694511  257.21899414    4.90999985    1.96000004
   19.77944374   92.53579712    4.90999985    1.64999998
   19.78277779  130.06100464    4.90999985    1.61000001
   19.78610992   36.60729980    4.90999985    1.69000006
   19.78916550   -1.00000000    4.90999985    1.55999994
   19.79249954   44.93700027    4.90999985    1.44000006
   19.79583359  158.67999268    4.90999985    1.71000004
   19.79888916  204.07699585    4.90999985    1.66999996
   19.80222130  286.88400269    4.90999985    1.86000001
   19.80527687  281.79501343    4.90999985    1.91999996
   19.81138802  281.79501343    4.90999985    1.89999998
   19.81555557   -1.00000000    4.90999985    1.89999998
   19.81861115   -1.00000000    4.90999985    1.86000001
   19.82194519   -1.00000000    4.90999985    1.83000004
   19.82527924   -1.00000000    4.90999985    1.83000004
   19.82833481   -1.00000000    4.90999985    1.80999994
   19.83166695   -1.00000000    4.90999985    1.76999998
   19.83472252   -1.00000000    4.90999985    2.03999996
   19.83805656   -1.00000000    4.90999985    2.07999992
   19.84138870   -1.00000000    4.90999985    2.01999998
   19.84472275   -1.00000000    4.90999985    1.98000002
   19.84805679   -1.00000000    4.90999985    1.63000000
   19.85833359   -1.00000000    4.90999985    1.39999998
   19.86138916   -1.00000000    4.90999985    1.51999998
   19.86472321   -1.00000000    4.90999985    1.73000002
   19.86805534   -1.00000000    4.90999985    1.85000002
   19.87111092   -1.00000000    4.90999985    1.71000004
   19.87444496   -1.00000000    4.90999985    1.41999996
   19.87777710   -1.00000000    4.90999985    1.41999996
   19.88111115   -1.00000000    4.90999985    1.85000002
   19.88416672   -1.00000000    4.90999985    1.98000002
   19.88750076   -1.00000000    4.90999985    1.88000000
   19.89083290   -1.00000000    4.90999985    1.94000006
   19.90111160   -1.00000000    4.90999985    1.53999996
   19.90444374   -1.00000000    4.90999985    1.39999998
   19.90749931   -1.00000000    4.90999985    1.58000004
   19.91110992   -1.00000000    4.90999985    1.55999994
   19.91444397   -1.00000000    4.90999985    1.53999996
   19.91749954   -1.00000000    4.90999985    1.66999996
   19.92083359   -1.00000000    4.90999985    1.76999998
   19.92416573   -1.00000000    4.90999985    1.61000001
   19.92722130   -1.00000000    4.90999985    1.69000006
   19.93055534   -1.00000000    4.90999985    1.21000004
   19.93388748   -1.00000000    4.90999985    1.28999996
   19.94388771   -1.00000000    4.90999985    1.53999996
   19.94722176   -1.00000000    4.90999985    1.48000002
   19.95055580   -1.00000000    4.90999985    1.48000002
   19.95361137   -1.00000000    4.90999985    1.39999998
   19.95694542   -1.00000000    4.90999985    1.38000000
   19.96000099   -1.00000000    4.90999985    1.33000004
   19.96333504   -1.00000000    4.90999985    1.21000004
   19.96666718   -1.00000000    4.90999985    1.05999994
   19.96972275   -1.00000000    4.90999985    1.11000001
   19.97305679   -1.00000000    4.90999985    1.13000000
   19.97638893   -1.00000000    4.90999985    1.39999998
   19.98694420   -1.00000000    4.90999985    1.63000000
   19.98999977   -1.00000000    4.90999985    1.64999998
   19.99333382   -1.00000000    4.90999985    1.53999996
   19.99638939   -1.00000000    4.90999985    1.53999996
   19.99972153   -1.00000000    4.90999985    1.61000001
   20.00305557   -1.00000000    4.90999985    1.71000004
   20.00611115   -1.00000000    4.90999985    1.63000000
   20.00944519   -1.00000000    4.90999985    1.60000002
   20.01277733   -1.00000000    4.90999985    1.60000002
   20.01611137   -1.00000000    4.90999985    1.53999996
   20.01944351   -1.00000000    4.90999985    1.46000004
   20.02972221   -1.00000000    4.90999985    1.23000002
   20.03277779   -1.00000000    4.90999985    1.16999996
   20.03610992   -1.00000000    4.90999985    1.13000000
   20.03944397   -1.00000000    4.90999985    1.41999996
   20.04249954   -1.00000000    4.90999985    1.53999996
   20.04611015   -1.00000000    4.90999985    1.64999998
   20.04944420   -1.00000000    4.90999985    1.38000000
   20.05249977   -1.00000000    4.90999985    1.28999996
   20.05583191   -1.00000000    4.90999985    1.26999998
   20.05916595   -1.00000000    4.90999985    1.34000003
   20.06222153   -1.00000000    4.90999985    1.53999996
   20.07250023   -1.00000000    4.90999985    1.23000002
   20.07583427   -1.00000000    4.90999985    1.13000000
   20.07916832   -1.00000000    4.90999985    1.34000003
   20.08250046   -1.00000000    4.90999985    1.34000003
   20.08555603   -1.00000000    4.90999985    1.53999996
   20.08889008   -1.00000000    4.90999985    1.71000004
   20.09222221   -1.00000000    4.90999985    1.69000006
   20.09527779   -1.00000000    4.90999985    1.63000000
   20.09861183   -1.00000000    4.90999985    1.63000000
   20.10194397   -1.00000000    4.90999985    1.46000004
   20.10499954   -1.00000000    4.90999985    1.28999996
   20.11527824   -1.00000000    4.90999985    1.21000004
   20.11861038   -1.00000000    4.90999985    1.26999998
   20.12166595   -1.00000000    4.90999985    1.21000004
   20.12500000   -1.00000000    4.90999985    1.07000005
   20.12833405   -1.00000000    4.90999985    0.86000001
   20.13138962   -1.00000000    4.90999985    0.86000001
   20.13472176   -1.00000000    4.90999985    0.95999998
   20.13805580   -1.00000000    4.90999985    0.88000000
   20.14111137   -1.00000000    4.90999985    0.98000002
   20.14472198   -1.00000000    4.90999985    1.05999994
   20.14805603   -1.00000000    4.90999985    1.19000006
   20.15805435   -1.00000000    4.90999985    1.19000006
   20.16138840   -1.00000000    4.90999985    1.00000000
   20.16472244   -1.00000000    4.90999985    0.83999997
   20.16777802   -1.00000000    4.90999985    1.09000003
   20.17111015   -1.00000000    4.90999985    1.01999998
   20.17444420   -1.00000000    4.90999985    0.95999998
   20.17777634   -1.00000000    4.90999985    1.05999994
   20.18111038   -1.00000000    4.90999985    1.09000003
   20.18416595   -1.00000000    4.90999985    1.16999996
   20.18750000   -1.00000000    4.90999985    1.25000000
   20.19083214   -1.00000000    4.90999985    1.19000006
   20.20111275   -1.00000000    4.90999985    1.30999994
   20.20416832   -1.00000000    4.90999985    1.41999996
   20.20750046   -1.00000000    4.90999985    1.41999996
   20.21083450   -1.00000000    4.90999985    1.44000006
   20.21416664   -1.00000000    4.90999985    1.50000000
   20.21722221   -1.00000000    4.90999985    1.60000002
   20.22055626   -1.00000000    4.90999985    1.60000002
   20.22389030   -1.00000000    4.90999985    1.51999998
   20.22694588   -1.00000000    4.90999985    1.36000001
   20.23027802   -1.00000000    4.90999985    1.34000003
   20.23361206   -1.00000000    4.90999985    1.46000004
   20.24388885   -1.00000000    4.90999985    1.36000001
   20.24722290   -1.00000000    4.90999985    1.28999996
   20.25027847   -1.00000000    4.90999985    1.26999998
   20.25361061   -1.00000000    4.90999985    1.23000002
   20.25666618   -1.00000000    4.90999985    1.25000000
   20.26000023   -1.00000000    4.90999985    1.28999996
   20.26333427   -1.00000000    4.90999985    1.41999996
   20.26638794   -1.00000000    4.90999985    1.46000004
   20.26972198   -1.00000000    4.90999985    1.51999998
   20.27305603   -1.00000000    4.90999985    1.53999996
   20.27611160   -1.00000000    4.90999985    1.53999996
   20.28666687   -1.00000000    4.90999985    1.55999994
   20.28999901   -1.00000000    4.90999985    1.50000000
   20.29305458   -1.00000000    4.90999985    1.48000002
   20.29638863   -1.00000000    4.90999985    1.50000000
   20.29972076   -1.00000000    4.90999985    1.48000002
   20.30277634   -1.00000000    4.90999985    1.39999998
   20.30611038   -1.00000000    4.90999985    1.28999996
   20.30944443   -1.00000000    4.90999985    1.23000002
   20.31277657   -1.00000000    4.90999985    1.16999996
   20.31611061   -1.00000000    4.90999985    1.11000001
   20.31944466   -1.00000000    4.90999985    0.89999998
   20.32944489   -1.00000000    4.90999985    0.95999998
   20.33277893   -1.00000000    4.90999985    1.00000000
   20.33611107   -1.00000000    4.90999985    1.14999998
   20.33916664   -1.00000000    4.90999985    1.36000001
   20.35916710   -1.00000000    4.90999985    1.48000002
   20.36222267   -1.00000000    4.90999985    1.51999998
   20.37249947   -1.00000000    4.90999985    1.53999996
   20.37555504   -1.00000000    4.90999985    1.55999994
   20.37888908   -1.00000000    4.90999985    1.53999996
   20.38194466   -1.00000000    4.90999985    1.50000000
   20.38527679   -1.00000000    4.90999985    1.41999996
   20.38861084   -1.00000000    4.90999985    1.16999996
   20.39194489   -1.00000000    4.90999985    1.11000001
   20.39527702   -1.00000000    4.90999985    1.21000004
   20.39861107   -1.00000000    4.90999985    1.48000002
   20.40166664   -1.00000000    4.90999985    1.55999994
   20.40499878   -1.00000000    4.90999985    1.53999996
   20.41527748   -1.00000000    4.90999985    1.61000001
   20.41833305   -1.00000000    4.90999985    1.61000001
   20.42166519   -1.00000000    4.90999985    1.63000000
   20.42527771   -1.00000000    4.90999985    1.58000004
   20.42860985   -1.00000000    4.90999985    1.63000000
   20.43194389   -1.00000000    4.90999985    1.50000000
   20.43499947   -1.00000000    4.90999985    1.50000000
   20.43833160   -1.00000000    4.90999985    1.69000006
   20.44138718   -1.00000000    4.90999985    1.76999998
   20.44472122   -1.00000000    4.90999985    1.78999996
   20.44805527   -1.00000000    4.90999985    1.78999996
   20.45805550   -1.00000000    4.90999985    1.58000004
   20.46138954   -1.00000000    4.90999985    1.60000002
   20.46444511   -1.00000000    4.90999985    1.60000002
   20.46777916   -1.00000000    4.90999985    1.48000002
   20.47111130   -1.00000000    4.90999985    1.26999998
   20.47416687   -1.00000000    4.90999985    1.30999994
   20.47750092   -1.00000000    4.90999985    1.30999994
   20.48055649   -1.00000000    4.90999985    1.39999998
   20.48388863   -1.00000000    4.90999985    1.44000006
   20.48722267   -1.00000000    4.90999985    1.50000000
   20.49027824   -1.00000000    4.90999985    1.51999998
   20.50083351   -1.00000000    4.90999985    1.50000000
   20.50416756   -1.00000000    4.90999985    1.48000002
   20.50749969   -1.00000000    4.90999985    1.41999996
   20.51055527   -1.00000000    4.90999985    1.44000006
   20.51388931   -1.00000000    4.90999985    1.48000002
   20.51694489   -1.00000000    4.90999985    1.48000002
   20.52027702   -1.00000000    4.90999985    1.50000000
   20.52361107   -1.00000000    4.90999985    1.50000000
   20.52694511   -1.00000000    4.90999985    1.50000000
   20.53027725   -1.00000000    4.90999985    1.50000000
   20.53361130   -1.00000000    4.90999985    1.48000002
   20.54388809   -1.00000000    4.90999985    1.48000002
   20.54694366   -1.00000000    4.90999985    1.50000000
   20.55027771   -1.00000000    4.90999985    1.34000003
   20.55333328   -1.00000000    4.90999985    1.30999994
   20.55666542   -1.00000000    4.90999985    1.36000001
   20.55999947   -1.00000000    4.90999985    1.39999998
   20.56333351   -1.00000000    4.90999985    1.41999996
   20.56666756   -1.00000000    4.90999985    1.41999996
   20.56972313   -1.00000000    4.90999985    1.41999996
   20.57305717   -1.00000000    4.90999985    1.39999998
   20.57638931   -1.00000000    4.90999985    1.39999998
   20.58666801   -1.00000000    4.90999985    1.46000004
   20.58972359   -1.00000000    4.90999985    1.44000006
   20.59333420   -1.00000000    4.90999985    1.41999996
   20.59666824   -1.00000000    4.90999985    1.44000006
   20.60000038   -1.00000000    4.90999985    1.44000006
   20.60305595   -1.00000000    4.90999985    1.41999996
   20.60639000   -1.00000000    4.90999985    1.41999996
   20.60972214   -1.00000000    4.90999985    1.41999996
   20.61277771   -1.00000000    4.90999985    1.39999998
   20.61611176   -1.00000000    4.90999985    1.39999998
   20.61916733   -1.00000000    4.90999985    1.38000000
   20.62944412   -1.00000000    4.90999985    1.19000006
   20.63277817   -1.00000000    4.90999985    0.94000000
   20.63583374   -1.00000000    4.90999985    0.69000000
   20.63916588   -1.00000000    4.90999985    0.75000000
   20.64249992   -1.00000000    4.90999985    0.86000001
   20.64555550   -1.00000000    4.90999985    0.94000000
   20.64888954   -1.00000000    4.90999985    0.92000002
   20.65222168   -1.00000000    4.90999985    0.89999998
   20.65527725   -1.00000000    4.90999985    0.89999998
   20.65888786   -1.00000000    4.90999985    0.83999997
   20.66222191   -1.00000000    4.90999985    0.80000001
   20.67222214   -1.00000000    4.90999985    0.83999997
   20.67555428   -1.00000000    4.90999985    0.83999997
   20.67888832   -1.00000000    4.90999985    0.88000000
   20.68194389   -1.00000000    4.90999985    0.89999998
   20.68527603   -1.00000000    4.90999985    0.89999998
   20.68861008   -1.00000000    4.90999985    0.92000002
   20.69194412   -1.00000000    4.90999985    0.92000002
   20.69527626   -1.00000000    4.90999985    0.95999998
   20.69861031   -1.00000000    4.90999985    0.98000002
   20.70166779   -1.00000000    4.90999985    1.00000000
   20.70499992   -1.00000000    4.90999985    0.88000000
   20.71527863   -1.00000000    4.90999985    0.86000001
   20.71833420   -1.00000000    4.90999985    0.83999997
   20.72166634   -1.00000000    4.90999985    0.80000001
   20.72500038   -1.00000000    4.90999985    0.81999999
   20.72833443   -1.00000000    4.90999985    0.86000001
   20.73166656   -1.00000000    4.90999985    0.88000000
   20.73472214   -1.00000000    4.90999985    0.88000000
   20.73805618   -1.00000000    4.90999985    0.86000001
   20.74138832   -1.00000000    4.90999985    0.88000000
   20.74444389   -1.00000000    4.90999985    0.88000000
