    HOUR (UT)   FLARE FACTOR    SKY TESTER    SUN TESTER
   11.94527817   -1.00000000   -1.00000000   -1.00000000
   11.99777794  172.81300354    4.90999985    1.61000001
   12.00083351  199.16700745    4.90999985    1.58000004
   12.00416660  279.84500122    4.90999985    1.61000001
   12.00749969  399.10501099    4.90999985    1.66999996
   12.01055527  361.86499023    4.90999985    1.71000004
   12.01388931  377.35299683    4.90999985    1.75000000
   12.01805496  377.35299683    4.90999985    1.80999994
   12.02194405  352.38400269    4.90999985    1.78999996
   12.02527714  353.23199463    4.90999985    1.80999994
   12.02861118  329.90798950    4.90999985    1.86000001
   12.03111076  250.18600464    4.90999985    1.89999998
   12.03222179  246.73899841    4.90999985    1.91999996
   12.03555584  299.11401367    4.90999985    1.89999998
   12.03861141  285.95498657    4.90999985    1.86000001
   12.04194450  294.98498535    4.90999985    1.86000001
   12.04527855  333.43499756    4.90999985    1.85000002
   12.04833412  269.75399780    4.90999985    1.78999996
   12.05166721  367.56201172    4.90999985    1.71000004
   12.05472279  347.18399048    4.90999985    1.71000004
   12.06083393  347.18399048    4.90999985    1.75000000
   12.06500053  299.88598633    4.90999985    1.78999996
   12.06805515  383.97601318    4.90999985    1.78999996
   12.07138920  140.64199829    4.90999985    1.69000006
   12.07472229  218.19999695    4.90999985    1.63000000
   12.07777786   98.21209717    4.90999985    1.64999998
   12.08111095   41.94829941    4.90999985    1.44000006
   12.08416653   -1.00000000    4.90999985    1.36000001
   12.08749962   65.51940155    4.90999985    1.38000000
   12.09083271  167.13699341    4.90999985    1.44000006
   12.09388828  158.11199951    4.90999985    1.53999996
   12.09722233  206.38800049    4.90999985    1.64999998
   12.09777737  140.23599243    4.90999985    1.64999998
   12.10361195  140.23599243    4.90999985    1.71000004
   12.10777855  219.86900330    4.90999985    1.66999996
   12.11111164  213.19099426    4.90999985    1.69000006
   12.11416721  220.43600464    4.90999985    1.75000000
   12.11750031  151.64399719    4.90999985    1.69000006
   12.12055588  128.23899841    4.90999985    1.58000004
   12.12388897   69.35710144    4.90999985    1.46000004
   12.12722206   66.39900208    4.90999985    1.44000006
   12.13027763   23.57019997    4.90999985    1.44000006
   12.13388920   96.72859955    4.90999985    1.41999996
   12.13722229  148.93600464    4.90999985    1.55999994
   12.14027786  166.89500427    4.90999985    1.64999998
   12.14638901  166.89500427    4.90999985    1.76999998
   12.15055561  153.00599670    4.90999985    1.75000000
   12.15388870  155.85600281    4.90999985    1.63000000
   12.15694427  104.03399658    4.90999985    1.53999996
   12.16027737   -1.00000000    4.90999985    1.39999998
   12.16361046   -1.00000000    4.90999985    1.26999998
   12.16722298   -1.00000000    4.90999985    1.21000004
   12.17055607   -1.00000000    4.90999985    1.25000000
   12.17361164   -1.00000000    4.90999985    1.30999994
   12.17694473   -1.00000000    4.90999985    1.16999996
   12.18027782   -1.00000000    4.90999985    1.14999998
   12.18333340   -1.00000000    4.90999985    1.14999998
   12.19333363   -1.00000000    4.90999985    1.03999996
   12.19666672   -1.00000000    4.90999985    0.95999998
   12.19999981   -1.00000000    4.90999985    0.94000000
   12.20333290   -1.00000000    4.90999985    0.94000000
   12.20638847   -1.00000000    4.90999985    0.94000000
   12.20972157   -1.00000000    4.90999985    0.92000002
   12.21305561   -1.00000000    4.90999985    0.80000001
   12.21611118   -1.00000000    4.90999985    0.79000002
   12.21944427   -1.00000000    4.90999985    0.83999997
   12.22277737   -1.00000000    4.90999985    0.95999998
   12.22583294   -1.00000000    4.90999985    0.95999998
   12.23611164   -1.00000000    4.90999985    1.03999996
   12.23944473   -1.00000000    4.90999985    1.09000003
   12.24277782   -1.00000000    4.90999985    1.01999998
   12.24583340   -1.00000000    4.90999985    1.00000000
   12.24916649   -1.00000000    4.90999985    0.95999998
   12.25249958   -1.00000000    4.90999985    1.00000000
   12.25555515   -1.00000000    4.90999985    1.03999996
   12.25888920   -1.00000000    4.90999985    1.01999998
   12.26222229   -1.00000000    4.90999985    1.03999996
   12.26555538   -1.00000000    4.90999985    1.11000001
   12.26888847   -1.00000000    4.90999985    1.16999996
   12.27499962   -1.00000000    4.90999985    1.30999994
   12.27916622   40.17929840    4.90999985    1.33000004
   12.28249931  134.86799622    4.90999985    1.38000000
   12.28555584  133.76400757    4.90999985    1.51999998
   12.28888893  166.12100220    4.90999985    1.60000002
   12.29194450  170.09100342    4.90999985    1.63000000
   12.29527855  270.97500610    4.90999985    1.64999998
   12.29777813  313.76699829    4.90999985    1.76999998
   12.29888916  322.07501221    4.90999985    1.78999996
   12.30222225  365.12701416    4.90999985    1.85000002
   12.30583382  330.54299927    4.90999985    1.85000002
   12.30916691  323.10699463    4.90999985    1.86000001
   12.31305599  255.61599731    4.90999985    1.91999996
   12.31777763  255.61599731    4.90999985    1.98000002
   12.32194424  247.82800293    4.90999985    2.00000000
   12.32527733  344.53201294    4.90999985    2.05999994
   12.32833290  322.17599487    4.90999985    2.01999998
   12.33111095  408.27700806    4.90999985    1.94000006
   12.33194447  347.94000244    4.90999985    1.89999998
   12.33527756  322.29000854    4.90999985    1.88000000
   12.33861065  356.00900269    4.90999985    1.91999996
   12.34166622  315.27398682    4.90999985    1.85000002
   12.34499931  294.45199585    4.90999985    1.89999998
   12.34833336  304.46701050    4.90999985    1.98000002
   12.35138893  301.43399048    4.90999985    1.98000002
   12.35472298  356.14999390    4.90999985    1.78999996
   12.36083412  356.14999390    4.90999985    2.03999996
   12.36472225  281.62600708    4.90999985    1.98000002
   12.36805534  381.43200684    4.90999985    1.88000000
   12.37138939  265.15100098    4.90999985    1.98000002
   12.37444496  241.25999451    4.90999985    2.00000000
   12.37777805  316.68399048    4.90999985    1.98000002
   12.38083363  299.02398682    4.90999985    1.89999998
   12.38416672  292.12399292    4.90999985    1.91999996
   12.38749981  275.76699829    4.90999985    1.89999998
   12.39055538  266.72698975    4.90999985    1.91999996
   12.39388847  275.86801147    4.90999985    1.94000006
   12.39722252  297.33499146    4.90999985    1.91999996
   12.39777756  284.13000488    4.90999985    1.91999996
   12.40361118  284.13000488    4.90999985    1.91999996
   12.40777779  258.41101074    4.90999985    1.94000006
   12.41083336  292.78298950    4.90999985    1.91999996
   12.41416645  279.68600464    4.90999985    1.88000000
   12.41750050  254.35499573    4.90999985    1.94000006
   12.42055607  235.51400757    4.90999985    1.98000002
   12.42388916  226.83900452    4.90999985    2.00000000
   12.42694473  218.72700500    4.90999985    2.00000000
   12.43027782  236.71800232    4.90999985    2.01999998
   12.43111134  237.52600098    4.90999985    2.00000000
   12.43388939  238.38900757    4.90999985    2.01999998
   12.43694496  234.73599243    4.90999985    2.01999998
   12.44027805  222.26699829    4.90999985    2.07999992
   12.44638920  222.26699829    4.90999985    2.05999994
   12.45055580  223.19299316    4.90999985    2.05999994
   12.45361137  210.71499634    4.90999985    2.07999992
   12.45694447  196.44799805    4.90999985    2.15000010
   12.46027756  189.95199585    4.90999985    2.19000006
   12.46333313  200.95399475    4.90999985    2.23000002
   12.46444416  196.13600159    4.90999985    2.23000002
   12.46722221  198.74299622    4.90999985    2.23000002
   12.47027779  176.07400513    4.90999985    2.25000000
   12.47361088  179.78999329    4.90999985    2.23000002
   12.47666645  190.18800354    4.90999985    2.23000002
   12.47999954  201.74899292    4.90999985    2.25000000
   12.48333359  187.08200073    4.90999985    2.23000002
   12.48916721  187.08200073    4.90999985    2.19000006
   12.49333382  188.66499329    4.90999985    2.17000008
   12.49666691  191.60000610    4.90999985    2.17000008
   12.49777794  174.68200684    4.90999985    2.17000008
   12.50027752  179.60600281    4.90999985    2.21000004
   12.50333309  188.76600647    4.90999985    2.25000000
   12.50666714  189.38099670    4.90999985    2.25000000
   12.50972176  180.99899292    4.90999985    2.25000000
   12.51305580  191.44799805    4.90999985    2.23000002
   12.51638889  176.25300598    4.90999985    2.23000002
   12.51944447  177.78199768    4.90999985    2.23000002
   12.52277756  186.92700195    4.90999985    2.25000000
   12.52611065  185.56599426    4.90999985    2.25000000
   12.53222179  185.56599426    4.90999985    2.23000002
   12.53611183  185.35299683    4.90999985    2.21000004
   12.53944492  183.44599915    4.90999985    2.21000004
   12.54277802  186.50300598    4.90999985    2.23000002
   12.54583359  190.91999817    4.90999985    2.23000002
   12.54916668  199.87699890    4.90999985    2.25000000
   12.55249977  180.66900635    4.90999985    2.25000000
   12.55555534  181.45599365    4.90999985    2.26999998
   12.55888939  177.37600708    4.90999985    2.25000000
   12.56194496  200.61999512    4.90999985    2.23000002
   12.56444454  194.33900452    4.90999985    2.21000004
   12.56583309  196.22000122    4.90999985    2.17000008
   12.56888866  198.06700134    4.90999985    2.15000010
   12.57499981  198.06700134    4.90999985    2.09999990
   12.57916641  220.17799377    4.90999985    2.21000004
   12.58222198  211.33799744    4.90999985    2.19000006
   12.58555508  204.11700439    4.90999985    2.19000006
   12.58888817  190.27000427    4.90999985    2.23000002
   12.59194374  200.76100159    4.90999985    2.23000002
   12.59527779  189.69299316    4.90999985    2.25000000
   12.59777737  205.85899353    4.90999985    2.25000000
   12.59888840  192.62399292    4.90999985    2.23000002
   12.60194492  199.96800232    4.90999985    2.23000002
   12.60527802  197.93400574    4.90999985    2.21000004
   12.60833359  198.20199585    4.90999985    2.19000006
   12.61166668  202.03100586    4.90999985    2.19000006
   12.61777782  202.03100586    4.90999985    2.25000000
   12.62194443  185.52200317    4.90999985    2.25000000
   12.62527752  207.88999939    4.90999985    2.25000000
   12.62833309  200.48199463    4.90999985    2.26999998
   12.63111115  196.20700073    4.90999985    2.26999998
   12.63222218  194.17799377    4.90999985    2.28999996
   12.63527775  207.41799927    4.90999985    2.30999994
   12.63861084  199.13099670    4.90999985    2.25000000
   12.64166641  200.07000732    4.90999985    2.26999998
   12.64499950  188.70599365    4.90999985    2.30999994
   12.64833355  193.17500305    4.90999985    2.32999992
   12.65138817  198.26499939    4.90999985    2.30999994
   12.65472221  197.24800110    4.90999985    2.28999996
   12.66055489  197.24800110    4.90999985    2.32999992
   12.66472149  202.14300537    4.90999985    2.32999992
   12.66805553  194.97000122    4.90999985    2.30999994
   12.67111111  190.00999451    4.90999985    2.32999992
   12.67444515  191.93099976    4.90999985    2.32999992
   12.67777824  188.81500244    4.90999985    2.30999994
   12.68083382  184.64199829    4.90999985    2.30999994
   12.68416691  190.80299377    4.90999985    2.28999996
   12.68750000  194.46899414    4.90999985    2.30999994
   12.69055557  179.75599670    4.90999985    2.30999994
   12.69388866  180.21200562    4.90999985    2.32999992
   12.69694424  199.82299805    4.90999985    2.26999998
   12.69777775  201.69999695    4.90999985    2.26999998
   12.70361137  201.69999695    4.90999985    2.32999992
   12.70749950  183.24899292    4.90999985    2.36999989
   12.71083355  190.36099243    4.90999985    2.32999992
   12.71416664  191.80499268    4.90999985    2.32999992
   12.71722221  186.45599365    4.90999985    2.32999992
   12.72055531  187.00700378    4.90999985    2.30999994
   12.72388840  191.50900269    4.90999985    2.30999994
   12.72694397  190.97000122    4.90999985    2.28999996
   12.73027706  187.44700623    4.90999985    2.30999994
   12.73111057  195.09899902    4.90999985    2.30999994
   12.73388958  188.60200500    4.90999985    2.30999994
   12.73694515  184.32400513    4.90999985    2.32999992
   12.74027824  191.43200684    4.90999985    2.28999996
   12.74638939  191.43200684    4.90999985    2.28999996
   12.75055599  189.14799500    4.90999985    2.30999994
   12.75361156  220.55099487    4.90999985    2.28999996
   12.75694466  199.93400574    4.90999985    2.28999996
   12.76027775  196.63600159    4.90999985    2.26999998
   12.76333332  194.35299683    4.90999985    2.26999998
   12.76444435  207.38999939    4.90999985    2.28999996
   12.76694393  190.56300354    4.90999985    2.30999994
   12.76999950  199.80900574    4.90999985    2.32999992
   12.77333355  194.38000488    4.90999985    2.36999989
   12.77666664  191.51600647    4.90999985    2.32999992
   12.77972221  189.06399536    4.90999985    2.34999990
   12.78305531  195.22000122    4.90999985    2.36999989
   12.78916740  195.22000122    4.90999985    2.36999989
   12.79333401  205.49000549    4.90999985    2.39000010
   12.79666710  189.55000305    4.90999985    2.39000010
   12.79777813  182.93600464    4.90999985    2.36999989
   12.80027771  214.42500305    4.90999985    2.36999989
   12.80333328  211.63699341    4.90999985    2.39000010
   12.80666733  220.27600098    4.90999985    2.39000010
   12.81000042  198.51600647    4.90999985    2.39000010
   12.81305599  204.13000488    4.90999985    2.36999989
   12.81638908  192.74299622    4.90999985    2.36999989
   12.81944466  188.93600464    4.90999985    2.39000010
   12.82277775  197.14900208    4.90999985    2.39000010
   12.82611084  207.87600708    4.90999985    2.39000010
   12.83194447  207.87600708    4.90999985    2.36999989
   12.83611107  205.46000671    4.90999985    2.32999992
   12.83944416  206.97700500    4.90999985    2.30999994
   12.84249973  208.31599426    4.90999985    2.34999990
   12.84583282  185.04400635    4.90999985    2.36999989
   12.84916592  209.22599792    4.90999985    2.36999989
   12.85222244  193.34800720    4.90999985    2.34999990
   12.85555553  201.20500183    4.90999985    2.32999992
   12.85888958  186.83099365    4.90999985    2.36999989
   12.86194515  189.92500305    4.90999985    2.36999989
   12.86444473  189.84800720    4.90999985    2.36999989
   12.86555576  199.14599609    4.90999985    2.36999989
   12.86861134  188.09899902    4.90999985    2.34999990
   12.87500000  188.09899902    4.90999985    2.34999990
   12.87888908  211.93800354    4.90999985    2.36999989
   12.88222218  207.41400146    4.90999985    2.39000010
   12.88555527  182.97500610    4.55999994    2.40000010
   12.88861084  202.35499573    4.84999990    2.40000010
   12.89194393  185.68200684    4.61999989    2.40000010
   12.89527798  167.74800110    4.15999985    2.40000010
   12.89777756  197.02099609    4.00000000    2.40000010
   12.89888859  181.91600037    4.03999996    2.40000010
   12.90194416  165.38000488    3.89000010    2.42000008
   12.90527725  183.49000549    3.80999994    2.42000008
   12.90861034  191.48199463    3.66000009    2.42000008
   12.91166592  186.73599243    3.36999989    2.42000008
   12.91777802  186.73599243    3.00000000    2.44000006
   12.92194462  177.05200195    3.01999998    2.42000008
   12.92500019  188.34199524    3.07999992    2.40000010
   12.92833328  188.02000427    3.36999989    2.40000010
   12.93111134  180.59300232    3.43000007    2.40000010
   12.93194485  182.77000427    3.39000010    2.42000008
   12.93527794  197.44000244    3.57999992    2.40000010
   12.93833351  188.15299988    4.09999990    2.42000008
   12.94166660  177.08399963    4.48999977    2.40000010
   12.94472218  193.39799500    4.78000021    2.39000010
   12.94805527  179.35099792    4.90999985    2.34999990
   12.95138836  196.55499268    4.90999985    2.34999990
   12.95444393  179.23500061    4.90999985    2.40000010
   12.96055508  179.23500061    4.51000023    2.40000010
   12.96472168  181.27799988    4.80999994    2.39000010
   12.96777725  197.62199402    4.90999985    2.40000010
   12.97111034  177.02900696    4.90999985    2.44000006
   12.97444439  187.71800232    4.90999985    2.42000008
   12.97749996  189.07499695    4.19999981    2.42000008
   12.98083305  182.27799988    2.96000004    2.44000006
   12.98416710  177.79499817    2.05999994    2.42000008
   12.98722267  185.27999878    4.90999985    2.51999998
   12.99055576  185.74899292    4.90999985    2.53999996
   12.99361134  173.71899414    4.90999985    2.53999996
   12.99694443  193.01499939    4.90999985    2.53999996
   12.99777794  203.64900208    4.90999985    2.53999996
   13.01833344  203.64900208    4.90999985    2.53999996
   13.02250004  202.21899414    4.90999985    2.53999996
   13.02583313  201.17799377    4.90999985    2.53999996
   13.02916622  192.59300232    4.90999985    2.53999996
   13.03111076  191.63900757    4.90999985    2.53999996
   13.03277779  224.01600647    4.90999985    2.53999996
   13.03611183  200.44599915    4.90999985    2.53999996
   13.03916740  199.81599426    4.90999985    2.53999996
   13.04250050  183.96499634    4.90999985    2.53999996
   13.04583359  189.71699524    4.90999985    2.53999996
   13.04888916  184.19500732    4.90999985    2.53999996
   13.05222225  190.27400208    4.90999985    2.53999996
   13.05555534  189.80299377    4.90999985    2.53999996
   13.06111145  189.80299377    4.90999985    2.51999998
   13.06527805  194.96400452    4.90999985    2.53999996
   13.06861115  176.16000366    4.90999985    2.53999996
   13.07194424  204.97999573    4.90999985    2.53999996
   13.07499981  179.22999573    4.90999985    2.53999996
   13.07833290  217.41900635    4.90999985    2.53999996
   13.08138847  196.94599915    4.90999985    2.53999996
   13.08472157  198.86500549    4.90999985    2.51999998
   13.08805561  187.11999512    4.90999985    2.51999998
   13.09111118  202.71400452    4.90999985    2.51999998
   13.09444427  197.22799683    4.90999985    2.51999998
   13.09777737  206.09500122    4.90999985    2.51999998
   13.09805489  215.40100098    4.90999985    2.50000000
   13.10416698  215.40100098    4.90999985    2.51999998
   13.10833359  212.98599243    4.90999985    2.55999994
   13.11138916  213.59700012    4.90999985    2.53999996
   13.11472225  193.93499756    4.90999985    2.53999996
   13.11777782  201.63400269    4.90999985    2.53999996
   13.12111092  207.18499756    4.90999985    2.53999996
   13.12444496  206.83700562    4.90999985    2.53999996
   13.12750053  212.00799561    4.90999985    2.53999996
   13.13083363  205.22500610    4.90999985    2.55999994
   13.13138866  228.59700012    4.90999985    2.55999994
   13.13444424  208.22599792    4.90999985    2.53999996
   13.13777733  194.76100159    4.90999985    2.53999996
   13.14083290  206.92900085    4.90999985    2.55999994
   13.14694405  206.92900085    4.90999985    2.55999994
   13.15111065  210.06799316    4.90999985    2.53999996
   13.15416622  222.19799805    4.90999985    2.53999996
   13.15749931  215.24499512    4.90999985    2.53999996
   13.16083336  210.88600159    4.90999985    2.53999996
   13.16388893  248.42199707    4.90999985    2.55999994
   13.16472149  236.26899719    4.90999985    2.55999994
   13.16750050  229.10000610    4.90999985    2.55999994
   13.17083359  222.71499634    4.90999985    2.53999996
   13.17388916  233.33700562    4.90999985    2.55999994
   13.17722225  230.41799927    4.90999985    2.53999996
   13.18027782  221.18400574    4.90999985    2.53999996
   13.18361092  213.64199829    4.90999985    2.55999994
   13.18972206  213.64199829    4.90999985    2.55999994
   13.19388866  224.10299683    4.90999985    2.55999994
   13.19722271  225.26100159    4.90999985    2.55999994
   13.19805527  234.09599304    4.90999985    2.55999994
   13.20083332  215.54299927    4.90999985    2.55999994
   13.20416641  219.15299988    4.90999985    2.55999994
   13.20722198  218.05099487    4.90999985    2.55999994
   13.21055508  248.26100159    4.90999985    2.55999994
   13.21361065  212.65100098    4.90999985    2.57999992
   13.21694374  226.41000366    4.90999985    2.55999994
   13.22027779  227.43699646    4.90999985    2.55999994
   13.22333336  220.65800476    4.90999985    2.55999994
   13.22666645  243.64700317    4.90999985    2.57999992
   13.23249912  243.64700317    4.90999985    2.55999994
   13.23666668  236.85000610    4.90999985    2.57999992
   13.24000072  267.18200684    4.90999985    2.57999992
   13.24333382  237.97300720    4.90999985    2.55999994
   13.24638939  236.55299377    4.90999985    2.55999994
   13.24972248  255.85699463    4.90999985    2.57999992
   13.25277805  213.14599609    4.90999985    2.59999990
   13.25611115  228.01600647    4.90999985    2.44000006
   13.25944424  230.61199951    4.90999985    2.55999994
   13.26249981  217.75599670    4.90999985    2.57999992
   13.26472187  230.35699463    4.90999985    2.57999992
   13.26611137  205.13999939    4.90999985    2.57999992
   13.26944447  221.75000000    4.90999985    2.57999992
   13.27555561  221.75000000    4.90999985    2.57999992
   13.27972221  219.23199463    4.90999985    2.57999992
   13.28277779  224.10200500    4.90999985    2.57999992
   13.28611183  230.80599976    4.90999985    2.57999992
   13.28916740  223.72900391    4.90999985    2.57999992
   13.29250050  216.29499817    4.90999985    2.59999990
   13.29583359  220.97999573    4.90999985    2.57999992
   13.29805565  237.81399536    4.90999985    2.57999992
   13.29944515  222.97099304    4.90999985    2.57999992
   13.30277824  230.27900696    4.90999985    2.57999992
   13.30583382  226.25700378    4.90999985    2.55999994
   13.30916691  221.58999634    4.90999985    2.53999996
   13.31250000  230.65699768    4.90999985    2.55999994
   13.31833363  230.65699768    4.90999985    2.57999992
   13.32250023  211.88000488    4.90999985    2.59999990
   13.32555580  207.33000183    4.90999985    2.59999990
   13.32888889  213.18299866    4.90999985    2.59999990
   13.33138847  213.13699341    4.90999985    2.59999990
   13.33249950  192.06799316    4.90999985    2.59999990
   13.33583260  210.87600708    4.90999985    2.57999992
   13.33888817  206.05900574    4.90999985    2.59999990
   13.34222221  210.47700500    4.90999985    2.59999990
   13.34527779  204.11300659    4.90999985    2.57999992
   13.34861088  193.33999634    4.90999985    2.57999992
   13.35166740  204.49400330    4.90999985    2.59999990
   13.35500050  200.80200195    4.90999985    2.55999994
   13.36111164  200.80200195    4.90999985    2.55999994
   13.36527824  182.78500366    4.90999985    2.59999990
   13.36861134  190.79400635    4.90999985    2.59999990
   13.37166691  206.68699646    4.90999985    2.59999990
   13.37500000  199.59500122    4.90999985    2.59999990
   13.37805557  221.92300415    4.90999985    2.61999989
   13.38138866  204.32000732    4.90999985    2.59999990
   13.38472176  211.23899841    4.90999985    2.59999990
   13.38777733  215.74099731    4.90999985    2.61999989
   13.39111137  199.82299805    4.90999985    2.59999990
   13.39444447  190.64399719    4.90999985    2.59999990
   13.39750004  197.06900024    4.90999985    2.59999990
   13.39805508  201.20399475    4.90999985    2.59999990
   13.40388870  201.20399475    4.90999985    2.59999990
   13.40805531  172.47200012    4.90999985    2.61999989
   13.41138840  207.09399414    4.90999985    2.61999989
   13.41472149  191.99000549    4.90999985    2.59999990
   13.41777802  180.67399597    4.90999985    2.59999990
   13.42111111  163.14399719    4.90999985    2.59999990
   13.42416668  193.06599426    4.90999985    2.61999989
   13.42750072  182.72999573    4.90999985    2.61999989
   13.43083382  168.77600098    4.90999985    2.59999990
   13.43138885  185.33399963    4.90999985    2.59999990
   13.43416691  157.86599731    4.90999985    2.57999992
   13.43750000  169.17300415    4.90999985    2.59999990
   13.44055557  182.41499329    4.90999985    2.61999989
   13.44694424  182.41499329    4.90999985    2.61999989
   13.45111084  163.17599487    4.90999985    2.61999989
   13.45416641  174.03799438    4.90999985    2.61999989
   13.45749950  169.35299683    4.90999985    2.61999989
   13.46055508  174.91999817    4.90999985    2.61999989
   13.46388912  184.89500427    4.90999985    2.61999989
   13.46472168  174.30999756    4.90999985    2.61999989
   13.46749973  164.43699646    4.90999985    2.61999989
   13.47083282  179.87300110    4.90999985    2.61999989
   13.47388840  158.56199646    4.90999985    2.61999989
   13.47722149  174.86300659    4.90999985    2.61999989
   13.48055553  160.13999939    4.90999985    2.61999989
   13.48361111  162.38000488    4.90999985    2.61999989
   13.48972225  162.38000488    4.90999985    2.64000010
   13.49388885  169.90699768    4.90999985    2.64000010
   13.49694443  155.89599609    4.90999985    2.64000010
   13.49805546  162.39100647    4.90999985    2.64000010
   13.50055599  167.49699402    4.90999985    2.64000010
   13.50388908  173.49200439    4.90999985    2.64000010
   13.50694466  167.96400452    4.90999985    2.55999994
   13.51027775  163.23100281    4.90999985    2.51999998
   13.51361084  178.66400146    4.90999985    2.59999990
   13.51666641  185.18800354    4.90999985    2.61999989
   13.51999950  170.24499512    4.90999985    2.61999989
   13.52333355  160.57200623    4.90999985    2.64000010
   13.52638817  162.00500488    4.90999985    2.64000010
   13.53249931  162.00500488    4.90999985    2.64000010
   13.53666687  162.53999329    4.90999985    2.64000010
   13.54000092  172.03500366    4.90999985    2.64000010
   13.54305553  176.56300354    4.90999985    2.64000010
   13.54638958  175.75300598    4.90999985    2.64000010
   13.54972267  172.92199707    4.90999985    2.64000010
   13.55277824  178.78399658    4.90999985    2.64000010
   13.55611134  182.68800354    4.90999985    2.64000010
   13.55916691  182.08200073    4.90999985    2.64000010
   13.56250000  168.25500488    4.90999985    2.64000010
   13.56500053  181.42399597    4.90999985    2.64000010
   13.56611156  171.56300354    4.90999985    2.66000009
   13.56944466  170.02699280    4.90999985    2.64000010
   13.57527733  170.02699280    4.90999985    2.64000010
   13.57944393  191.71099854    4.90999985    2.64000010
   13.58277798  170.50399780    4.90999985    2.64000010
   13.58611107  187.53100586    4.90999985    2.64000010
   13.58916664  201.88299561    4.90999985    2.64000010
   13.59249973  178.67100525    4.90999985    2.66000009
   13.59555531  169.50500488    4.90999985    2.64000010
   13.59833336  182.49200439    4.90999985    2.64000010
   13.59916592  192.92500305    4.90999985    2.64000010
   13.60249996  170.12500000    4.90999985    2.64000010
   13.60555553  193.39300537    4.90999985    2.64000010
   13.60888958  193.41700745    4.90999985    2.67000008
   13.61222267  171.84700012    4.90999985    2.66000009
   13.61833382  171.84700012    4.90999985    2.66000009
   13.62250042  185.62500000    4.90999985    2.64000010
   13.62555599  185.66200256    4.90999985    2.64000010
   13.62888908  187.16299438    4.90999985    2.64000010
   13.63166714  173.22500610    4.90999985    2.66000009
   13.63249969  187.77099609    4.90999985    2.64000010
   13.63583279  171.44099426    4.90999985    2.64000010
   13.63888836  175.49499512    4.90999985    2.64000010
   13.64222240  199.55900574    4.90999985    2.66000009
   13.64555550  194.71099854    4.90999985    2.66000009
   13.64861107  186.28700256    4.90999985    2.66000009
   13.65194416  209.08299255    4.90999985    2.66000009
   13.65527725  180.90600586    4.90999985    2.66000009
   13.66111088  180.90600586    4.90999985    2.66000009
   13.66527748  206.46200562    4.90999985    2.66000009
   13.66833401  193.36999512    4.90999985    2.66000009
   13.67166710  188.95500183    4.90999985    2.66000009
   13.67500019  190.21099854    4.90999985    2.66000009
   13.67805576  180.32299805    4.90999985    2.66000009
   13.68138885  198.87500000    4.90999985    2.66000009
   13.68472195  192.04800415    4.90999985    2.64000010
   13.68777752  188.83799744    4.90999985    2.66000009
   13.69111156  187.97599792    4.90999985    2.66000009
   13.69416714  180.16099548    4.90999985    2.66000009
   13.69750023  198.85499573    4.90999985    2.66000009
   13.69833374  179.59800720    4.90999985    2.66000009
   13.70388889  179.59800720    4.90999985    2.66000009
   13.70805550  191.82499695    4.90999985    2.66000009
   13.71138859  193.51800537    4.90999985    2.66000009
   13.71444416  189.35499573    4.90999985    2.66000009
   13.71777725  182.27299500    4.90999985    2.66000009
   13.72111034  183.23800659    4.90999985    2.66000009
   13.72444439  186.18200684    4.90999985    2.66000009
   13.72749996  178.28999329    4.90999985    2.66000009
   13.73083305  194.06100464    4.90999985    2.67000008
   13.73166656  191.71000671    4.90999985    2.66000009
   13.73416710  194.87399292    4.90999985    2.66000009
   13.73750019  189.00300598    4.90999985    2.67000008
   13.74083328  199.60099792    4.90999985    2.66000009
   13.74666691  199.60099792    4.90999985    2.67000008
   13.75083351  186.93200684    4.90999985    2.67000008
   13.75416660  176.43800354    4.90999985    2.66000009
   13.75749969  184.33999634    4.90999985    2.66000009
   13.76055527  201.40199280    4.90999985    2.66000009
   13.76388931  202.14599609    4.90999985    2.67000008
   13.76500034  190.66400146    4.90999985    2.67000008
   13.76749992  197.11399841    4.90999985    2.66000009
   13.77055550  204.67199707    4.90999985    2.67000008
   13.77388859  199.95500183    4.90999985    2.67000008
   13.77722168  192.34199524    4.90999985    2.67000008
   13.78027725  185.36399841    4.90999985    2.67000008
   13.78361130  191.61500549    4.90999985    2.67000008
   13.79000092  191.61500549    4.90999985    2.67000008
   13.79472256  187.16799927    4.90999985    2.67000008
   13.79777813  188.00100708    4.90999985    2.66000009
   13.79861164  175.89599609    4.90999985    2.67000008
   13.80166721  180.96800232    4.90999985    2.67000008
   13.80500031  180.41299438    4.90999985    2.67000008
   13.80833340  188.78700256    4.90999985    2.67000008
   13.81138897  177.15299988    4.90999985    2.67000008
   13.81472206  183.35000610    4.90999985    2.67000008
   13.81805515  174.43299866    4.90999985    2.67000008
   13.82111073  173.38499451    4.90999985    2.66000009
   13.82444477  179.10800171    4.90999985    2.67000008
   13.82750034  173.23300171    4.90999985    2.67000008
   13.83277798  173.23300171    4.90999985    2.66000009
   13.83694458  171.09300232    4.90999985    2.67000008
   13.84027767  165.55099487    4.90999985    2.67000008
   13.84333324  170.67799377    4.90999985    2.67000008
   13.84666634  174.26100159    4.90999985    2.67000008
   13.84972191  174.69999695    4.90999985    2.67000008
   13.85305595  174.25900269    4.90999985    2.67000008
   13.85638905  185.50799561    4.90999985    2.67000008
   13.85944462  176.97000122    4.90999985    2.69000006
   13.86277771  175.72700500    4.90999985    2.67000008
   13.86555576  175.22799683    4.90999985    2.67000008
   13.86666679  163.64700317    4.90999985    2.67000008
   13.86999989  174.33200073    4.90999985    2.69000006
   13.87527752  174.33200073    4.90999985    2.67000008
   13.87944412  167.66200256    4.90999985    2.69000006
   13.88277817  155.69900513    4.90999985    2.67000008
   13.88583279  163.09199524    4.90999985    2.67000008
   13.88916683  157.02200317    4.90999985    2.67000008
   13.89249992  169.90899658    4.90999985    2.67000008
   13.89555550  172.26400757    4.90999985    2.67000008
   13.89833355  163.51499939    4.90999985    2.69000006
   13.89916611  165.45899963    4.90999985    2.69000006
   13.90249920  154.42599487    4.90999985    2.67000008
   13.90555477  155.38200378    4.90999985    2.69000006
   13.90888882  161.24200439    4.90999985    2.67000008
   13.91194439  159.21400452    4.90999985    2.67000008
   13.91805553  159.21400452    4.90999985    2.69000006
   13.92222214  161.81599426    4.90999985    2.67000008
   13.92555618  161.78500366    4.90999985    2.67000008
   13.92888927  159.13099670    4.90999985    2.69000006
   13.93166733  167.33200073    4.90999985    2.69000006
   13.93249989  155.10499573    4.90999985    2.69000006
   13.93583298  162.81599426    4.90999985    2.69000006
   13.93888855  166.13000488    4.90999985    2.69000006
   13.94222260  155.47999573    4.90999985    2.69000006
   13.94555569  166.94599915    4.90999985    2.69000006
   13.94861126  157.27600098    4.90999985    2.69000006
   13.95194435  156.81500244    4.90999985    2.67000008
   13.95499992  151.91000366    4.90999985    2.69000006
   13.96111107  151.91000366    4.90999985    2.67000008
   13.96527767  159.15899658    4.90999985    2.67000008
   13.96833324  159.59100342    4.90999985    2.69000006
   13.97166634  160.44099426    4.90999985    2.69000006
   13.97472191  157.74699402    4.90999985    2.69000006
   13.97805500  158.19799805    4.90999985    2.69000006
   13.98138809  173.23300171    4.90999985    2.69000006
   13.98444462  230.45199585    4.90999985    2.69000006
   13.98777771  209.03999329    4.90999985    2.67000008
   13.99111176  211.48899841    4.90999985    2.67000008
   13.99416733  238.75100708    4.90999985    2.69000006
   13.99750042  206.46000671    4.90999985    2.69000006
   13.99833393  209.73599243    4.90999985    2.69000006
   14.00388908  209.73599243    4.90999985    2.69000006
   14.00805569  208.89199829    4.90999985    2.69000006
   14.01138878  196.98100281    4.90999985    2.67000008
   14.01444435  196.61900330    4.90999985    2.69000006
   14.03194427  174.45700073    4.90999985    2.69000006
   14.03444481  190.06700134    4.90999985    2.69000006
   14.03750038  192.55099487    4.90999985    2.69000006
   14.04083347  191.80299377    4.90999985    2.69000006
   14.04694462  191.80299377    4.90999985    2.69000006
   14.05111122  206.27400208    4.90999985    2.69000006
   14.05416679  181.28199768    4.90999985    2.69000006
   14.05749989  180.07299805    4.90999985    2.69000006
   14.06083393  214.32600403    4.90999985    2.71000004
   14.06388950  190.67399597    4.90999985    2.69000006
   14.06527805  216.10899353    4.90999985    2.69000006
   14.06777763  214.75700378    4.90999985    2.67000008
   14.07083321  215.27200317    4.90999985    2.66000009
   14.07416630  243.56599426    4.90999985    2.66000009
   14.07750034  230.02999878    4.90999985    2.66000009
   14.08055592  237.11500549    4.90999985    2.55999994
   14.08388901  197.92500305    4.90999985    2.57999992
   14.08972168  197.92500305    4.90999985    2.55999994
   14.09388828  235.11000061    4.90999985    2.61999989
   14.09694386  235.30799866    4.90999985    2.57999992
   14.09861088  238.12699890    4.90999985    2.53999996
   14.10055637  200.15400696    4.90999985    2.66000009
   14.10388947  230.91999817    4.90999985    2.71000004
   14.10722256  214.08799744    4.90999985    2.71000004
   14.11027813  223.81599426    4.90999985    2.71000004
   14.11361122  226.13999939    4.90999985    2.71000004
   14.11694431  205.76100159    4.90999985    2.71000004
   14.11999989  187.18800354    4.90999985    2.71000004
   14.12333393  225.58500671    4.90999985    2.57999992
   14.12638855  204.46400452    4.90999985    2.69000006
   14.13249969  204.46400452    4.90999985    2.71000004
   14.13666630  195.09500122    4.90999985    2.69000006
   14.14000034  198.01699829    4.90999985    2.71000004
   14.14305496  213.67799377    4.90999985    2.69000006
   14.14638901  195.54699707    4.90999985    2.71000004
   14.14944458  208.28999329    4.90999985    2.71000004
   14.15277767  176.95799255    4.90999985    2.71000004
   14.15611076  206.81199646    4.90999985    2.71000004
   14.15916634  205.25599670    4.90999985    2.71000004
   14.16249943  197.64900208    4.90999985    2.71000004
   14.16527748  189.00599670    4.90999985    2.71000004
   14.16611099  188.09800720    4.90999985    2.71000004
   14.16944504  190.83700562    4.90999985    2.71000004
   14.17527771  190.83700562    4.90999985    2.71000004
   14.17944431  183.44299316    4.90999985    2.69000006
   14.18277836  186.20300293    4.90999985    2.71000004
   14.18583298  188.61999512    4.90999985    2.71000004
   14.18916702  167.61700439    4.90999985    2.71000004
   14.19250011  176.86599731    4.90999985    2.71000004
   14.19555569  187.90499878    4.90999985    2.71000004
   14.19861126  178.91900635    4.90999985    2.71000004
   14.19916630  186.29299927    4.90999985    2.71000004
   14.20249939  170.24299622    4.90999985    2.71000004
   14.20583344  173.41000366    4.90999985    2.71000004
   14.20916653  175.57800293    4.90999985    2.71000004
   14.21249962  193.98800659    4.90999985    2.71000004
   14.21861076  193.98800659    4.90999985    2.71000004
   14.22277737  188.16000366    4.90999985    2.71000004
   14.22583294  178.52499390    4.90999985    2.71000004
   14.22916603  169.82899475    4.90999985    2.71000004
   14.23194408  165.08599854    4.90999985    2.71000004
   14.23249912  170.15400696    4.90999985    2.71000004
   14.23583317  171.15499878    4.90999985    2.71000004
   14.23916721  173.16400146    4.90999985    2.71000004
   14.24222279  161.03399658    4.90999985    2.71000004
   14.24555588  174.81700134    4.90999985    2.71000004
   14.24861145  185.22599792    4.90999985    2.71000004
   14.25194454  162.50199890    4.90999985    2.71000004
   14.25527763  170.21400452    4.90999985    2.71000004
   14.26111126  170.21400452    4.90999985    2.71000004
   14.26527786  172.30099487    4.90999985    2.71000004
   14.26555538  171.59100342    4.90999985    2.71000004
   14.26888847  161.04600525    4.90999985    2.71000004
   14.27222157  158.61799622    4.90999985    2.69000006
   14.27527714  168.16499329    4.90999985    2.71000004
   14.27861118  168.69599915    4.90999985    2.71000004
   14.28166676  166.63000488    4.90999985    2.71000004
   14.28500080  169.64399719    4.90999985    2.71000004
   14.28833389  165.65299988    4.90999985    2.71000004
   14.29138947  168.13800049    4.90999985    2.71000004
   14.29472256  162.58000183    4.90999985    2.71000004
   14.29805565  166.06300354    4.90999985    2.67000008
   14.29861164  160.99200439    4.90999985    2.67000008
   14.30388927  160.99200439    4.90999985    2.66000009
   14.30805588  154.19099426    4.90999985    2.67000008
   14.31138897  169.15600586    4.90999985    2.69000006
   14.31444454  159.91900635    4.90999985    2.66000009
   14.31777763  161.80700684    4.90999985    2.69000006
   14.32083321  162.35400391    4.90999985    2.67000008
   14.32416630  160.19599915    4.90999985    2.69000006
   14.32750034  159.60400391    4.90999985    2.67000008
   14.33055592  168.76300049    4.90999985    2.67000008
   14.33194447  163.77600098    4.90999985    2.69000006
   14.33416653  168.56500244    4.90999985    2.69000006
   14.33749962  162.21600342    4.90999985    2.67000008
   14.34083271  141.89700317    4.90999985    2.67000008
   14.34666634  141.89700317    4.90999985    2.69000006
   14.35083389  184.64999390    4.90999985    2.66000009
   14.35416698  172.41099548    4.90999985    2.69000006
   14.35722256  160.00399780    4.90999985    2.69000006
   14.36055565  180.97200012    4.90999985    2.71000004
   14.36388969  165.33200073    4.90999985    2.69000006
   14.36527824  170.23399353    4.90999985    2.73000002
   14.36722279  180.50300598    4.90999985    2.71000004
   14.37055588  178.93499756    4.90999985    2.71000004
   14.37388897  166.79699707    4.90999985    2.71000004
   14.37694454  168.10600281    4.90999985    2.73000002
   14.38027763  158.87300110    4.90999985    2.71000004
   14.38361073  160.08099365    4.90999985    2.69000006
   14.38972187  160.08099365    4.90999985    2.69000006
   14.39388847  158.98199463    4.90999985    2.71000004
   14.39694405  167.68400574    4.90999985    2.71000004
   14.39861107  156.11000061    4.90999985    2.71000004
   14.40111065  157.44700623    4.90999985    2.69000006
   14.40444374  158.35699463    4.90999985    2.71000004
   14.40749931  155.45599365    4.90999985    2.73000002
   14.41083336  158.16099548    4.90999985    2.71000004
   14.41388893  152.47500610    4.90999985    2.69000006
   14.41722298  152.51100159    4.90999985    2.71000004
   14.42055607  151.82200623    4.90999985    2.69000006
   14.42361164  157.83500671    4.90999985    2.69000006
   14.42694473  158.50500488    4.90999985    2.71000004
   14.43249989  158.50500488    4.90999985    2.71000004
   14.43666649  163.35400391    4.90999985    2.71000004
   14.43972206  160.03700256    4.90999985    2.71000004
   14.44305515  157.48699951    4.90999985    2.71000004
   14.44638920  165.99499512    4.90999985    2.73000002
   14.44944477  151.86599731    4.90999985    2.73000002
   14.45277786  158.85899353    4.90999985    2.73000002
   14.45611095  157.12199402    4.90999985    2.73000002
   14.45916653  141.53199768    4.90999985    2.73000002
   14.46249962  142.55000305    4.90999985    2.75000000
   14.46527767  164.74299622    4.90999985    2.73000002
   14.46583271  166.83399963    4.90999985    2.73000002
   14.46916580  151.73899841    4.90999985    2.73000002
   14.47527695  151.73899841    4.90999985    2.71000004
   14.47944355  174.06300354    4.90999985    2.73000002
   14.48277760  166.72799683    4.90999985    2.73000002
   14.48583317  163.16700745    4.90999985    2.73000002
   14.48916721  156.75399780    4.90999985    2.73000002
   14.49222279  170.69200134    4.90999985    2.71000004
   14.49555588  164.89700317    4.90999985    2.73000002
   14.49861145  168.80299377    4.90999985    2.71000004
   14.49944496  160.72999573    4.90999985    2.71000004
   14.50249958  152.50500488    4.90999985    2.73000002
   14.50583363  149.48899841    4.90999985    2.71000004
   14.50888920  146.05799866    4.90999985    2.71000004
   14.51222229  153.60299683    4.90999985    2.69000006
   14.51805496  153.60299683    4.90999985    2.73000002
   14.52222157  174.23100281    4.90999985    2.73000002
   14.52555561  156.75100708    4.90999985    2.73000002
   14.52861118  145.87800598    4.90999985    2.71000004
   14.53194427  166.87100220    4.90999985    2.73000002
   14.53222179  156.71699524    4.90999985    2.73000002
   14.53555584  142.96400452    4.90999985    2.73000002
   14.53888893  145.53300476    4.90999985    2.73000002
   14.54194450  147.37600708    4.90999985    2.73000002
   14.54527855  155.82899475    4.90999985    2.73000002
   14.54861164  163.49099731    4.90999985    2.75000000
   14.55166721  150.93499756    4.90999985    2.73000002
   14.55500031  142.41000366    4.90999985    2.73000002
   14.56111145  142.41000366    4.90999985    2.75000000
   14.56500053  165.03599548    4.90999985    2.73000002
   14.56555557  170.92500305    4.90999985    2.73000002
   14.56888866  147.28999329    4.90999985    2.73000002
   14.57194424  155.93099976    4.90999985    2.75000000
   14.57527733  148.47399902    4.90999985    2.73000002
   14.57861137  162.62199402    4.90999985    2.71000004
   14.58166695  140.84399414    4.90999985    2.71000004
   14.58500004  159.42100525    4.90999985    2.75000000
   14.58833313  163.67999268    4.90999985    2.75000000
   14.59138870  163.63299561    4.90999985    2.75000000
   14.59472179  156.30999756    4.90999985    2.75000000
   14.59777737  151.46499634    4.90999985    2.75000000
   14.59888840  163.32499695    4.90999985    2.73000002
   14.60388947  163.32499695    4.90999985    2.73000002
   14.60805607  151.08299255    4.90999985    2.75000000
   14.61111164  159.05099487    4.90999985    2.75000000
   14.61444473  153.37800598    4.90999985    2.75000000
   14.61777782  153.60400391    4.90999985    2.73000002
   14.62083340  162.58700562    4.90999985    2.73000002
   14.62416649  161.41999817    4.90999985    2.75000000
   14.62722206  166.03100586    4.90999985    2.75000000
   14.63055611  147.22999573    4.90999985    2.75000000
   14.63222218  158.50000000    4.90999985    2.75000000
   14.63416672  158.89100647    4.90999985    2.75000000
   14.63722229  165.24400330    4.90999985    2.75000000
   14.64055538  152.51499939    4.90999985    2.75000000
   14.64666653  152.51499939    4.90999985    2.75000000
   14.65083313  149.31100464    4.90999985    2.75000000
   14.65416622  156.53900146    4.90999985    2.76999998
   14.65722179  151.30999756    4.90999985    2.76999998
   14.66055489  155.92500305    4.90999985    2.75000000
   14.66361046  155.43600464    4.90999985    2.75000000
   14.66555500  157.26400757    4.90999985    2.76999998
   14.66750050  172.05599976    4.90999985    2.75000000
   14.67083359  164.41200256    4.90999985    2.76999998
   14.67388916  156.84500122    4.90999985    2.75000000
   14.67722225  165.87500000    4.90999985    2.75000000
   14.68027782  168.93800354    4.90999985    2.75000000
   14.68361092  165.38800049    4.90999985    2.75000000
   14.68944454  165.38800049    4.90999985    2.73000002
   14.69361115  168.19400024    4.90999985    2.71000004
   14.69694424  164.34599304    4.90999985    2.71000004
   14.69888878  167.50799561    4.90999985    2.71000004
   14.70055580  165.41000366    4.90999985    2.69000006
   14.70388889  157.66200256    4.90999985    2.66000009
   14.70694447  154.57400513    4.90999985    2.64000010
   14.71027756  169.96400452    4.90999985    2.61999989
   14.71333313  141.91000366    4.90999985    2.59999990
   14.71666622  162.84300232    4.90999985    2.66000009
   14.71999931  150.64599609    4.90999985    2.66000009
   14.72305489  167.00399780    4.90999985    2.67000008
   14.72638798  144.10200500    4.90999985    2.69000006
   14.73249912  144.10200500    4.90999985    2.71000004
   14.73638916  145.00500488    4.90999985    2.69000006
   14.73972225  159.22700500    4.90999985    2.67000008
   14.74305534  153.87100220    4.90999985    2.69000006
   14.74611092  151.33399963    4.90999985    2.67000008
   14.74944496  149.87100220    4.90999985    2.71000004
   14.75277805  166.16299438    4.90999985    2.69000006
   14.75583363  155.13699341    4.90999985    2.73000002
   14.75916672  165.23899841    4.90999985    2.59999990
   14.76222229  142.21299744    4.90999985    2.71000004
   14.76555538  135.40400696    4.90999985    2.75000000
   14.76611137  151.48199463    4.90999985    2.75000000
   14.76916599  157.19500732    4.90999985    2.73000002
   14.77527714  157.19500732    4.90999985    2.73000002
   14.77944374  146.92599487    4.90999985    2.69000006
   14.78249931  135.84899902    4.90999985    2.71000004
   14.78583336  154.98399353    4.90999985    2.71000004
   14.78916740  151.81599426    4.90999985    2.71000004
   14.79222298  170.19299316    4.90999985    2.69000006
   14.79555607  161.35499573    4.90999985    2.69000006
   14.79861164  159.54499817    4.90999985    2.69000006
   14.79944515  172.52200317    4.90999985    2.69000006
   14.80222225  150.11700439    4.90999985    2.69000006
   14.80555534  152.46400452    4.90999985    2.69000006
   14.80888939  157.96600342    4.90999985    2.69000006
   14.81194496  158.82299805    4.90999985    2.66000009
   14.81805515  158.82299805    4.90999985    2.64000010
   14.82222176  147.42799377    4.90999985    2.66000009
   14.82555580  160.72700500    4.90999985    2.66000009
   14.82861137  150.20399475    4.90999985    2.67000008
   14.83194447  157.91799927    4.90999985    2.67000008
   14.83277798  156.55499268    4.90999985    2.69000006
   14.83555508  146.91000366    4.90999985    2.67000008
   14.83861065  164.85400391    4.90999985    2.69000006
   14.84194374  160.06199646    4.90999985    2.67000008
   14.84499931  157.54899597    4.90999985    2.67000008
   14.84833336  155.31900024    4.90999985    2.66000009
   14.85166740  160.56500244    4.90999985    2.64000010
   14.85472298  151.16799927    4.90999985    2.64000010
   14.86083412  151.16799927    4.90999985    2.61999989
   14.86500072  164.62600708    4.90999985    2.59999990
   14.86611176  152.44599915    4.90999985    2.61999989
   14.86888885  163.29699707    4.90999985    2.59999990
   14.87194443  162.64300537    4.90999985    2.61999989
   14.87527752  160.88200378    4.90999985    2.64000010
   14.87833309  164.16799927    4.90999985    2.64000010
   14.88166714  163.20100403    4.90999985    2.64000010
   14.88500023  158.06599426    4.90999985    2.61999989
   14.88805580  158.87500000    4.90999985    2.64000010
   14.89138889  162.12899780    4.90999985    2.59999990
   14.89472198  160.07200623    4.90999985    2.61999989
   14.89777756  155.90699768    4.90999985    2.61999989
   14.89944458  167.49400330    4.90999985    2.59999990
   14.90388870  167.49400330    4.90999985    2.59999990
   14.90777779  164.20399475    4.90999985    2.57999992
   14.91111088  156.49899292    4.90999985    2.57999992
   14.91444397  166.22700500    4.90999985    2.61999989
   14.91750050  164.68600464    4.90999985    2.61999989
   14.92083359  155.48500061    4.90999985    2.55999994
   14.92416668  158.19900513    4.90999985    2.59999990
   14.92750072  154.55400085    4.90999985    2.57999992
   14.93055630  151.01100159    4.90999985    2.59999990
   14.93277836  168.49499512    4.90999985    2.57999992
   14.93444443  151.54299927    4.90999985    2.59999990
   14.93750000  176.05499268    4.90999985    2.61999989
   14.94083309  205.57899475    4.90999985    2.39000010
   14.94666672  205.57899475    4.90999985    2.39000010
   14.95083332  177.58900452    4.90999985    2.39000010
   14.95388889  191.68499756    4.90999985    2.46000004
   14.95722198  174.34500122    4.90999985    2.51999998
   14.96055508  146.44200134    4.90999985    2.53999996
   14.96361065  147.17199707    4.90999985    2.51999998
   14.96611118  149.84500122    4.90999985    2.55999994
   14.96749973  151.63900757    4.90999985    2.51999998
   14.97055531  189.06100464    4.90999985    2.40000010
   14.97388840  203.60499573    4.90999985    2.34999990
   14.97694397  178.10299683    4.90999985    2.19000006
   14.98027706  196.10899353    4.90999985    2.42000008
   14.98361111  186.61999512    4.90999985    2.39000010
   14.98944473  186.61999512    4.90999985    2.51999998
   14.99361134  140.24200439    4.90999985    2.67000008
   15.08722210   -1.00000000   -1.00000000   -1.00000000
   15.21638870   -1.00000000   -1.00000000   -1.00000000
   15.38000011   -1.00000000   -1.00000000   -1.00000000
   15.42194462  102.56099701    4.90999985    2.42000008
   15.42527771  200.39999390    4.90999985    2.39000010
   15.42833328  221.67199707    4.90999985    2.39000010
   15.43166733  219.36599731    4.90999985    2.40000010
   15.43500042  205.79400635    4.90999985    2.42000008
   15.43833351  201.57200623    4.90999985    2.44000006
   15.44222260  201.57200623    4.90999985    2.28999996
   15.44638920  235.88600159    4.90999985    2.39000010
   15.44972229  204.47000122    4.90999985    2.40000010
   15.45277786  182.91200256    4.90999985    2.42000008
   15.45527744  193.55000305    4.90999985    2.44000006
   15.45666695  213.98399353    4.90999985    2.42000008
   15.45972157  275.80999756    4.90999985    2.39000010
   15.46277714  262.00000000    4.90999985    2.26999998
   15.46611118  333.55700684    4.90999985    2.28999996
   15.46916580  143.12699890    4.90999985    2.21000004
   15.47249985  185.88499451    4.90999985    2.07999992
   15.47583294  323.79299927    4.90999985    1.91999996
   15.47888851  379.32998657    4.90999985    2.07999992
   15.48500061  379.32998657    4.90999985    1.94000006
   15.48888874  390.57800293    4.90999985    1.91999996
   15.49222279  412.62298584    4.90999985    2.07999992
   15.49416733  323.00201416    4.90999985    2.03999996
   15.49416733  275.80999756    4.90999985    2.39000010
   15.49444485  262.00000000    4.90999985    2.26999998
   15.49444485  333.55700684    4.90999985    2.28999996
   15.49444485  143.12699890    4.90999985    2.21000004
   15.49444485  185.88499451    4.90999985    2.07999992
   15.49444485  323.79299927    4.90999985    1.91999996
   15.49472237  379.32998657    4.90999985    2.07999992
   15.49472237  390.57800293    4.90999985    1.91999996
   15.49472237  412.62298584    4.90999985    2.07999992
   15.49666691  124.72899628    4.90999985    1.96000004
   15.50000000  187.61900330    4.90999985    1.91999996
   15.50305557  313.83999634    4.90999985    1.98000002
   15.50638866  329.29000854    4.90999985    1.98000002
   15.50972176  268.01199341    4.90999985    2.11999989
   15.51500034  268.01199341    4.90999985    2.25000000
   15.51916599  262.73699951    4.90999985    2.21000004
   15.52222157  313.38500977    4.90999985    2.11999989
   15.52555561  280.97299194    4.90999985    2.09999990
   15.52805519  280.26599121    4.90999985    2.11999989
   15.52916622  276.36199951    4.90999985    2.15000010
   15.53222179  306.73800659    4.90999985    2.09999990
   15.53555584  362.74200439    4.90999985    2.05999994
   15.53861141  241.23599243    4.90999985    1.89999998
   15.54194450  334.05099487    4.90999985    1.96000004
   15.54527855  363.44299316    4.90999985    2.01999998
   15.54833412  359.68200684    4.90999985    2.03999996
   15.55166721  318.43399048    4.90999985    2.07999992
   15.55777836  318.43399048    4.90999985    2.17000008
   15.56194496  235.45100403    4.90999985    2.19000006
   15.56527805  245.41600037    4.90999985    2.23000002
   15.56833363  268.27398682    4.90999985    2.21000004
   15.57166672  249.80099487    4.90999985    2.13000011
   15.57499981  255.09800720    4.90999985    2.11999989
   15.57805538  255.85200500    4.90999985    2.15000010
   15.58138847  280.59298706    4.90999985    2.15000010
   15.58444405  311.44000244    4.90999985    2.11999989
   15.58777714  291.75698853    4.90999985    2.07999992
   15.59111118  271.10198975    4.90999985    2.13000011
   15.59416676  254.77999878    4.90999985    2.15000010
   15.59472179  262.68301392    4.90999985    2.17000008
   15.60055637  262.68301392    4.90999985    2.15000010
   15.60472298  254.03999329    4.90999985    2.15000010
   15.60805607  295.01699829    4.90999985    2.17000008
   15.61138916  317.56600952    4.90999985    2.13000011
   15.61444473  305.74899292    4.90999985    2.15000010
   15.61777782  309.98400879    4.90999985    2.11999989
   15.62083340  259.50601196    4.90999985    2.11999989
   15.62416649  311.11499023    4.90999985    2.17000008
   15.62750053  228.40699768    4.90999985    2.09999990
   15.62805557  243.24099731    4.90999985    2.13000011
   15.63111115  260.78100586    4.90999985    2.17000008
   15.63416672  245.47399902    4.90999985    2.15000010
   15.63749981  280.05599976    4.90999985    2.19000006
   15.64361095  280.05599976    4.90999985    2.15000010
   15.64777756  220.37800598    4.90999985    2.21000004
   15.65083313  233.20700073    4.90999985    2.21000004
   15.65416622  207.57400513    4.90999985    2.23000002
   15.65722179  232.40400696    4.90999985    2.25000000
   15.66055489  240.59700012    4.90999985    2.25000000
   15.66138840  223.29299927    4.90999985    2.25000000
   15.66416645  231.75500488    4.90999985    2.23000002
   15.66722298  213.87600708    4.90999985    2.25000000
   15.67055607  216.55499268    4.90999985    2.21000004
   15.67388916  234.97999573    4.90999985    2.21000004
   15.67694473  277.01998901    4.90999985    2.13000011
   15.68027782  266.90100098    4.90999985    2.17000008
   15.68638897  266.90100098    4.90999985    2.19000006
   15.69055557  266.55899048    4.90999985    2.19000006
   15.69361115  258.94500732    4.90999985    2.19000006
   15.69472218  219.65400696    4.90999985    2.19000006
   15.69750023  240.26699829    4.90999985    2.19000006
   15.70055580  221.59199524    4.90999985    2.19000006
   15.70388889  236.38200378    4.90999985    2.17000008
   15.70722198  222.69299316    4.90999985    2.19000006
   15.71027756  250.10499573    4.90999985    2.19000006
   15.71361065  253.32699585    4.90999985    2.23000002
   15.71666622  248.12199402    4.90999985    2.23000002
   15.71999931  224.97999573    4.90999985    2.19000006
   15.72333336  223.14999390    4.90999985    2.17000008
   15.72916603  223.14999390    4.90999985    2.17000008
   15.73333359  258.86099243    4.90999985    2.15000010
   15.73666668  256.50601196    4.90999985    2.13000011
   15.73972225  258.07598877    4.90999985    2.11999989
   15.74305534  289.82501221    4.90999985    2.09999990
   15.74638939  266.55801392    4.90999985    2.09999990
   15.74944496  314.20300293    4.90999985    2.07999992
   15.75277805  313.56600952    4.90999985    2.03999996
   15.75583363  297.48800659    4.90999985    2.03999996
   15.75916672  328.21600342    4.90999985    2.01999998
   15.76138878  314.96600342    4.90999985    2.00000000
   15.76277733  369.01800537    4.90999985    2.00000000
   15.76583290  327.41198730    4.90999985    1.98000002
   15.77194405  327.41198730    4.90999985    2.00000000
   15.77611065  312.18701172    4.90999985    2.00000000
   15.77944374  313.54400635    4.90999985    2.01999998
   15.78277779  343.16699219    4.90999985    1.98000002
   15.78583336  324.05300903    4.90999985    2.01999998
   15.78916740  300.79998779    4.90999985    2.00000000
   15.79222298  326.95599365    4.90999985    2.00000000
   15.79472256  331.11099243    4.90999985    2.03999996
   15.79611111  317.01300049    4.90999985    2.03999996
   15.79916668  340.07400513    4.90999985    2.03999996
   15.80249977  334.00299072    4.90999985    2.05999994
   15.80583382  348.38598633    4.90999985    1.98000002
   15.80888939  202.52099609    4.90999985    1.91999996
   15.81500053  202.52099609    4.90999985    1.94000006
   15.81916618  340.20199585    4.90999985    1.91999996
   15.82250023  336.02099609    4.90999985    1.96000004
   15.82555580  322.49398804    4.90999985    1.98000002
   15.82805538  297.07400513    4.90999985    2.03999996
   15.82916641  281.51599121    4.90999985    2.05999994
   15.83222198  273.33099365    4.90999985    2.07999992
   15.83555508  255.73899841    4.90999985    2.09999990
   15.83888817  287.54098511    4.90999985    2.09999990
   15.84194374  279.10198975    4.90999985    2.09999990
   15.84527779  278.00299072    4.90999985    2.09999990
   15.84861088  345.93899536    4.90999985    2.05999994
   15.85166740  285.49301147    4.90999985    2.01999998
   15.85777855  285.49301147    4.90999985    2.07999992
   15.86194515  269.11599731    4.90999985    2.07999992
   15.86500072  295.06500244    4.90999985    2.07999992
   15.86833382  313.11099243    4.90999985    2.07999992
   15.87166691  279.22799683    4.90999985    2.07999992
   15.87472248  252.66499329    4.90999985    2.05999994
   15.87805557  248.03900146    4.90999985    2.09999990
   15.88138866  244.75000000    4.90999985    2.13000011
   15.88444424  251.53900146    4.90999985    2.13000011
   15.88777733  269.03698730    4.90999985    2.13000011
   15.89083290  286.14801025    4.90999985    2.07999992
   15.89416695  230.45300293    4.90999985    2.11999989
   15.89472198  245.66299438    4.90999985    2.11999989
   15.90055561  245.66299438    4.90999985    2.05999994
   15.90472221  315.11199951    4.90999985    2.05999994
   15.90805531  280.45401001    4.90999985    2.00000000
   15.91111088  278.78900146    4.90999985    2.01999998
   15.91444397  247.79499817    4.90999985    2.07999992
   15.91777802  246.26400757    4.90999985    2.07999992
   15.92083359  255.50700378    4.90999985    2.07999992
   15.92416668  256.55499268    4.90999985    2.09999990
   15.92722225  238.36700439    4.90999985    2.09999990
   15.92805576  259.23800659    4.90999985    2.09999990
   15.93083382  283.57299805    4.90999985    2.11999989
   15.93416691  296.93798828    4.90999985    2.07999992
   15.93722248  310.44900513    4.90999985    2.01999998
   15.94333363  310.44900513    4.90999985    1.98000002
   15.94750023  282.40200806    4.90999985    1.96000004
   15.95083332  302.76800537    4.90999985    1.96000004
   15.95416641  281.45001221    4.90999985    1.98000002
   15.95722198  434.75000000    4.90999985    2.01999998
   15.95916653  419.31698608    4.90999985    2.01999998
   15.96055508  414.38000488    4.90999985    2.00000000
   15.96194458  254.02000427    4.90999985    1.98000002
   15.96194458  281.45001221    4.90999985    1.98000002
   15.96194458  434.75000000    4.90999985    2.01999998
   15.96222210  256.55499268    4.90999985    2.09999990
   15.96222210  238.36700439    4.90999985    2.09999990
   15.96222210  283.57299805    4.90999985    2.11999989
   15.96222210  296.93798828    4.90999985    2.07999992
   15.96222210  310.44900513    4.90999985    2.01999998
   15.96249962  282.40200806    4.90999985    1.96000004
   15.96249962  302.76800537    4.90999985    1.96000004
   15.96305561  375.47299194    4.90999985    1.96000004
   15.96611118  496.02700806    4.90999985    1.98000002
   15.96833324  441.66299438    4.90999985    1.94000006
   15.96944427  492.00399780    4.90999985    1.96000004
   15.97083282  360.97000122    4.90999985    2.00000000
   15.97222137  522.44500732    4.90999985    2.00000000
   15.97361088  375.96200562    4.90999985    2.03999996
   15.97499943  506.01400757    4.90999985    2.00000000
   15.97638798  458.40301514    4.90999985    2.00000000
   15.97777748  471.62500000    4.90999985    1.98000002
   15.97916603  574.78100586    4.90999985    1.98000002
   15.98055553  725.81799316    4.90999985    2.00000000
   15.98194408  529.74700928    4.90999985    1.98000002
   15.98333359  546.59100342    4.90999985    1.98000002
   15.98472214  520.65600586    4.90999985    1.96000004
   15.98611164  489.53201294    4.90999985    2.00000000
   15.98750019  578.23602295    4.90999985    2.00000000
   15.98888874  458.04400635    4.90999985    2.03999996
   15.99027824  452.13299561    4.90999985    2.03999996
   15.99166679  463.38101196    4.90999985    2.03999996
   15.99305534  301.65600586    4.90999985    2.05999994
   15.99305534  375.47299194    4.90999985    1.96000004
   15.99333382  496.02700806    4.90999985    1.98000002
   15.99388885  348.85101318    4.90999985    2.05999994
   15.99694443  378.47698975    4.90999985    2.05999994
   16.00027847  390.72198486    4.90999985    2.05999994
   16.00361061  362.52600098    4.90999985    2.07999992
   16.00666618  411.33999634    4.90999985    2.07999992
   16.00861168  372.40798950    4.90999985    2.09999990
   16.01000023  384.00399780    4.90999985    2.07999992
   16.01138878  363.47299194    4.90999985    2.07999992
   16.01277733  361.07299805    4.90999985    2.05999994
   16.01416588  432.86099243    4.90999985    2.07999992
   16.01555634  329.92300415    4.90999985    2.07999992
   16.01555634  348.85101318    4.90999985    2.05999994
   16.01555634  378.47698975    4.90999985    2.05999994
   16.01583290  390.72198486    4.90999985    2.05999994
   16.01583290  362.52600098    4.90999985    2.07999992
   16.01583290  411.33999634    4.90999985    2.07999992
   16.01638794  341.91400146    4.90999985    2.07999992
   16.01972198  346.68499756    4.90999985    2.09999990
   16.02277756  365.40798950    4.90999985    2.05999994
   16.02611160  383.02200317    4.90999985    2.07999992
   16.02916718  329.24099731    4.90999985    2.11999989
   16.03249931  393.64199829    4.90999985    2.07999992
   16.03666687  393.64199829    4.90999985    2.05999994
   16.04083252  403.20199585    4.90999985    2.05999994
   16.04277802  407.21701050    4.90999985    2.03999996
   16.04388809  320.35998535    4.90999985    2.09999990
   16.04416656  341.91400146    4.90999985    2.07999992
   16.04416656  346.68499756    4.90999985    2.09999990
   16.04416656  365.40798950    4.90999985    2.05999994
   16.04416656  383.02200317    4.90999985    2.07999992
   16.04416656  329.24099731    4.90999985    2.11999989
   16.04444313  393.64199829    4.90999985    2.07999992
   16.04444313  403.20199585    4.90999985    2.05999994
   16.04555511  302.27801514    4.90999985    2.11999989
   16.04888916  435.33898926    4.90999985    2.11999989
   16.05083275  390.05499268    4.90999985    2.07999992
   16.05194283  395.46301270    4.90999985    2.07999992
   16.05333328  348.46499634    4.90999985    2.11999989
   16.05360985  302.27801514    4.90999985    2.11999989
   16.05360985  435.33898926    4.90999985    2.11999989
   16.05416679  385.39999390    4.90999985    2.11999989
   16.05722237  342.17300415    4.90999985    2.15000010
   16.06055450  265.57101440    4.90999985    2.19000006
   16.06388855  227.66099548    4.90999985    2.21000004
   16.06694603  328.53298950    4.90999985    2.17000008
   16.07027817  279.45901489    4.90999985    2.19000006
   16.07444572  279.45901489    4.90999985    2.19000006
   16.07861137  334.89599609    4.90999985    2.19000006
   16.08166695  344.87100220    4.90999985    2.17000008
   16.08500099  310.26800537    4.90999985    2.15000010
   16.08722305  257.11700439    4.90999985    2.17000008
   16.08861160  345.46899414    4.90999985    2.15000010
   16.09166718  362.74398804    4.90999985    2.19000006
   16.09500122  348.81698608    4.90999985    2.11999989
   16.09833336  426.69100952    4.90999985    2.09999990
   16.10027885  351.41500854    4.90999985    2.05999994
   16.10138893  359.33499146    4.90999985    2.05999994
   16.10277748  332.45001221    4.90999985    2.03999996
   16.10305595  345.46899414    4.90999985    2.15000010
   16.10305595  362.74398804    4.90999985    2.19000006
   16.10305595  348.81698608    4.90999985    2.11999989
   16.10305595  426.69100952    4.90999985    2.09999990
   16.10305595  328.53298950    4.90999985    2.17000008
   16.10333443  279.45901489    4.90999985    2.19000006
   16.10333443  334.89599609    4.90999985    2.19000006
   16.10333443  344.87100220    4.90999985    2.17000008
   16.10333443  310.26800537    4.90999985    2.15000010
   16.10388947  261.13299561    4.90999985    2.03999996
   16.10722351  307.66500854    4.90999985    2.09999990
   16.11027908  374.38699341    4.90999985    2.11999989
   16.11361122  285.19000244    4.90999985    2.05999994
   16.11694527  350.52398682    4.90999985    2.03999996
   16.12361145  350.52398682    4.90999985    2.07999992
   16.12777710  352.41101074    4.90999985    2.05999994
   16.13111115  370.34600830    4.90999985    2.07999992
   16.13416672  353.18600464    4.90999985    2.05999994
   16.13666725  321.26599121    4.90999985    2.03999996
   16.13777733  317.59899902    4.90999985    2.05999994
   16.14111137  361.53500366    4.90999985    2.07999992
   16.14416695  410.75900269    4.90999985    2.00000000
   16.14611053  358.41000366    4.90999985    2.00000000
   16.14749908  442.18899536    4.90999985    2.00000000
   16.14888954  411.90899658    4.90999985    1.98000002
   16.15027809  389.49499512    4.90999985    2.01999998
   16.15166664  359.00799561    4.90999985    2.01999998
   16.15305519  380.69601440    4.90999985    2.03999996
   16.15444374  407.43899536    4.90999985    2.05999994
   16.15583229  373.79699707    4.90999985    2.07999992
   16.15722275  353.46200562    4.90999985    2.05999994
   16.15861130  343.14401245    4.90999985    2.01999998
   16.15861130  361.53500366    4.90999985    2.07999992
   16.15861130  410.75900269    4.90999985    2.00000000
   16.15861130  374.38699341    4.90999985    2.11999989
   16.15888786  285.19000244    4.90999985    2.05999994
   16.15888786  350.52398682    4.90999985    2.03999996
   16.15888786  352.41101074    4.90999985    2.05999994
   16.15888786  370.34600830    4.90999985    2.07999992
   16.15916634  353.18600464    4.90999985    2.05999994
   16.15916634  317.59899902    4.90999985    2.05999994
   16.15972137  355.25000000    4.90999985    2.01999998
   16.16277695  352.51599121    4.90999985    2.11999989
   16.16611099  335.87298584    4.90999985    2.09999990
   16.16944313  301.49301147    4.90999985    2.11999989
   16.17249870  254.53100586    4.90999985    2.15000010
   16.17944336  254.53100586    4.90999985    2.11999989
   16.18361092  294.27999878    4.90999985    2.11999989
   16.18666649  354.54998779    4.90999985    2.01999998
   16.18999863  179.49800110    4.90999985    1.88000000
   16.19249916  356.25500488    4.90999985    1.71000004
   16.19333267  375.38500977    4.90999985    1.89999998
   16.19666672  360.95599365    4.90999985    2.00000000
   16.20000076  360.25201416    4.90999985    1.96000004
   16.20305634  168.28700256    4.90999985    1.94000006
   16.20639038  163.35400391    4.90999985    1.88000000
   16.20972252   75.26619720    4.90999985    1.61000001
   16.21277809  200.33799744    4.90999985    1.66999996
   16.21611214  180.76800537    4.90999985    1.80999994
   16.22222328  180.76800537    4.90999985    1.80999994
   16.22638893  167.05900574    4.90999985    1.86000001
   16.22944450  241.61900330    4.90999985    1.86000001
   16.23277855  352.42401123    4.90999985    1.89999998
   16.23611069  238.38499451    4.90999985    1.91999996
   16.23916626  315.67498779    4.90999985    1.89999998
   16.24250031  291.14700317    4.90999985    1.91999996
   16.24583435  322.12799072    4.90999985    1.89999998
   16.24888992  316.93899536    4.90999985    1.91999996
   16.25222206  197.71099854    4.90999985    1.91999996
   16.25555611  208.00900269    4.90999985    1.88000000
   16.25861168  329.67098999    4.90999985    1.89999998
   16.25916672  331.18200684    4.90999985    1.89999998
   16.26499939  331.18200684    4.90999985    1.98000002
   16.26916695  302.43701172    4.90999985    1.96000004
   16.27249908  368.82800293    4.90999985    1.96000004
   16.27555466  259.82998657    4.90999985    1.94000006
   16.27888870  220.72399902    4.90999985    1.89999998
   16.28222275  176.50500488    4.90999985    1.89999998
   16.28527641  216.41000366    4.90999985    1.86000001
   16.28861046  182.02299500    4.90999985    1.89999998
   16.29194450  143.89599609    4.90999985    1.88000000
   16.29249954  169.44900513    4.90999985    1.86000001
   16.29555511  158.35499573    4.90999985    1.85000002
   16.29861069  158.31700134    4.90999985    1.86000001
   16.30194283  163.29800415    4.90999985    1.86000001
   16.30777740  163.29800415    4.90999985    1.85000002
   16.31194305  133.11700439    4.90999985    1.83000004
   16.31527710  146.52000427    4.90999985    1.78999996
   16.31861115  227.80299377    4.90999985    1.85000002
   16.32166672  310.36099243    4.90999985    1.89999998
   16.32500076  237.49699402    4.90999985    1.88000000
   16.32583427  254.06500244    4.90999985    1.88000000
   16.32861137  263.14999390    4.90999985    1.88000000
   16.33166695  235.32299805    4.90999985    1.89999998
   16.33500099  292.86999512    4.90999985    1.89999998
   16.33833313  300.86898804    4.90999985    1.91999996
   16.34138870  347.19900513    4.90999985    1.94000006
   16.34472275  282.93899536    4.90999985    1.94000006
   16.35083389  282.93899536    4.90999985    1.91999996
   16.35499954  155.75999451    4.90999985    1.86000001
   16.35805511  151.60600281    4.90999985    1.83000004
   16.35916710  155.44999695    4.90999985    1.80999994
   16.36166763  136.31500244    4.90999985    1.83000004
   16.36472321  183.59399414    4.90999985    1.80999994
   16.36805534  297.40899658    4.90999985    1.86000001
   16.37138939  314.97399902    4.90999985    1.94000006
   16.37444496  333.32000732    4.90999985    2.00000000
   16.37777710  364.64300537    4.90999985    1.98000002
   16.38111115  358.00399780    4.90999985    1.98000002
   16.38416672  364.46398926    4.90999985    2.00000000
   16.38750076  413.43200684    4.90999985    1.98000002
   16.38944435  345.63598633    4.90999985    1.98000002
   16.38944435  314.97399902    4.90999985    1.94000006
   16.38944435  333.32000732    4.90999985    2.00000000
   16.38944435  364.64300537    4.90999985    1.98000002
   16.38972282  358.00399780    4.90999985    1.98000002
   16.38972282  364.46398926    4.90999985    2.00000000
   16.38972282  413.43200684    4.90999985    1.98000002
   16.38972282  136.31500244    4.90999985    1.83000004
   16.38972282  183.59399414    4.90999985    1.80999994
   16.38972282  297.40899658    4.90999985    1.86000001
   16.39166641  333.66101074    4.90999985    2.00000000
   16.39500046  301.50201416    4.90999985    2.01999998
   16.39833260  137.40600586    4.90999985    1.96000004
   16.40138817  147.84599304    4.90999985    1.88000000
   16.40472221  218.71400452    4.90999985    1.71000004
   16.41027832  218.71400452    4.90999985    1.94000006
   16.41444397  318.90701294    4.90999985    2.01999998
   16.41749954  305.32800293    4.90999985    2.05999994
   16.42083359  330.13900757    4.90999985    2.05999994
   16.43888855  302.05700684    4.90999985    2.13000011
   16.44083214  240.20599365    4.90999985    2.07999992
   16.44388771  242.51800537    4.90999985    2.13000011
   16.44722176  249.74800110    4.90999985    2.11999989
   16.45333481  249.74800110    4.90999985    2.13000011
   16.45722389  240.13200378    4.90999985    2.15000010
   16.46055603  241.10499573    4.90999985    2.13000011
   16.46389008  256.05700684    4.90999985    2.09999990
   16.46694565  294.68399048    4.90999985    2.07999992
   16.47027779  286.60501099    4.90999985    2.00000000
   16.47222328  369.63101196    4.90999985    2.03999996
   16.47416687  279.60800171    4.90999985    2.01999998
   16.47722244  359.20800781    4.90999985    1.94000006
   16.48055649  336.80499268    4.90999985    1.96000004
   16.48361206  308.81399536    4.90999985    1.98000002
   16.48694420  269.77700806    4.90999985    2.05999994
   16.49027824  318.32598877    4.90999985    2.03999996
   16.49611092  318.32598877    4.90999985    2.03999996
   16.50027847  280.49600220    4.90999985    2.01999998
   16.50333405  343.90899658    4.90999985    2.05999994
   16.50555611  307.20901489    4.90999985    2.03999996
   16.50722313  314.00799561    4.90999985    2.03999996
