    HOUR (UT)   FLARE FACTOR    SKY TESTER    SUN TESTER
   12.15277767   -1.00000000   -1.00000000   -1.00000000
   12.17416668  234.16900635    4.90999985    1.75000000
   12.18000031  267.65499878    4.90999985    1.71000004
   12.18333340  279.49499512    4.90999985    1.69000006
   12.18638897  334.55801392    4.90999985    1.66999996
   12.18833351  309.12298584    4.90999985    1.64999998
   12.18972206  294.55300903    4.90999985    1.63000000
   12.19111156  254.21099854    4.90999985    1.63000000
   12.19250011  333.31399536    4.90999985    1.61000001
   12.19388866  309.58099365    4.90999985    1.61000001
   12.19527817  392.76800537    4.90999985    1.61000001
   12.19666672  339.72601318    4.90999985    1.60000002
   12.19805527  318.98400879    4.90999985    1.58000004
   12.19944477  260.28601074    4.90999985    1.58000004
   12.20083332  254.28599548    4.90999985    1.58000004
   12.20222187  205.29100037    4.90999985    1.55999994
   12.20222187  267.65499878    4.90999985    1.71000004
   12.20249939  279.49499512    4.90999985    1.69000006
   12.20249939  334.55801392    4.90999985    1.66999996
   12.20305538  224.99200439    4.90999985    1.55999994
   12.20611095  186.03100586    4.90999985    1.55999994
   12.20944405  208.71200562    4.90999985    1.53999996
   12.21277714  208.85200500    4.90999985    1.51999998
   12.21583271  135.30900574    4.90999985    1.50000000
   12.21916580  168.91200256    4.90999985    1.51999998
   12.22333336  168.91200256    4.90999985    1.51999998
   12.22749996  188.22700500    4.90999985    1.51999998
   12.23055553  168.42799377    4.90999985    1.53999996
   12.23388958  194.06700134    4.90999985    1.55999994
   12.23611164  171.88299561    4.90999985    1.55999994
   12.23750019  197.66499329    4.90999985    1.55999994
   12.24055576  198.00500488    4.90999985    1.55999994
   12.24388885  237.58200073    4.90999985    1.53999996
   12.24694443  150.62100220    4.90999985    1.53999996
   12.25027752  182.53900146    4.90999985    1.51999998
   12.25361156  260.21701050    4.90999985    1.51999998
   12.25666714  214.57099915    4.90999985    1.51999998
   12.26000023  166.76100159    4.90999985    1.51999998
   12.26611137  166.76100159    4.90999985    1.53999996
   12.27027798  314.25201416    4.90999985    1.53999996
   12.27222157  194.63999939    4.90999985    1.51999998
   12.27222157  197.66499329    4.90999985    1.55999994
   12.27222157  198.00500488    4.90999985    1.55999994
   12.27250004  237.58200073    4.90999985    1.53999996
   12.27250004  150.62100220    4.90999985    1.53999996
   12.27250004  182.53900146    4.90999985    1.51999998
   12.27250004  260.21701050    4.90999985    1.51999998
   12.27277756  214.57099915    4.90999985    1.51999998
   12.27277756  166.76100159    4.90999985    1.51999998
   12.27277756  314.25201416    4.90999985    1.53999996
   12.27444458  163.63299561    4.90999985    1.53999996
   12.27777767  179.99299622    4.90999985    1.53999996
   12.28083324  219.68499756    4.90999985    1.55999994
   12.28416729  341.52801514    4.90999985    1.58000004
   12.28611183  291.85800171    4.90999985    1.60000002
   12.28750038  319.12701416    4.90999985    1.60000002
   12.28888893  333.41598511    4.90999985    1.60000002
   12.29027843  294.28201294    4.90999985    1.61000001
   12.29166698  300.61401367    4.90999985    1.63000000
   12.29305553  255.00700378    4.90999985    1.63000000
   12.29444504  296.19400024    4.90999985    1.64999998
   12.29583359  317.72900391    4.90999985    1.64999998
   12.29722309  336.78601074    4.90999985    1.64999998
   12.29861164  299.63198853    4.90999985    1.64999998
   12.30000019  301.72698975    4.90999985    1.64999998
   12.30138874  298.06399536    4.90999985    1.64999998
   12.30277824  280.69299316    4.90999985    1.64999998
   12.30416679  282.27301025    4.90999985    1.64999998
   12.30555534  288.67098999    4.90999985    1.64999998
   12.30694485  293.06600952    4.90999985    1.64999998
   12.30833340  244.46800232    4.90999985    1.64999998
   12.30972195  270.63299561    4.90999985    1.64999998
   12.31111145  327.25698853    4.90999985    1.64999998
   12.31250000  322.91799927    4.90999985    1.64999998
   12.31388950  308.21701050    4.90999985    1.64999998
   12.31527805  321.19900513    4.90999985    1.64999998
   12.31666660  281.20199585    4.90999985    1.64999998
   12.31805515  310.46798706    4.90999985    1.64999998
   12.31944466  272.98498535    4.90999985    1.64999998
   12.32083321  282.50601196    4.90999985    1.66999996
   12.32222176  327.58898926    4.90999985    1.66999996
   12.32361126  303.44799805    4.90999985    1.66999996
   12.32499981  324.51901245    4.90999985    1.66999996
   12.32638836  306.63500977    4.90999985    1.66999996
   12.32777786  328.91101074    4.90999985    1.66999996
   12.32916641  324.66400146    4.90999985    1.64999998
   12.33055592  323.43099976    4.90999985    1.64999998
   12.33194447  340.78698730    4.90999985    1.64999998
   12.33333302  315.63500977    4.90999985    1.64999998
   12.33472157  315.63699341    4.90999985    1.64999998
   12.33611107  332.45098877    4.90999985    1.64999998
   12.33749962  283.79998779    4.90999985    1.63000000
   12.33888817  242.63200378    4.90999985    1.63000000
   12.34027767  301.42898560    4.90999985    1.61000001
   12.34166622  291.11999512    4.90999985    1.61000001
   12.34305477  240.86599731    4.90999985    1.61000001
   12.34444427  311.30801392    4.90999985    1.60000002
   12.34583282  216.34199524    4.90999985    1.60000002
   12.34583282  163.63299561    4.90999985    1.53999996
   12.34583282  179.99299622    4.90999985    1.53999996
   12.34583282  219.68499756    4.90999985    1.55999994
   12.34611034  341.52801514    4.90999985    1.58000004
   12.34666634  174.97700500    4.90999985    1.60000002
   12.34972191  174.94500732    4.90999985    1.58000004
   12.35305595  154.78599548    4.90999985    1.55999994
   12.35638905  198.04499817    4.90999985    1.53999996
   12.35944462  248.06500244    4.90999985    1.55999994
   12.36277771  258.19000244    4.90999985    1.58000004
   12.36694431  258.19000244    4.90999985    1.60000002
   12.37111092  322.24200439    4.90999985    1.63000000
   12.37305546  339.93301392    4.90999985    1.63000000
   12.37416649  386.26998901    4.90999985    1.64999998
   12.37555599  461.45098877    4.90999985    1.64999998
   12.37694454  412.59298706    4.90999985    1.64999998
   12.37833309  397.84899902    4.90999985    1.64999998
   12.37972260  444.55398560    4.90999985    1.64999998
   12.38111115  364.10699463    4.90999985    1.66999996
   12.38249969  367.12899780    4.90999985    1.66999996
   12.38388920  322.10998535    4.90999985    1.69000006
   12.38527775  381.77999878    4.90999985    1.71000004
   12.38666630  333.63699341    4.90999985    1.73000002
   12.38805580  263.16799927    4.90999985    1.75000000
   12.38944435  298.33499146    4.90999985    1.75000000
   12.39083290  241.38200378    4.90999985    1.76999998
   12.39222240  189.78599548    4.90999985    1.78999996
   12.39249992  174.97700500    4.90999985    1.60000002
   12.39249992  174.94500732    4.90999985    1.58000004
   12.39249992  154.78599548    4.90999985    1.55999994
   12.39249992  198.04499817    4.90999985    1.53999996
   12.39249992  248.06500244    4.90999985    1.55999994
   12.39277744  258.19000244    4.90999985    1.58000004
   12.39277744  322.24200439    4.90999985    1.63000000
   12.39333344  203.94700623    4.90999985    1.80999994
   12.39666653  225.08500671    4.90999985    1.83000004
   12.39972210  212.11599731    4.90999985    1.85000002
   12.40305519  158.72300720    4.90999985    1.86000001
   12.40611076  189.55499268    4.90999985    1.86000001
   12.41305542  189.55499268    4.90999985    1.85000002
   12.41722298  185.34199524    4.90999985    1.85000002
   12.42055607  178.73800659    4.90999985    1.86000001
   12.42361164  183.86300659    4.90999985    1.88000000
   12.42611122  170.58299255    4.90999985    1.89999998
   12.42722225  166.17300415    4.90999985    1.89999998
   12.43027782  193.52699280    4.90999985    1.89999998
   12.43361092  190.69400024    4.90999985    1.89999998
   12.43694496  204.26199341    4.90999985    1.88000000
   12.44000053  172.58099365    4.90999985    1.88000000
   12.44333363  206.83399963    4.90999985    1.86000001
   12.44666672  197.47000122    4.90999985    1.85000002
   12.44972229  245.57800293    4.90999985    1.83000004
   12.45583344  245.57800293    4.90999985    1.83000004
   12.46000004  244.44000244    4.90999985    1.85000002
   12.46333313  241.44099426    4.90999985    1.85000002
   12.46666622  199.05299377    4.90999985    1.86000001
   12.46972179  183.05400085    4.90999985    1.86000001
   12.47333336  191.87199402    4.90999985    1.86000001
   12.47666645  219.59100342    4.90999985    1.86000001
   12.47972202  200.88099670    4.90999985    1.86000001
   12.48305511  199.98899841    4.90999985    1.86000001
   12.48611164  229.01499939    4.90999985    1.86000001
   12.48944473  211.59100342    4.90999985    1.88000000
   12.49277782  195.91200256    4.90999985    1.88000000
   12.49305534  192.73599243    4.90999985    1.88000000
   12.49916649  192.73599243    4.90999985    1.89999998
   12.50305557  182.72799683    4.90999985    1.89999998
   12.50638866  189.42100525    4.90999985    1.91999996
   12.50972176  199.98899841    4.90999985    1.94000006
   12.51277733  165.79699707    4.90999985    1.96000004
   12.51611137  161.02499390    4.90999985    1.98000002
   12.51916599  174.27499390    4.90999985    1.98000002
   12.52250004  157.05200195    4.90999985    1.98000002
   12.52583313  185.47900391    4.90999985    1.98000002
   12.52666664  179.90800476    4.90999985    1.98000002
   12.52916622  170.18699646    4.90999985    1.96000004
   12.53249931  195.82200623    4.90999985    1.96000004
   12.53555584  209.66700745    4.90999985    1.96000004
   12.54194450  209.66700745    4.90999985    2.01999998
   12.54611111  136.68299866    4.90999985    2.07999992
   12.54916668  143.25100708    4.90999985    2.11999989
   12.55249977  147.13000488    4.90999985    2.15000010
   12.55583382  153.60299683    4.90999985    2.13000011
   12.55916691  159.48800659    4.90999985    2.15000010
   12.56000042  151.30799866    4.90999985    2.15000010
   12.56250000  148.75700378    4.90999985    2.15000010
   12.56583309  142.11199951    4.90999985    2.15000010
   12.56888866  148.01899719    4.90999985    2.15000010
   12.57222176  143.32000732    4.90999985    2.15000010
   12.57555580  139.58299255    4.90999985    2.15000010
   12.57861137  142.42799377    4.90999985    2.13000011
   12.58472157  142.42799377    4.90999985    2.15000010
   12.58888817  139.52000427    4.90999985    2.15000010
   12.59222221  151.06599426    4.90999985    2.15000010
   12.59333324  138.57000732    4.90999985    2.15000010
   12.59555531  131.71299744    4.90999985    2.15000010
   12.59888840  147.26699829    4.90999985    2.15000010
   12.60194492  138.11999512    4.90999985    2.15000010
   12.60527802  137.02699280    4.90999985    2.15000010
   12.60861111  146.68099976    4.90999985    2.15000010
   12.61166668  144.07800293    4.90999985    2.17000008
   12.61500072  147.64300537    4.90999985    2.15000010
   12.61833382  151.12800598    4.90999985    2.15000010
   12.62138939  150.90100098    4.90999985    2.17000008
   12.62750053  150.90100098    4.90999985    2.17000008
   12.63166714  144.92199707    4.90999985    2.17000008
   12.63500023  145.01899719    4.90999985    2.17000008
   12.63805580  144.70599365    4.90999985    2.17000008
   12.64138889  140.13099670    4.90999985    2.17000008
   12.64472198  145.79499817    4.90999985    2.17000008
   12.64777756  142.66999817    4.90999985    2.19000006
   12.65111065  144.71200562    4.90999985    2.17000008
   12.65444374  143.74099731    4.90999985    2.19000006
   12.65749931  152.52799988    4.90999985    2.19000006
   12.65999985  146.40299988    4.90999985    2.19000006
   12.66111088  145.19599915    4.90999985    2.17000008
   12.66444397  149.38499451    4.90999985    2.19000006
   12.67055607  149.38499451    4.90999985    2.19000006
   12.67444515  145.54600525    4.90999985    2.19000006
   12.67777824  146.79699707    4.90999985    2.19000006
   12.68111134  141.16600037    4.90999985    2.19000006
   12.68416691  160.79800415    4.90999985    2.19000006
   12.68750000  147.36000061    4.90999985    2.19000006
   12.69083309  153.66400146    4.90999985    2.19000006
   12.69333363  153.98899841    4.90999985    2.21000004
   12.69416714  153.74600220    4.90999985    2.21000004
   12.69750023  158.16700745    4.90999985    2.21000004
   12.70083332  157.80799866    4.90999985    2.21000004
   12.70388889  152.35899353    4.90999985    2.21000004
   12.70722198  157.42599487    4.90999985    2.21000004
   12.71333313  157.42599487    4.90999985    2.21000004
   12.71749973  165.08200073    4.90999985    2.21000004
   12.72055531  177.64399719    4.90999985    2.21000004
   12.72388840  145.10400391    4.90999985    2.21000004
   12.72666645  153.25100708    4.90999985    2.21000004
   12.72749996  177.82400513    4.90999985    2.21000004
   12.73083305  169.25100708    4.90999985    2.23000002
   12.73416710  180.51100159    4.90999985    2.21000004
   12.73722267  171.34599304    4.90999985    2.23000002
   12.74055576  170.23899841    4.90999985    2.23000002
   12.74361134  177.49200439    4.90999985    2.23000002
   12.74694443  167.15899658    4.90999985    2.23000002
   12.75027752  168.71800232    4.90999985    2.23000002
   12.75611115  168.71800232    4.90999985    2.23000002
   12.76027775  175.47399902    4.90999985    2.23000002
   12.76361084  167.28700256    4.90999985    2.23000002
   12.76666641  166.52900696    4.90999985    2.23000002
   12.76999950  183.30000305    4.90999985    2.25000000
   12.77305508  167.18600464    4.90999985    2.25000000
   12.77638817  164.67999268    4.90999985    2.23000002
   12.77972221  171.17300415    4.90999985    2.25000000
   12.78277779  170.38200378    4.90999985    2.25000000
   12.78611183  153.04200745    4.90999985    2.23000002
   12.78944492  167.25100708    4.90999985    2.25000000
   12.79250050  171.71699524    4.90999985    2.23000002
   12.79333401  183.78199768    4.90999985    2.25000000
   12.79888916  183.78199768    4.90999985    2.25000000
   12.80305576  156.31799316    4.90999985    2.25000000
   12.80638885  182.86999512    4.90999985    2.25000000
   12.80944443  194.57899475    4.90999985    2.25000000
   12.81277752  174.98899841    4.90999985    2.25000000
   12.81611156  167.34300232    4.90999985    2.25000000
   12.81916618  197.81199646    4.90999985    2.25000000
   12.82250023  178.34100342    4.90999985    2.26999998
   12.82583332  163.91000366    4.90999985    2.26999998
   12.82666683  183.41299438    4.90999985    2.26999998
   12.82916641  170.95300293    4.90999985    2.26999998
   12.83249950  162.36500549    4.90999985    2.26999998
   12.83583260  168.16000366    4.90999985    2.26999998
   12.84166622  168.16000366    4.90999985    2.26999998
   12.84583282  178.04899597    4.90999985    2.26999998
   12.84916592  167.81100464    4.90999985    2.26999998
   12.85249996  152.65400696    4.90999985    2.26999998
   12.85555553  179.23500061    4.90999985    2.26999998
   12.85888958  159.51199341    4.90999985    2.26999998
   12.86000061  168.65499878    4.90999985    2.28999996
   12.86222267  155.52499390    4.90999985    2.28999996
   12.86555576  162.90800476    4.90999985    2.28999996
   12.86888885  174.60000610    4.90999985    2.28999996
   12.87194443  172.47099304    4.90999985    2.26999998
   12.87527752  164.63699341    4.90999985    2.28999996
   12.87833309  175.88999939    4.90999985    2.28999996
   12.88472176  175.88999939    4.90999985    2.28999996
   12.88888836  162.82600403    4.90999985    2.28999996
   12.89222240  168.10200500    4.90999985    2.28999996
   12.89333344  183.07699585    4.90999985    2.28999996
   12.89555550  160.37500000    4.90999985    2.28999996
   12.89888859  171.66299438    4.90999985    2.28999996
   12.90222168  163.77600098    4.90999985    2.30999994
   12.90527725  169.53300476    4.90999985    2.28999996
   12.90861034  161.54600525    4.90999985    2.28999996
   12.91166592  170.51499939    4.90999985    2.28999996
   12.91499996  177.48599243    4.90999985    2.30999994
   12.91833401  178.54100037    4.90999985    2.30999994
   12.92138958  162.21699524    4.90999985    2.30999994
   12.92750072  162.21699524    4.90999985    2.30999994
   12.93166733  160.38800049    4.90999985    2.30999994
   12.93472195  168.94999695    4.90999985    2.30999994
   12.93805599  161.07499695    4.90999985    2.30999994
   12.94138908  155.86900330    4.90999985    2.30999994
   12.94444466  161.71600342    4.90999985    2.30999994
   12.94777775  162.34899902    4.90999985    2.30999994
   12.95111084  148.97099304    4.90999985    2.30999994
   12.95416641  152.31700134    4.90999985    2.30999994
   12.95749950  152.01699829    4.90999985    2.30999994
   12.96000004  153.32400513    4.90999985    2.30999994
   12.96083355  148.75100708    4.90999985    2.30999994
   12.96416664  157.48399353    4.90999985    2.30999994
   12.97027779  157.48399353    4.90999985    2.32999992
   12.97444439  155.40699768    4.90999985    2.32999992
   12.97777748  148.78399658    4.90999985    2.32999992
   12.98083305  146.67300415    4.90999985    2.32999992
   12.98416710  161.33700562    4.90999985    2.32999992
   12.98750019  150.80200195    4.90999985    2.32999992
   12.99055576  147.87699890    4.90999985    2.32999992
   12.99333382  148.66099548    4.90999985    2.32999992
   12.99416733  156.68299866    4.90999985    2.32999992
   12.99750042  144.12800598    4.90999985    2.32999992
   13.00083351  152.71200562    4.90999985    2.32999992
   13.00388908  146.64599609    4.90999985    2.32999992
   13.00722218  142.88600159    4.90999985    2.32999992
   13.01305580  142.88600159    4.90999985    2.32999992
   13.01722240  157.66799927    4.90999985    2.32999992
   13.02055550  159.96400452    4.90999985    2.34999990
   13.02388859  156.61900330    4.90999985    2.34999990
   13.02666664  145.96600342    4.90999985    2.34999990
   13.02722168  153.05900574    4.90999985    2.34999990
   13.03055573  154.65199280    4.90999985    2.34999990
   13.03388977  148.14599609    4.90999985    2.34999990
   13.03694534  144.63800049    4.90999985    2.34999990
   13.04027843  146.46800232    4.90999985    2.34999990
   13.04333401  157.93699646    4.90999985    2.34999990
   13.04666710  150.83299255    4.90999985    2.34999990
   13.05000019  152.28900146    4.90999985    2.34999990
   13.05611134  152.28900146    4.90999985    2.34999990
   13.06027794  155.69400024    4.90999985    2.34999990
   13.06333351  148.78100586    4.90999985    2.34999990
   13.06666660  140.58799744    4.90999985    2.36999989
   13.06972218  137.76699829    4.90999985    2.34999990
   13.07305527  152.07899475    4.90999985    2.36999989
   13.07638836  151.32499695    4.90999985    2.36999989
   13.07944393  154.94999695    4.90999985    2.36999989
   13.08277798  173.71200562    4.90999985    2.36999989
   13.08611107  167.39300537    4.90999985    2.36999989
   13.08916664  170.90699768    4.90999985    2.36999989
   13.09249973  189.57099915    4.90999985    2.36999989
   13.09333324  189.88099670    4.90999985    2.36999989
   13.09888840  189.88099670    4.90999985    2.36999989
   13.10305595  153.58599854    4.90999985    2.36999989
   13.10611153  143.37100220    4.90999985    2.36999989
   13.10944462  152.69299316    4.90999985    2.36999989
   13.11277771  171.23300171    4.90999985    2.36999989
   13.11583328  141.17700195    4.90999985    2.36999989
   13.11916637  148.57299805    4.90999985    2.39000010
   13.12250042  141.74699402    4.90999985    2.36999989
   13.12555599  140.46600342    4.90999985    2.36999989
   13.12666702  143.28700256    4.90999985    2.36999989
   13.12916660  150.30200195    4.90999985    2.39000010
   13.13249969  148.45599365    4.90999985    2.36999989
   13.13583279  153.59300232    4.90999985    2.39000010
   13.14166641  153.59300232    4.90999985    2.39000010
   13.14583302  169.38499451    4.90999985    2.39000010
   13.14916611  145.57000732    4.90999985    2.39000010
   13.15222168  152.10000610    4.90999985    2.39000010
   13.15555477  160.06700134    4.90999985    2.39000010
   13.15888882  153.96000671    4.90999985    2.39000010
   13.15999985  162.69400024    4.90999985    2.39000010
   13.16222191  158.89300537    4.90999985    2.39000010
   13.16555500  159.36999512    4.90999985    2.39000010
   13.16888905  159.78599548    4.90999985    2.39000010
   13.17194462  156.89399719    4.90999985    2.39000010
   13.19472218  156.89399719    4.90999985    2.40000010
   13.19888878  159.55900574    4.90999985    2.39000010
   13.20222187  160.61900330    4.90999985    2.40000010
   13.20527744  167.79200745    4.90999985    2.40000010
   13.20861053  164.23800659    4.90999985    2.40000010
   13.21194458  173.09199524    4.90999985    2.40000010
   13.21500015  168.98800659    4.90999985    2.40000010
   13.21833324  177.15699768    4.90999985    2.40000010
   13.22166634  170.41099548    4.90999985    2.40000010
   13.22472191  188.35899353    4.90999985    2.40000010
   13.22666645  187.33399963    4.90999985    2.40000010
   13.22861099  167.02799988    4.90999985    2.40000010
   13.23166656  174.87800598    4.90999985    2.40000010
   13.23750019  174.87800598    4.90999985    2.40000010
   13.24166679  173.65499878    4.90999985    2.40000010
   13.24499989  183.52900696    4.90999985    2.40000010
   13.24805546  200.09300232    4.90999985    2.40000010
   13.25138855  224.77799988    4.90999985    2.40000010
   13.25472260  179.18200684    4.90999985    2.40000010
   13.25777817  188.77900696    4.90999985    2.42000008
   13.26000023  179.47300720    4.90999985    2.42000008
   13.26166630  190.84399414    4.90999985    2.40000010
   13.26472187  190.07099915    4.90999985    2.42000008
   13.26805496  182.32099915    4.90999985    2.42000008
   13.27138901  178.07600403    4.90999985    2.42000008
   13.27444458  187.22399902    4.90999985    2.42000008
   13.28027725  187.22399902    4.90999985    2.42000008
   13.28444481  204.40499878    4.90999985    2.42000008
   13.28777790  200.59100342    4.90999985    2.42000008
   13.29111195  195.53100586    4.90999985    2.42000008
   13.29333401  197.07899475    4.90999985    2.42000008
   13.29472256  202.94999695    4.90999985    2.42000008
   13.29777813  204.75100708    4.90999985    2.42000008
   13.30111122  198.93099976    4.90999985    2.42000008
   13.30416679  181.44700623    4.90999985    2.42000008
   13.30749989  199.53900146    4.90999985    2.42000008
   13.31083393  168.19599915    4.90999985    2.42000008
   13.31388950  205.30900574    4.90999985    2.42000008
   13.31722260  216.05000305    4.90999985    2.42000008
   13.32333374  216.05000305    4.90999985    2.42000008
   13.32750034  237.69599915    4.90999985    2.42000008
   13.33055592  256.88000488    4.90999985    2.44000006
   13.33388901  261.30300903    4.90999985    2.44000006
   13.33694458  299.05999756    4.90999985    2.42000008
   13.34027767  302.24499512    4.90999985    2.42000008
   13.34222221  325.38299561    4.90999985    2.42000008
   13.34361076  320.83300781    4.90999985    2.44000006
   13.34499931  325.27600098    4.90999985    2.44000006
   13.34638882  325.51800537    4.90999985    2.44000006
   13.34777737  319.37600708    4.90999985    2.44000006
   13.34916592  286.18499756    4.90999985    2.44000006
   13.35055637  304.21301270    4.90999985    2.44000006
   13.35194492  277.26501465    4.90999985    2.44000006
   13.35333347  274.68099976    4.90999985    2.44000006
   13.35472298  283.67800903    4.90999985    2.44000006
   13.35611153  284.20199585    4.90999985    2.42000008
   13.35750008  286.33599854    4.90999985    2.44000006
   13.35888958  272.94699097    4.90999985    2.44000006
   13.36027813  260.46301270    4.90999985    2.44000006
   13.36166668  275.78799438    4.90999985    2.44000006
   13.36305618  246.03900146    4.90999985    2.44000006
   13.36444473  265.06399536    4.90999985    2.44000006
   13.36583328  274.01501465    4.90999985    2.44000006
   13.36722279  255.53700256    4.90999985    2.44000006
   13.36861134  269.67401123    4.90999985    2.44000006
   13.36999989  291.80899048    4.90999985    2.44000006
   13.37138939  240.57299805    4.90999985    2.44000006
   13.37277794  275.34100342    4.90999985    2.44000006
   13.37416649  289.17401123    4.90999985    2.44000006
   13.37555599  283.01901245    4.90999985    2.44000006
   13.37694454  283.04098511    4.90999985    2.44000006
   13.37833309  266.54000854    4.90999985    2.44000006
   13.37972260  300.20098877    4.90999985    2.44000006
   13.38111115  291.47601318    4.90999985    2.44000006
   13.38249969  270.55300903    4.90999985    2.44000006
   13.38388920  261.85299683    4.90999985    2.44000006
   13.38527775  279.66598511    4.90999985    2.46000004
   13.38666630  242.47999573    4.90999985    2.44000006
   13.38805580  260.19500732    4.90999985    2.44000006
   13.38944435  266.08599854    4.90999985    2.44000006
   13.39083290  281.61999512    4.90999985    2.44000006
   13.39222240  265.64700317    4.90999985    2.44000006
   13.39361095  285.89801025    4.90999985    2.44000006
   13.39499950  250.16600037    4.90999985    2.44000006
   13.39638901  282.27099609    4.90999985    2.44000006
   13.39777756  292.12200928    4.90999985    2.46000004
   13.39916611  278.98599243    4.90999985    2.44000006
   13.40055561  279.84600830    4.90999985    2.46000004
   13.40194416  270.23901367    4.90999985    2.46000004
   13.40333271  246.73899841    4.90999985    2.44000006
   13.40472221  263.59100342    4.90999985    2.46000004
   13.40611076  262.95700073    4.90999985    2.46000004
   13.40749931  245.20700073    4.90999985    2.44000006
   13.40888882  225.07200623    4.90999985    2.44000006
   13.41027737  261.77899170    4.90999985    2.44000006
   13.41166592  245.46699524    4.90999985    2.44000006
   13.41305542  222.56300354    4.90999985    2.46000004
   13.41305542  237.69599915    4.90999985    2.42000008
   13.41305542  256.88000488    4.90999985    2.44000006
   13.41333294  261.30300903    4.90999985    2.44000006
   13.41333294  299.05999756    4.90999985    2.42000008
   13.41333294  302.24499512    4.90999985    2.42000008
   13.41333294  199.53900146    4.90999985    2.42000008
   13.41333294  168.19599915    4.90999985    2.42000008
   13.41361046  205.30900574    4.90999985    2.42000008
   13.41361046  216.05000305    4.90999985    2.42000008
   13.41416645  258.34500122    4.90999985    2.44000006
   13.41722298  241.92300415    4.90999985    2.46000004
   13.42055607  246.15800476    4.90999985    2.46000004
   13.42388916  221.37500000    4.90999985    2.46000004
   13.42694473  230.25999451    4.90999985    2.46000004
   13.43388939  230.25999451    4.90999985    2.46000004
   13.43805599  226.90499878    4.90999985    2.46000004
   13.44111156  233.86099243    4.90999985    2.46000004
   13.44444466  229.68800354    4.90999985    2.46000004
   13.44694424  237.19700623    4.90999985    2.46000004
   13.44777775  224.31300354    4.90999985    2.46000004
   13.45111084  235.26100159    4.90999985    2.46000004
   13.45444393  213.61799622    4.90999985    2.46000004
   13.45749950  217.14300537    4.90999985    2.46000004
   13.46083355  215.55299377    4.90999985    2.46000004
   13.46388912  215.61000061    4.90999985    2.46000004
   13.46722221  215.55099487    4.90999985    2.46000004
   13.47055531  211.05799866    4.90999985    2.46000004
   13.47666645  211.05799866    4.90999985    2.46000004
   13.48083305  182.57200623    4.90999985    2.46000004
   13.48388958  182.89300537    4.90999985    2.46000004
   13.48722267  190.17599487    4.90999985    2.46000004
   13.49055576  172.82800293    4.90999985    2.46000004
   13.49361134  188.59899902    4.90999985    2.46000004
   13.49694443  176.56199646    4.90999985    2.48000002
   13.50027752  189.42500305    4.90999985    2.46000004
   13.50333309  194.08799744    4.90999985    2.48000002
   13.50666714  172.75399780    4.90999985    2.48000002
   13.50972176  184.75300598    4.90999985    2.46000004
   13.51305580  176.64300537    4.90999985    2.48000002
   13.51361084  186.61799622    4.90999985    2.48000002
   13.51944447  186.61799622    4.90999985    2.48000002
   13.52361107  161.97099304    4.90999985    2.48000002
   13.52694416  183.96000671    4.90999985    2.48000002
   13.52999973  177.66499329    4.90999985    2.48000002
   13.53333378  180.42399597    4.90999985    2.48000002
   13.53666687  173.36099243    4.90999985    2.48000002
   13.53972244  126.92400360    4.90999985    2.46000004
   13.54305553  170.67599487    4.90999985    2.48000002
   13.54638958  180.29100037    4.90999985    2.48000002
   13.54694462  184.96000671    4.90999985    2.48000002
   13.55000019  182.18299866    4.90999985    2.48000002
   13.55305576  177.73300171    4.90999985    2.48000002
   13.55638885  176.93400574    4.90999985    2.48000002
   13.56222248  176.93400574    4.90999985    2.48000002
   13.56638908  188.05400085    4.90999985    2.48000002
   13.56972218  176.80400085    4.90999985    2.48000002
   13.57305527  190.34300232    4.90999985    2.48000002
   13.57611084  169.99899292    4.90999985    2.48000002
   13.57944393  172.97000122    4.90999985    2.50000000
   13.58027744  168.64500427    4.90999985    2.50000000
   13.58305550  175.05099487    4.90999985    2.48000002
   13.58611107  171.81399536    4.90999985    2.48000002
   13.58944416  171.93600464    4.90999985    2.48000002
   13.59249973  173.33799744    4.90999985    2.50000000
   13.59583282  168.12600708    4.90999985    2.48000002
   13.59916592  170.95100403    4.90999985    2.48000002
   13.60527802  170.95100403    4.90999985    2.50000000
   13.60944462  163.59899902    4.90999985    2.50000000
   13.61250019  162.16600037    4.90999985    2.50000000
   13.61361122  166.49400330    4.90999985    2.50000000
   13.61638927  164.38000488    4.90999985    2.50000000
   13.61944485  169.75900269    4.90999985    2.50000000
   13.62277794  169.74099731    4.90999985    2.50000000
   13.62611103  164.62800598    4.90999985    2.50000000
   13.62916660  172.84199524    4.90999985    2.50000000
   13.63249969  174.30000305    4.90999985    2.50000000
   13.63555527  173.98599243    4.90999985    2.50000000
   13.63888836  166.21299744    4.90999985    2.50000000
   13.64222240  140.70399475    4.90999985    2.50000000
   13.64805508  140.70399475    4.90999985    2.50000000
   13.65222168  162.59700012    4.90999985    2.50000000
   13.65527725  156.56599426    4.90999985    2.50000000
   13.65861034  161.59500122    4.90999985    2.50000000
   13.66194439  162.10299683    4.90999985    2.50000000
   13.66499996  158.06799316    4.90999985    2.50000000
   13.66833401  172.53199768    4.90999985    2.50000000
   13.67138958  165.74200439    4.90999985    2.50000000
   13.67472267  164.33900452    4.90999985    2.50000000
   13.67805576  171.04200745    4.90999985    2.50000000
   13.68027782  171.68099976    4.90999985    2.50000000
   13.68166733  166.89799500    4.90999985    2.50000000
   13.68472195  157.81399536    4.90999985    2.50000000
   13.69083309  157.81399536    4.90999985    2.51999998
   13.69499969  159.81700134    4.90999985    2.50000000
   13.69833374  154.12199402    4.90999985    2.50000000
   13.70138836  157.81199646    4.90999985    2.50000000
   13.70472240  157.40100098    4.90999985    2.50000000
   13.70805550  151.25100708    4.90999985    2.51999998
   13.71111107  170.02000427    4.90999985    2.50000000
   13.71361065  150.75599670    4.90999985    2.50000000
   13.71500015  154.11000061    4.90999985    2.50000000
   13.71805477  159.90699768    4.90999985    2.50000000
   13.72138882  160.38900757    4.90999985    2.50000000
   13.72444439  152.94500732    4.90999985    2.51999998
   13.72777748  153.60200500    4.90999985    2.51999998
   13.73361111  153.60200500    4.90999985    2.51999998
   13.73777771  149.14199829    4.90999985    2.51999998
   13.74111176  137.61799622    4.90999985    2.51999998
   13.74444485  149.16499329    4.90999985    2.51999998
   13.74694443  150.08999634    4.90999985    2.51999998
   13.74805546  149.37699890    4.90999985    2.51999998
   13.75111103  153.32699585    4.90999985    2.51999998
   13.75444412  143.55099487    4.90999985    2.51999998
   13.75749969  141.07899475    4.90999985    2.51999998
   13.76083374  145.94299316    4.90999985    2.51999998
   13.76416683  143.58099365    4.90999985    2.51999998
   13.76722240  149.09399414    4.90999985    2.51999998
   13.77055550  153.22099304    4.90999985    2.51999998
   13.77666664  153.22099304    4.90999985    2.51999998
   13.78083324  150.94900513    4.90999985    2.51999998
   13.78388977  143.59399414    4.90999985    2.51999998
   13.78722286  144.49699402    4.90999985    2.51999998
   13.79027843  135.87300110    4.90999985    2.51999998
   13.79361153  139.90199280    4.90999985    2.51999998
   13.79694462  139.50300598    4.90999985    2.51999998
   13.80000019  141.43099976    4.90999985    2.51999998
   13.80333328  154.07400513    4.90999985    2.51999998
   13.80666733  151.89700317    4.90999985    2.51999998
   13.80972195  143.41000366    4.90999985    2.51999998
   13.81305599  142.60400391    4.90999985    2.51999998
   13.81361103  135.08999634    4.90999985    2.51999998
   13.81944466  135.08999634    4.90999985    2.53999996
   13.82361126  147.43600464    4.90999985    2.51999998
   13.82694435  141.72599792    4.90999985    2.51999998
   13.83027744  140.88900757    4.90999985    2.53999996
   13.83333302  144.05999756    4.90999985    2.53999996
   13.83666611  135.94900513    4.90999985    2.53999996
   13.83972168  135.20100403    4.90999985    2.53999996
   13.84305477  127.88800049    4.90999985    2.51999998
   13.84638882  136.09899902    4.90999985    2.53999996
   13.84694386  131.31100464    4.90999985    2.53999996
   13.85000038  131.00000000    4.90999985    2.53999996
   13.85305595  129.79299927    4.90999985    2.53999996
   13.85638905  131.49800110    4.90999985    2.53999996
   13.86222267  131.49800110    4.90999985    2.53999996
   13.86638927  129.58399963    4.90999985    2.53999996
   13.86972237  134.17599487    4.90999985    2.53999996
   13.87277794  129.99200439    4.90999985    2.53999996
   13.87611103  133.15600586    4.90999985    2.53999996
   13.87944412  126.34400177    4.90999985    2.53999996
   13.88027763  129.96699524    4.90999985    2.53999996
   13.88305569  126.43599701    4.90999985    2.53999996
   13.88611126  139.70300293    4.90999985    2.53999996
   13.88944435  128.05499268    4.90999985    2.53999996
   13.89277744  128.75999451    4.90999985    2.53999996
   13.89583302  129.14300537    4.90999985    2.53999996
   13.89916611  132.00300598    4.90999985    2.53999996
   13.90527725  132.00300598    4.90999985    2.55999994
   13.90916634  131.27699280    4.90999985    2.55999994
   13.91249943  136.12100220    4.90999985    2.53999996
   13.91361046  129.58599854    4.90999985    2.53999996
   13.91611099  128.85000610    4.90999985    2.53999996
   13.91916656  129.24099731    4.90999985    2.53999996
   13.92250061  128.57099915    4.90999985    2.53999996
   13.92583370  127.78600311    4.90999985    2.55999994
   13.92888927  139.85099792    4.90999985    2.53999996
   13.93222237  128.54299927    4.90999985    2.55999994
   13.93555546  144.87100220    4.90999985    2.55999994
   13.93861103  132.47999573    4.90999985    2.55999994
   13.94194412  130.86500549    4.90999985    2.55999994
   13.94805527  130.86500549    4.90999985    2.53999996
   13.95222187  127.59200287    4.90999985    2.53999996
   13.95527744  125.95600128    4.90999985    2.55999994
   13.95861053  127.00499725    4.90999985    2.55999994
   13.96166611  135.24499512    4.90999985    2.55999994
   13.96500015  127.38500214    4.90999985    2.55999994
   13.96833324  129.08399963    4.90999985    2.55999994
   13.97138882  131.17399597    4.90999985    2.55999994
   13.97472191  129.40600586    4.90999985    2.55999994
   13.97805500  128.38499451    4.90999985    2.55999994
   13.98027706  119.50299835    4.90999985    2.55999994
   13.98166656  125.09200287    4.90999985    2.55999994
   13.98472214  127.13899994    4.90999985    2.55999994
   13.99083328  127.13899994    4.90999985    2.55999994
   13.99499989  135.93899536    4.90999985    2.55999994
   13.99805546  132.83900452    4.90999985    2.55999994
   14.00138855  125.33999634    4.90999985    2.55999994
   14.00472260  127.12999725    4.90999985    2.55999994
   14.00777817  125.19300079    4.90999985    2.55999994
   14.01111126  123.99199677    4.90999985    2.55999994
   14.01361084  122.60900116    4.90999985    2.55999994
   14.01472187  129.15400696    4.90999985    2.55999994
   14.01777744  131.66400146    4.90999985    2.55999994
   14.02111053  122.29000092    4.90999985    2.55999994
   14.02444458  121.71499634    4.90999985    2.55999994
   14.02750015  126.37100220    4.90999985    2.55999994
   14.03361130  126.37100220    4.90999985    2.55999994
   14.03777790  129.10499573    4.90999985    2.57999992
   14.04111195  123.24900055    4.90999985    2.57999992
   14.04416752  128.90699768    4.90999985    2.57999992
   14.04694462  127.22200012    4.90999985    2.55999994
   14.04805565  127.79199982    4.90999985    2.57999992
   14.05111122  123.34899902    4.90999985    2.57999992
   14.05444431  120.50700378    4.90999985    2.55999994
   14.05777836  121.92099762    4.90999985    2.55999994
   14.06083393  121.93599701    4.90999985    2.57999992
   14.06416702  121.03199768    4.90999985    2.57999992
   14.06750011  120.96700287    4.90999985    2.55999994
   14.07055569  121.90499878    4.90999985    2.57999992
   14.07666683  121.90499878    4.90999985    2.55999994
   14.08055592  124.69599915    4.90999985    2.57999992
   14.08388901  123.06199646    4.90999985    2.57999992
   14.08722210  126.14099884    4.90999985    2.57999992
   14.09027767  124.94599915    4.90999985    2.57999992
   14.09361076  121.82299805    4.90999985    2.57999992
   14.09694386  119.58399963    4.90999985    2.57999992
   14.10000038  122.26699829    4.90999985    2.57999992
   14.10333347  123.79399872    4.90999985    2.57999992
   14.10638905  126.56800079    4.90999985    2.57999992
   14.10972214  126.69000244    4.90999985    2.57999992
   14.11305618  128.65600586    4.90999985    2.57999992
   14.11361122  123.78500366    4.90999985    2.57999992
   14.11944485  123.78500366    4.90999985    2.57999992
   14.12361145  119.70899963    4.90999985    2.55999994
   14.12666702  117.79499817    4.90999985    2.57999992
   14.13000011  124.97100067    4.90999985    2.57999992
   14.13305569  122.31600189    4.90999985    2.57999992
   14.13638878  120.90599823    4.90999985    2.57999992
   14.13972187  122.88300323    4.90999985    2.57999992
   14.14277744  122.61000061    4.90999985    2.57999992
   14.14611053  124.77300262    4.90999985    2.57999992
   14.14694405  129.75000000    4.90999985    2.57999992
   14.14972210  134.33900452    4.90999985    2.57999992
   14.15277767  125.41999817    4.90999985    2.57999992
   14.15611076  130.66999817    4.90999985    2.57999992
   14.16222191  130.66999817    4.90999985    2.57999992
   14.16638851  121.28800201    4.90999985    2.57999992
   14.16944504  121.14700317    4.90999985    2.57999992
   14.17277813  122.37200165    4.90999985    2.57999992
   14.17611122  120.05100250    4.90999985    2.57999992
   14.17944431  127.19899750    4.90999985    2.57999992
   14.18027782  114.06099701    4.90999985    2.59999990
   14.18305588  123.00099945    4.90999985    2.57999992
   14.18611145  136.57299805    4.90999985    2.57999992
   14.18944454  114.46099854    4.90999985    2.57999992
   14.21194458  114.46099854    4.90999985    2.59999990
   14.21611118  122.11199951    4.90999985    2.59999990
   14.21916580  114.88300323    4.90999985    2.57999992
   14.22249985  116.61199951    4.90999985    2.57999992
   14.22555542  117.04900360    4.90999985    2.59999990
   14.22888851  120.91000366    4.90999985    2.59999990
   14.23222160  124.37100220    4.90999985    2.59999990
   14.23527813  116.05899811    4.90999985    2.59999990
   14.23861122  118.01300049    4.90999985    2.59999990
   14.24194431  117.90200043    4.90999985    2.57999992
   14.24499989  120.44799805    4.90999985    2.59999990
   14.24694443  123.06500244    4.90999985    2.57999992
   14.24861145  115.69799805    4.90999985    2.57999992
   14.25472260  115.69799805    4.90999985    2.57999992
   14.25861073  111.90799713    4.90999985    2.59999990
   14.26194477  109.73799896    4.90999985    2.59999990
   14.26527786  110.36299896    4.90999985    2.57999992
   14.26833344  123.50000000    4.90999985    2.59999990
   14.27166653  110.87599945    4.90999985    2.59999990
   14.27499962  104.84799957    4.90999985    2.57999992
   14.27805519  116.38099670    4.90999985    2.59999990
   14.28027725  116.70899963    4.90999985    2.59999990
   14.28166676  114.38700104    4.90999985    2.59999990
   14.28500080  126.04199982    4.90999985    2.59999990
   14.28805637  112.78500366    4.90999985    2.59999990
   14.29138947  111.29599762    4.90999985    2.59999990
   14.29750061  111.29599762    4.90999985    2.59999990
   14.30166721  130.92500305    4.90999985    2.59999990
   14.30472279  117.49199677    4.90999985    2.59999990
   14.30805588  117.62400055    4.90999985    2.59999990
   14.31111145  114.98200226    4.90999985    2.59999990
   14.31388950  116.45700073    4.90999985    2.59999990
   14.31500053  117.61199951    4.90999985    2.59999990
   14.31805515  125.01499939    4.90999985    2.59999990
   14.32138920  124.65699768    4.90999985    2.59999990
   14.32472229  120.61499786    4.90999985    2.59999990
   14.32777786  120.68099976    4.90999985    2.59999990
   14.33111095  120.35600281    4.90999985    2.59999990
   14.33416653  120.18399811    4.90999985    2.59999990
   14.34027767  120.18399811    4.90999985    2.59999990
   14.34444427  119.57399750    4.90999985    2.59999990
   14.34722233  119.48799896    4.90999985    2.59999990
   14.34805489  115.87899780    4.90999985    2.59999990
   14.35111141  112.13899994    4.90999985    2.59999990
   14.35444450  113.61199951    4.90999985    2.59999990
   14.35750008  115.63400269    4.90999985    2.59999990
   14.36083412  122.83300018    4.90999985    2.59999990
   14.36416721  116.90499878    4.90999985    2.59999990
   14.36722279  113.27300262    4.90999985    2.59999990
   14.37055588  114.11199951    4.90999985    2.61999989
   14.37388897  117.49800110    4.90999985    2.59999990
   14.37694454  116.01399994    4.90999985    2.59999990
   14.38305569  116.01399994    4.90999985    2.61999989
   14.38722229  116.54000092    4.90999985    2.59999990
   14.39055538  121.68699646    4.90999985    2.59999990
   14.39361095  117.50700378    4.90999985    2.59999990
   14.39694405  113.98000336    4.90999985    2.61999989
   14.40027714  123.39900208    4.90999985    2.59999990
   14.40333271  116.88200378    4.90999985    2.59999990
   14.40666676  123.33999634    4.90999985    2.61999989
   14.40972137  117.56800079    4.90999985    2.59999990
   14.41305542  112.31600189    4.90999985    2.61999989
   14.41388893  121.18399811    4.90999985    2.61999989
   14.41666698  119.07099915    4.90999985    2.59999990
   14.42000008  118.21199799    4.90999985    2.61999989
   14.42583370  118.21199799    4.90999985    2.59999990
   14.43000031  117.00099945    4.90999985    2.61999989
   14.43333340  119.27100372    4.90999985    2.61999989
   14.43666649  118.12599945    4.90999985    2.61999989
   14.43972206  120.95300293    4.90999985    2.59999990
   14.44305515  118.39099884    4.90999985    2.61999989
   14.44611073  116.14299774    4.90999985    2.61999989
   14.44722271  114.27700043    4.90999985    2.61999989
   14.44972229  116.34799957    4.90999985    2.59999990
   14.45305538  113.31099701    4.90999985    2.61999989
   14.45611095  114.09300232    4.90999985    2.59999990
   14.45944405  113.20999908    4.90999985    2.61999989
   14.46249962  113.81700134    4.90999985    2.61999989
   14.46888828  113.81700134    4.90999985    2.61999989
   14.47305489  111.41300201    4.90999985    2.61999989
   14.47611046  109.38600159    4.90999985    2.61999989
   14.47944355  110.72100067    4.90999985    2.59999990
   14.48083305  109.78800201    4.90999985    2.61999989
   14.48305511  109.98200226    4.90999985    2.61999989
   14.48611164  117.13099670    4.90999985    2.61999989
   14.48944473  110.84799957    4.90999985    2.61999989
   14.49277782  116.12100220    4.90999985    2.61999989
   14.49583340  107.54699707    4.90999985    2.61999989
   14.49916649  118.49700165    4.90999985    2.61999989
   14.50249958  114.01599884    4.90999985    2.61999989
   14.50555515  116.55799866    4.90999985    2.61999989
   14.51166630  116.55799866    4.90999985    2.61999989
   14.51583290  115.86399841    4.90999985    2.61999989
   14.51888847  123.47100067    4.90999985    2.61999989
   14.52222157  113.58300018    4.90999985    2.61999989
   14.52555561  119.70099640    4.90999985    2.59999990
   14.52861118  121.34200287    4.90999985    2.61999989
   14.53194427  111.27500153    4.90999985    2.61999989
   14.53527832  113.43099976    4.90999985    2.61999989
   14.53833389  116.83399963    4.90999985    2.61999989
   14.54166698  109.79100037    4.90999985    2.61999989
   14.54500008  115.26300049    4.90999985    2.61999989
   14.54750061  107.77700043    4.90999985    2.61999989
   14.54861164  110.43199921    4.90999985    2.61999989
   14.55444431  110.43199921    4.90999985    2.61999989
   14.55861092  108.08599854    4.90999985    2.61999989
   14.56194496  107.52100372    4.90999985    2.61999989
   14.56500053  110.98100281    4.90999985    2.61999989
   14.56833363  113.84600067    4.90999985    2.61999989
   14.57166672  115.40499878    4.90999985    2.61999989
   14.57472229  105.69000244    4.90999985    2.61999989
   14.57805538  112.68299866    4.90999985    2.61999989
   14.58083344  111.50900269    4.90999985    2.61999989
   14.58166695  111.25900269    4.90999985    2.61999989
   14.58500004  111.07499695    4.90999985    2.61999989
   14.58805561  116.23100281    4.90999985    2.61999989
   14.59138870  108.63099670    4.90999985    2.61999989
   14.59722233  108.63099670    4.90999985    2.61999989
   14.60138893  111.74199677    4.90999985    2.61999989
   14.60472298  113.45099640    4.90999985    2.64000010
   14.60805607  115.42099762    4.90999985    2.64000010
   14.61111164  111.54199982    4.90999985    2.61999989
   14.61416721  111.34500122    4.90999985    2.61999989
   14.61472225  113.15100098    4.90999985    2.61999989
   14.61805534  115.62100220    4.90999985    2.61999989
   14.62111092  114.05000305    4.90999985    2.64000010
   14.62444496  118.80000305    4.90999985    2.61999989
   14.62777805  113.99700165    4.90999985    2.61999989
   14.63083363  115.81199646    4.90999985    2.61999989
   14.63416672  114.67700195    4.90999985    2.61999989
   14.64027786  114.67700195    4.90999985    2.61999989
   14.64444447  114.23200226    4.90999985    2.61999989
   14.64750004  114.75900269    4.90999985    2.64000010
   14.64805508  119.30799866    4.90999985    2.64000010
   14.65138817  119.26699829    4.90999985    2.64000010
   14.65444374  113.62899780    4.90999985    2.64000010
   14.65777779  112.02400208    4.90999985    2.64000010
   14.66083336  110.23600006    4.90999985    2.61999989
   14.66416645  117.32199860    4.90999985    2.64000010
   14.66750050  118.84999847    4.90999985    2.61999989
   14.67055607  119.26999664    4.90999985    2.61999989
   14.67388916  119.26300049    4.90999985    2.64000010
   14.67722225  120.08200073    4.90999985    2.64000010
   14.68305588  120.08200073    4.90999985    2.64000010
   14.68722248  111.01799774    4.90999985    2.61999989
   14.69055557  118.40000153    4.90999985    2.64000010
   14.69361115  121.88999939    4.90999985    2.64000010
   14.69694424  119.03700256    4.90999985    2.64000010
   14.70027733  111.76999664    4.90999985    2.61999989
   14.70333290  112.54900360    4.90999985    2.64000010
   14.70666695  115.25199890    4.90999985    2.64000010
   14.71000004  117.38300323    4.90999985    2.64000010
   14.71305561  116.63200378    4.90999985    2.64000010
   14.71416664  117.53399658    4.90999985    2.64000010
   14.71666622  111.57399750    4.90999985    2.64000010
   14.71999931  121.31600189    4.90999985    2.64000010
   14.72583294  121.31600189    4.90999985    2.64000010
   14.72999954  108.66100311    4.90999985    2.64000010
   14.73333359  115.99400330    4.90999985    2.64000010
   14.73666668  115.15399933    4.90999985    2.64000010
   14.73972225  116.75299835    4.90999985    2.64000010
   14.74305534  115.79799652    4.90999985    2.64000010
   14.74611092  109.50299835    4.90999985    2.64000010
   14.74750042  105.77600098    4.90999985    2.64000010
   14.74972248  113.73100281    4.90999985    2.64000010
   14.75305557  112.65599823    4.90999985    2.61999989
   14.75611115  109.91899872    4.90999985    2.64000010
   14.75944424  110.26399994    4.90999985    2.64000010
   14.76277733  119.97699738    4.90999985    2.64000010
   14.76888847  119.97699738    4.90999985    2.64000010
   14.77305508  116.57900238    4.90999985    2.64000010
   14.77611065  113.01300049    4.90999985    2.64000010
   14.77944374  116.44300079    4.90999985    2.64000010
   14.78111076  109.31600189    4.90999985    2.64000010
   14.78305531  124.31500244    4.90999985    2.64000010
   14.78638935  115.72200012    4.90999985    2.64000010
   14.78944492  113.59999847    4.90999985    2.64000010
   14.79277802  115.91699982    4.90999985    2.64000010
   14.79583359  114.54199982    4.90999985    2.64000010
   14.79916668  111.54499817    4.90999985    2.64000010
   14.80222225  115.51999664    4.90999985    2.64000010
   14.80555534  111.44300079    4.90999985    2.64000010
   14.81166649  111.44300079    4.90999985    2.64000010
   14.81555557  111.60399628    4.90999985    2.64000010
   14.81888866  113.94699860    4.90999985    2.64000010
   14.82222176  115.17299652    4.90999985    2.64000010
   14.82527733  111.22299957    4.90999985    2.64000010
   14.82861137  107.66999817    4.90999985    2.64000010
   14.83194447  107.36499786    4.90999985    2.64000010
   14.83500004  110.55400085    4.90999985    2.66000009
   14.83833313  113.45700073    4.90999985    2.64000010
   14.84138870  111.26300049    4.90999985    2.66000009
   14.84472179  109.86100006    4.90999985    2.66000009
   14.84777737  114.27400208    4.90999985    2.66000009
   14.84833336  117.10800171    4.90999985    2.64000010
   14.85444450  117.10800171    4.90999985    2.64000010
   14.85861111  115.54199982    4.90999985    2.64000010
   14.86194515  110.52999878    4.90999985    2.64000010
   14.86500072  114.73600006    4.90999985    2.64000010
   14.86833382  119.60800171    4.90999985    2.64000010
   14.87138939  104.94799805    4.90999985    2.64000010
   14.87472248  111.10700226    4.90999985    2.66000009
   14.87805557  112.17500305    4.90999985    2.64000010
   14.88111115  111.37100220    4.90999985    2.64000010
   14.88166714  110.81700134    4.90999985    2.66000009
   14.88472176  109.00800323    4.90999985    2.66000009
   14.88805580  118.13800049    4.90999985    2.66000009
   14.89138889  116.54900360    4.90999985    2.64000010
   14.89722252  116.54900360    4.90999985    2.66000009
   14.90138817  117.63700104    4.90999985    2.66000009
   14.90472221  113.30500031    4.90999985    2.66000009
   14.90777779  109.50900269    4.90999985    2.66000009
   14.91111088  107.90699768    4.90999985    2.66000009
   14.91416645  109.99400330    4.90999985    2.66000009
   14.91472149  111.73899841    4.90999985    2.66000009
   14.91805553  110.84500122    4.90999985    2.66000009
   14.92111111  106.89199829    4.90999985    2.66000009
   14.92444515  110.25800323    4.90999985    2.66000009
   14.92777824  110.58699799    4.90999985    2.66000009
   14.93083382  111.69300079    4.90999985    2.66000009
   14.93416691  115.40699768    4.90999985    2.66000009
   14.94000053  115.40699768    4.90999985    2.66000009
   14.94416714  113.24700165    4.90999985    2.66000009
   14.94750023  111.48300171    4.90999985    2.64000010
   14.94805527  110.05599976    4.90999985    2.66000009
   14.95111084  106.27799988    4.90999985    2.66000009
   14.95416641  108.95200348    4.90999985    2.66000009
   14.95749950  109.69400024    4.90999985    2.66000009
   14.96083355  112.02799988    4.90999985    2.66000009
   14.96388912  108.33100128    4.90999985    2.66000009
   14.96722221  111.41400146    4.90999985    2.66000009
   14.97055531  106.72100067    4.90999985    2.66000009
   14.97361088  106.39600372    4.90999985    2.66000009
   14.97694397  106.82499695    4.90999985    2.66000009
   14.98305511  106.82499695    4.90999985    2.66000009
   14.98694515  108.15000153    4.90999985    2.66000009
   14.99027824  114.80300140    4.90999985    2.66000009
   14.99361134  110.51999664    4.90999985    2.66000009
   14.99666691  114.41699982    4.90999985    2.66000009
   15.00000000  116.36199951    4.90999985    2.66000009
   15.00333309  112.89800262    4.90999985    2.66000009
   15.00638866  113.31999969    4.90999985    2.66000009
   15.00972176  111.19999695    4.90999985    2.66000009
   15.01277733  107.12400055    4.90999985    2.66000009
   15.01472187  111.19699860    4.90999985    2.66000009
   15.01638889  111.04699707    4.90999985    2.66000009
   15.01972198  114.19799805    4.90999985    2.66000009
   15.02583313  114.19799805    4.90999985    2.66000009
   15.02999973  111.28199768    4.90999985    2.66000009
   15.03305531  116.09600067    4.90999985    2.66000009
   15.03638935  110.05400085    4.90999985    2.66000009
   15.03972244  109.84899902    4.90999985    2.66000009
   15.04277802  111.51399994    4.90999985    2.66000009
   15.04611111  112.31600189    4.90999985    2.66000009
   15.04805565  107.10199738    4.90999985    2.66000009
   15.04972267  109.23600006    4.90999985    2.66000009
   15.05305576  110.68199921    4.90999985    2.66000009
   15.05611134  112.73500061    4.90999985    2.66000009
   15.05944443  108.30100250    4.90999985    2.66000009
   15.06250000  113.76699829    4.90999985    2.66000009
   15.06861115  113.76699829    4.90999985    2.66000009
   15.07277775  114.17099762    4.90999985    2.66000009
   15.07611084  108.10600281    4.90999985    2.66000009
   15.07916641  117.52600098    4.90999985    2.66000009
   15.08138847  115.02799988    4.90999985    2.57999992
   15.08277798  118.36799622    4.90999985    2.57999992
   15.08611107  115.61299896    3.59999990    2.57999992
   15.08916664  115.93299866    1.23000002    2.57999992
   15.09249973  114.94699860    4.90999985    2.69000006
   15.09555531  119.72200012    4.90999985    2.69000006
   15.09888840  117.41999817    4.90999985    2.69000006
   15.10222244  109.60299683    4.90999985    2.69000006
   15.10527802  111.93099976    4.90999985    2.69000006
   15.11138916  111.93099976    0.25999999    2.57999992
   15.11555576  109.96499634    0.25999999    2.57999992
   15.11888885  109.43099976    0.25999999    2.57999992
   15.12194443  111.37999725    0.28000000    2.57999992
   15.12527752  112.00000000    0.28000000    2.57999992
   15.12861156  110.84400177    0.25999999    2.57999992
   15.13166714  110.48799896    0.25999999    2.57999992
   15.13500023  112.16799927    0.25999999    2.57999992
   15.13833332  110.67900085    0.28000000    2.57999992
   15.14138889  113.02600098    0.28000000    2.57999992
   15.14472198  119.49299622    0.28000000    2.57999992
   15.14777756  107.31800079    0.28000000    2.59999990
   15.14833355  110.25599670    0.28000000    2.59999990
   15.15444374  110.25599670    0.28000000    2.57999992
   15.15833282  113.41999817    0.30000001    2.59999990
   15.16166592  119.44000244    0.28000000    2.57999992
   15.16499996  110.51000214    0.30000001    2.59999990
   15.16805553  111.24400330    0.31999999    2.57999992
   15.17138958  108.92500305    0.30000001    2.57999992
   15.17472267  108.89199829    0.30000001    2.57999992
   15.17777824  113.05000305    0.31999999    2.57999992
   15.18111134  118.41699982    0.31999999    2.59999990
   15.18166733  117.07399750    0.31999999    2.59999990
   15.18472195  112.22599792    0.30000001    2.57999992
   15.18805599  107.77700043    0.30000001    2.59999990
   15.19111156  107.64299774    0.30000001    2.59999990
   15.19722271  107.64299774    0.31999999    2.57999992
   15.20138836  109.37200165    0.31999999    2.59999990
   15.20444393  107.30799866    0.30000001    2.59999990
   15.20777798  104.59500122    0.30000001    2.57999992
   15.22555542  102.47100067    0.30000001    2.59999990
   15.22777748  109.00099945    0.30000001    2.59999990
   15.23111057  108.23400116    0.30000001    2.59999990
   15.23444462  110.36900330    0.30000001    2.57999992
   15.24027824  110.36900330    0.30000001    2.57999992
   15.24444485  116.38999939    0.31999999    2.59999990
   15.24750042  112.66500092    0.31999999    2.57999992
   15.25083351  111.69899750    0.31999999    2.59999990
   15.25416660  114.79399872    0.34000000    2.59999990
   15.25722218  110.98500061    0.31999999    2.59999990
   15.25861073  107.88099670    0.31999999    2.59999990
   15.26083374  106.54100037    0.34000000    2.57999992
   15.26416683  112.56600189    0.36000001    2.59999990
   15.26722240  106.60299683    0.36000001    2.59999990
   15.27055550  108.43299866    0.41999999    2.59999990
   15.27361107  109.41100311    0.44000000    2.59999990
   15.27694416  110.33000183    0.41999999    2.59999990
   15.28305531  110.33000183    0.41999999    2.59999990
   15.28722286  110.79399872    0.44000000    2.59999990
   15.29055595  112.51300049    0.44000000    2.59999990
   15.29194450  109.26300049    0.46000001    2.59999990
   15.29416752  109.52100372    0.46000001    2.59999990
   15.29722309  109.12500000    0.47999999    2.59999990
   15.30055618  109.72699738    0.51999998    2.59999990
   15.30388927  105.74700165    0.51999998    2.59999990
   15.30694485  110.53700256    0.51999998    2.59999990
   15.31027794  105.88800049    0.50000000    2.57999992
   15.31361103  112.34300232    0.50000000    2.61999989
   15.31666660  105.59200287    0.51999998    2.59999990
   15.31999969  106.11900330    0.51999998    2.59999990
   15.32583332  106.11900330    0.50000000    2.59999990
   15.32999992  118.69000244    0.47999999    2.59999990
   15.33333302  113.80599976    0.47999999    2.59999990
   15.33638859  110.16000366    0.47999999    2.59999990
   15.33972168  108.62899780    0.47999999    2.59999990
   15.34305477  108.51999664    0.47999999    2.59999990
   15.34611034  111.05899811    0.47999999    2.59999990
   15.34944439  107.81900024    0.46000001    2.57999992
   15.35249996  105.96199799    0.47999999    2.59999990
   15.35583401  117.89800262    0.46000001    2.59999990
   15.35861111  110.00499725    0.46000001    2.59999990
   15.35944462  104.29100037    0.46000001    2.59999990
   15.36277771  105.95899963    0.46000001    2.59999990
   15.36861134  105.95899963    0.46000001    2.59999990
   15.37277794  106.96700287    0.46000001    2.59999990
   15.37611103  109.88400269    0.46000001    2.59999990
   15.37916660  109.77500153    0.46000001    2.59999990
   15.38249969  110.39399719    0.46000001    2.59999990
   15.38583279  109.58499908    0.46000001    2.59999990
   15.38888836  109.17199707    0.47999999    2.59999990
   15.39194393  109.45899963    0.47999999    2.59999990
   15.39277744  106.46299744    0.46000001    2.59999990
   15.39583302  107.53700256    0.46000001    2.59999990
   15.39916611  112.27700043    0.46000001    2.59999990
   15.40222168  106.05599976    0.46000001    2.59999990
   15.40555477  107.94100189    0.47999999    2.59999990
   15.41166592  107.94100189    0.46000001    2.59999990
   15.41555500  110.62699890    0.46000001    2.59999990
   15.41888905  107.93000031    0.47999999    2.59999990
   15.42222214  103.08200073    0.47999999    2.59999990
   15.42527771  105.35600281    0.50000000    2.59999990
   15.42583370  110.07099915    0.50000000    2.59999990
   15.42888927  111.19400024    0.47999999    2.59999990
   15.43222237  110.21199799    0.47999999    2.59999990
   15.43527794  111.14900208    0.47999999    2.59999990
   15.43861103  109.87400055    0.50000000    2.59999990
   15.44194412  106.35700226    0.47999999    2.59999990
   15.44499969  105.87799835    0.47999999    2.59999990
   15.44833374  110.28800201    0.47999999    2.59999990
   15.45444393  110.28800201    0.47999999    2.59999990
   15.45861053  118.87200165    0.46000001    2.59999990
   15.45888901  107.09999847    0.46000001    2.59999990
   15.46222210  115.73699951    0.46000001    2.59999990
   15.46555519  121.47100067    0.46000001    2.59999990
   15.46888828  113.86799622    0.46000001    2.59999990
   15.47194386  107.43900299    0.46000001    2.59999990
   15.47527695  117.04799652    0.46000001    2.61999989
   15.47861099  115.40599823    0.46000001    2.59999990
   15.48166656  105.44300079    0.46000001    2.59999990
   15.48500061  114.77999878    0.46000001    2.59999990
   15.48805618  111.52999878    0.46000001    2.59999990
   15.49138927  116.68399811    0.46000001    2.59999990
   15.49250031  118.94400024    0.46000001    2.59999990
   15.49722290  118.94400024    0.46000001    2.59999990
   15.50138855  110.79599762    0.47999999    2.59999990
   15.50472260  107.99800110    0.46000001    2.59999990
   15.50805569  121.10900116    0.46000001    2.59999990
   15.51111126  101.91600037    0.44000000    2.59999990
   15.51444435  103.09700012    0.44000000    2.59999990
   15.51749992  109.12500000    0.44000000    2.59999990
   15.52083302  111.69100189    0.44000000    2.59999990
   15.52416611  102.69000244    0.44000000    2.59999990
   15.52583313  107.48300171    0.44000000    2.59999990
   15.52750015  107.31199646    0.44000000    2.59999990
   15.53083324  110.49600220    0.44000000    2.59999990
   15.53416729  117.65499878    0.46000001    2.59999990
   15.54027843  117.65499878    0.46000001    2.59999990
   15.54416752  119.55400085    0.44000000    2.59999990
   15.54750061  103.14199829    0.44000000    2.59999990
   15.55083370  141.23100281    0.44000000    2.59999990
   15.55388927  127.35399628    0.41999999    2.61999989
   15.55722237  151.90499878    0.40000001    2.59999990
   15.55916691  108.53800201    0.40000001    2.59999990
   15.56083393  137.24299622    0.40000001    2.61999989
   15.56416702  144.81300354    0.40000001    2.59999990
   15.56750011  119.17500305    0.40000001    2.61999989
   15.57055569  115.20500183    0.40000001    2.61999989
   15.57388878  110.66300201    0.40000001    2.59999990
   15.57694435  135.98300171    0.40000001    2.59999990
   15.58305550  135.98300171    0.38000000    2.59999990
   15.58722210  127.21499634    0.38000000    2.59999990
   15.59027767  129.35200500    0.38000000    2.61999989
   15.59249973  104.79100037    0.38000000    2.59999990
   15.59388828  115.78800201    0.36000001    2.59999990
   15.59722233  103.42900085    0.36000001    2.59999990
   15.60055637  114.96099854    0.36000001    2.59999990
   15.60361195  128.70300293    0.36000001    2.59999990
   15.60694504  118.24600220    0.36000001    2.61999989
   15.61000061  115.29199982    0.36000001    2.59999990
   15.61333370  113.31900024    0.38000000    2.59999990
   15.61666679  106.02100372    0.38000000    2.59999990
   15.61972237  105.62500000    0.38000000    2.59999990
   15.62583351  105.62500000    0.38000000    2.61999989
   15.63000011  119.20200348    0.36000001    2.59999990
   15.63305569  130.30599976    0.38000000    2.61999989
   15.63638878  115.62500000    0.38000000    2.59999990
   15.63972187  123.84400177    0.38000000    2.59999990
   15.64277744  129.47000122    0.36000001    2.61999989
   15.64611053  116.50299835    0.36000001    2.61999989
   15.64944458  121.83000183    0.36000001    2.61999989
   15.65249920  115.78600311    0.36000001    2.61999989
   15.65583324  124.14800262    0.36000001    2.64000010
   15.65916634  127.93499756    0.36000001    2.61999989
   15.65944386  126.24400330    0.36000001    2.61999989
   15.66277695  130.62100220    0.36000001    2.61999989
   15.66861153  130.62100220    0.36000001    2.61999989
   15.67277813  106.49299622    0.38000000    2.61999989
   15.67611122  120.10700226    0.36000001    2.61999989
   15.67916679  122.27799988    0.38000000    2.61999989
   15.68249989  126.52799988    0.38000000    2.61999989
   15.68555546  126.91999817    0.38000000    2.61999989
   15.68888855  123.95999908    0.38000000    2.61999989
   15.69222260  133.41900635    0.38000000    2.61999989
   15.69250011  134.27499390    0.38000000    2.61999989
   15.69583321  116.81300354    0.40000001    2.59999990
   15.69916630  143.67500305    0.40000001    2.61999989
   15.70222187  125.82499695    0.40000001    2.61999989
   15.70555496  124.50499725    0.40000001    2.61999989
   15.71138859  124.50499725    0.40000001    2.61999989
   15.71555519  126.94699860    0.40000001    2.61999989
   15.71888828  118.54799652    0.38000000    2.61999989
   15.72194386  127.51799774    0.38000000    2.61999989
   15.72527695  126.33899689    0.38000000    2.61999989
   15.72611046  115.55100250    0.38000000    2.61999989
   15.72888851  120.24400330    0.38000000    2.61999989
   15.73222160  129.74699402    0.38000000    2.59999990
   15.73555565  119.95600128    0.38000000    2.59999990
   15.73861122  124.50499725    0.38000000    2.61999989
   15.74194431  121.78099823    0.38000000    2.61999989
   15.74499989  129.28199768    0.38000000    2.61999989
   15.74833393  113.62000275    0.38000000    2.64000010
   15.75444412  113.62000275    0.38000000    2.59999990
   15.75833321  109.08899689    0.38000000    2.61999989
   15.75944424  106.84100342    0.38000000    2.61999989
   15.76194477  118.33699799    0.38000000    2.61999989
   15.76527786  125.84899902    0.38000000    2.61999989
   15.76833344  116.91100311    0.38000000    2.61999989
   15.77166653  134.02900696    0.36000001    2.59999990
   15.77499962  118.64900208    0.36000001    2.61999989
   15.77805519  127.92199707    0.36000001    2.59999990
   15.78138828  111.30699921    0.38000000    2.59999990
   15.78472233  118.27500153    0.38000000    2.59999990
   15.78777790  113.76999664    0.36000001    2.59999990
   15.79111195  110.94799805    0.36000001    2.61999989
   15.79277802   97.25630188    0.36000001    2.61999989
   15.79722309   97.25630188    0.38000000    2.59999990
   15.80138874  113.14099884    0.36000001    2.61999989
   15.80444431  110.62100220    0.36000001    2.64000010
   15.80777836  110.38700104    0.38000000    2.61999989
   15.81111145  113.43800354    0.38000000    2.61999989
   15.81444454  119.09500122    0.36000001    2.61999989
   15.81750011  116.06199646    0.36000001    2.61999989
   15.82083321  119.20600128    0.36000001    2.61999989
   15.82388878  122.73400116    0.36000001    2.61999989
   15.82611084  130.67199707    0.36000001    2.61999989
   15.82750034  132.71499634    0.36000001    2.61999989
   15.83083344  127.62300110    0.36000001    2.59999990
   15.83388901  125.94200134    0.36000001    2.61999989
   15.84000015  125.94200134    0.36000001    2.61999989
   15.84416676  125.80599976    0.36000001    2.61999989
   15.84749985  113.14600372    0.36000001    2.61999989
   15.85055637  120.88999939    0.36000001    2.61999989
   15.85388947  108.91200256    0.34000000    2.61999989
   15.85694504  110.12400055    0.34000000    2.61999989
   15.85944462  117.46299744    0.34000000    2.61999989
   15.86055565  105.62899780    0.34000000    2.61999989
   15.86388969  120.49299622    0.36000001    2.61999989
   15.86694431  114.42900085    0.34000000    2.61999989
   15.87027836  116.80000305    0.34000000    2.61999989
   15.87361145  119.52300262    0.34000000    2.61999989
   15.87666702  111.71800232    0.34000000    2.61999989
   15.88277817  111.71800232    0.34000000    2.61999989
   15.88694477  113.22200012    0.36000001    2.61999989
   15.89027786  112.31400299    0.36000001    2.61999989
   15.89277744  112.79299927    0.36000001    2.64000010
   15.89388847  112.91699982    0.36000001    2.64000010
   15.89722252  113.77999878    0.34000000    2.61999989
   15.90027714  111.79799652    0.34000000    2.61999989
   15.90361118  118.68099976    0.34000000    2.61999989
   15.90694427  111.16899872    0.34000000    2.61999989
   15.90999985  103.95899963    0.34000000    2.61999989
   15.91333294  114.08599854    0.34000000    2.61999989
   15.91666698  113.63800049    0.34000000    2.61999989
   15.91972256  115.34500122    0.34000000    2.61999989
   15.92583370  115.34500122    0.34000000    2.61999989
   15.92972279  119.04299927    0.34000000    2.61999989
   15.93305588  108.53800201    0.34000000    2.61999989
   15.93638897  116.14199829    0.34000000    2.64000010
   15.93944454  112.29100037    0.34000000    2.61999989
   15.94277763  118.41799927    0.34000000    2.61999989
   15.94611073  115.78500366    0.36000001    2.64000010
   15.94916630  123.49400330    0.36000001    2.61999989
   15.95249939  114.50299835    0.36000001    2.61999989
   15.95555496  114.67099762    0.36000001    2.59999990
   15.95888901  116.73300171    0.36000001    2.59999990
   15.96083355  107.81300354    0.36000001    2.64000010
   15.96249962  118.26100159    0.36000001    2.64000010
   15.96861076  118.26100159    0.36000001    2.61999989
   15.97277737  118.34799957    0.36000001    2.61999989
   15.97583294  110.98899841    0.36000001    2.61999989
   15.97944355  111.23300171    0.36000001    2.61999989
   15.98249912  115.90699768    0.36000001    2.61999989
   15.98583317  123.86000061    0.36000001    2.61999989
   15.98916721  111.28199768    0.36000001    2.61999989
   15.99222279  111.37699890    0.36000001    2.64000010
   15.99416733  119.99299622    0.36000001    2.64000010
   15.99583340  108.75299835    0.36000001    2.64000010
   15.99916649  112.86199951    0.36000001    2.61999989
   16.00222206  123.92600250    0.36000001    2.64000010
   16.00555611  123.30100250    0.36000001    2.64000010
   16.01138878  123.30100250    0.36000001    2.61999989
   16.01555634  122.03600311    0.34000000    2.61999989
   16.01888847  124.22799683    0.34000000    2.61999989
   16.02194405  121.69300079    0.34000000    2.61999989
   16.02527809  108.29199982    0.34000000    2.61999989
   16.02750015  111.18800354    0.34000000    2.61999989
   16.02888870  107.50399780    0.34000000    2.61999989
   16.03222275  118.78900146    0.34000000    2.64000010
   16.03527641  116.33300018    0.34000000    2.61999989
   16.03861046  107.13800049    0.34000000    2.64000010
   16.04166603  110.98400116    0.34000000    2.64000010
   16.04500008  109.93900299    0.34000000    2.64000010
   16.04833221  113.84100342    0.31999999    2.64000010
   16.05416679  113.84100342    0.34000000    2.64000010
   16.05833244  110.22899628    0.31999999    2.61999989
   16.06083298   99.34210205    0.31999999    2.61999989
   16.06194305  100.43399811    0.31999999    2.61999989
   16.06527710   99.32350159    0.31999999    2.66000009
   16.06833458  113.99500275    0.34000000    2.61999989
   16.07166672  108.55300140    0.34000000    2.61999989
   16.07472229  108.03399658    0.34000000    2.61999989
   16.07805634  106.22699738    0.34000000    2.64000010
   16.08139038  106.42400360    0.31999999    2.64000010
   16.08472252  103.83000183    0.31999999    2.64000010
   16.08805656  102.64399719    0.31999999    2.61999989
   16.09111214  106.36399841    0.31999999    2.61999989
   16.09694481  106.36399841    0.31999999    2.64000010
   16.10111237  112.07900238    0.31999999    2.61999989
   16.10444450  103.65899658    0.34000000    2.64000010
   16.10777855  104.70800018    0.34000000    2.64000010
   16.11083412  118.44799805    0.31999999    2.61999989
   16.11416626  122.10399628    0.31999999    2.61999989
   16.11750031  118.94300079    0.31999999    2.61999989
   16.12055588  115.68299866    0.31999999    2.61999989
   16.12388992  115.93800354    0.31999999    2.64000010
   16.12694550  113.75099945    0.31999999    2.64000010
   16.12805557  114.09700012    0.31999999    2.64000010
   16.13055611  117.32399750    0.31999999    2.64000010
   16.13388824  111.45899963    0.31999999    2.61999989
   16.13999939  111.45899963    0.31999999    2.61999989
   16.14416695  101.43499756    0.31999999    2.64000010
   16.14749908  115.45800018    0.31999999    2.64000010
   16.15055466  119.53800201    0.31999999    2.61999989
   16.15388870  119.26300049    0.31999999    2.64000010
   16.15722275  122.65699768    0.31999999    2.61999989
   16.16027832  119.67800140    0.31999999    2.61999989
   16.16138840  120.98200226    0.31999999    2.64000010
   16.16416550  114.91300201    0.31999999    2.64000010
   16.16722107  117.67199707    0.31999999    2.61999989
   16.17055511  118.33200073    0.31999999    2.64000010
   16.17361069  108.93599701    0.31999999    2.61999989
   16.17694473  126.57700348    0.30000001    2.61999989
   16.18277740  126.57700348    0.28000000    2.64000010
   16.18694305  115.38400269    0.30000001    2.64000010
   16.19027710  114.94799805    0.30000001    2.64000010
   16.19333267  108.74900055    0.30000001    2.64000010
   16.19499969  108.38600159    0.30000001    2.64000010
   16.19694328  115.91000366    0.30000001    2.64000010
   16.20027924  110.45300293    0.30000001    2.64000010
   16.20333481  120.17800140    0.28000000    2.64000010
   16.20666695  109.62999725    0.30000001    2.64000010
   16.21000099  115.73500061    0.28000000    2.64000010
   16.21305656  106.81600189    0.28000000    2.64000010
   16.21638870  106.41699982    0.28000000    2.64000010
   16.21972275  111.88500214    0.30000001    2.61999989
   16.22555542  111.88500214    0.30000001    2.61999989
   16.24388885  127.33300018    0.31999999    2.64000010
   16.24722290   98.22219849    0.31999999    2.64000010
   16.25055504  122.96700287    0.31999999    2.64000010
   16.25361061  105.68299866    0.31999999    2.61999989
   16.25694466  115.89299774    0.31999999    2.64000010
   16.26027870  115.99099731    0.34000000    2.61999989
   16.26333427  108.51300049    0.34000000    2.64000010
   16.26861000  108.51300049    0.34000000    2.64000010
   16.27277756  121.39900208    0.36000001    2.64000010
   16.27611160  112.05400085    0.36000001    2.64000010
   16.27694511  113.23000336    0.36000001    2.64000010
   16.27972221  107.07800293    0.36000001    2.64000010
   16.28305435  119.54299927    0.38000000    2.61999989
   16.28610992  124.92099762    0.40000001    2.64000010
   16.28944397  119.45400238    0.40000001    2.64000010
   16.29249954  122.16600037    0.40000001    2.64000010
   16.29583359  109.87799835    0.38000000    2.64000010
   16.29916573  105.93399811    0.38000000    2.61999989
   16.30222130  112.16400146    0.38000000    2.61999989
   16.30555534  109.48999786    0.36000001    2.64000010
   16.31138802  109.48999786    0.36000001    2.61999989
   16.31555557  110.57299805    0.36000001    2.61999989
   16.31888962  113.71600342    0.36000001    2.61999989
   16.32222366  105.11100006    0.36000001    2.61999989
   16.32527924  114.76200104    0.38000000    2.61999989
   16.32861137  111.61199951    0.38000000    2.64000010
   16.33166695  108.02500153    0.38000000    2.61999989
   16.33500099  114.34500122    0.38000000    2.61999989
   16.33833313  107.94200134    0.40000001    2.61999989
   16.34138870  104.32199860    0.40000001    2.64000010
   16.34361267  122.55699921    0.40000001    2.64000010
   16.34500122  106.21099854    0.40000001    2.64000010
   16.34833336  103.34700012    0.40000001    2.61999989
   16.35444450  103.34700012    0.40000001    2.61999989
   16.35861206  117.91100311    0.40000001    2.64000010
   16.36166763  118.73100281    0.40000001    2.61999989
   16.36499977  107.18399811    0.38000000    2.61999989
   16.36805534  112.00700378    0.38000000    2.64000010
   16.37138939  115.87500000    0.38000000    2.61999989
   16.37472153  109.94000244    0.40000001    2.64000010
   16.37694550  108.94400024    0.40000001    2.64000010
   16.37833405  101.35700226    0.40000001    2.64000010
   16.38166618  106.10600281    0.38000000    2.64000010
   16.38472176  117.79499817    0.40000001    2.61999989
   16.38805580  106.14399719    0.41999999    2.61999989
   16.39111137  108.45999908    0.41999999    2.61999989
   16.39722252  108.45999908    0.41999999    2.64000010
   16.40138817  107.87000275    0.46000001    2.61999989
   16.40444374  115.74500275    0.46000001    2.61999989
   16.40777779  118.50299835    0.46000001    2.64000010
   16.41027832  112.37000275    0.46000001    2.61999989
   16.41138840  111.47399902    0.46000001    2.61999989
   16.41472244  104.62200165    0.46000001    2.64000010
   16.41805458  108.64600372    0.44000000    2.61999989
   16.42138863  116.31300354    0.46000001    2.64000010
   16.42444420  106.51899719    0.46000001    2.61999989
   16.42777634  106.18800354    0.46000001    2.61999989
   16.43111038  113.88400269    0.46000001    2.61999989
   16.43416595  109.13800049    0.46000001    2.61999989
   16.43999863  109.13800049    0.47999999    2.61999989
   16.44416618  116.04399872    0.47999999    2.61999989
   16.44749832  117.48999786    0.47999999    2.61999989
   16.45055580  107.85399628    0.47999999    2.61999989
   16.45388985  112.56300354    0.50000000    2.61999989
   16.45722389  110.19599915    0.50000000    2.61999989
   16.46027946  106.23500061    0.50000000    2.64000010
   16.46361160  125.09600067    0.50000000    2.64000010
   16.46666718  109.02100372    0.47999999    2.61999989
   16.47000122  121.46700287    0.47999999    2.61999989
   16.47333336  114.22100067    0.47999999    2.61999989
   16.47638893  108.20099640    0.47999999    2.61999989
   16.47694588  117.65299988    0.47999999    2.61999989
   16.48277855  117.65299988    0.47999999    2.61999989
   16.48694420  116.24299622    0.47999999    2.61999989
   16.49027824  113.62999725    0.46000001    2.61999989
   16.49361229  116.61299896    0.44000000    2.61999989
   16.49666786  116.73100281    0.44000000    2.61999989
   16.50000000  118.30599976    0.44000000    2.61999989
   16.50305557  110.05999756    0.44000000    2.61999989
   16.50638962  106.54499817    0.44000000    2.64000010
   16.50972176  112.00599670    0.44000000    2.61999989
   16.51027870  105.12899780    0.44000000    2.61999989
   16.51333427  109.16000366    0.44000000    2.64000010
   16.51666641  117.52300262    0.41999999    2.64000010
   16.51972198  115.44599915    0.41999999    2.64000010
   16.52583313  115.44599915    0.41999999    2.61999989
   16.53000069  114.16300201    0.44000000    2.64000010
   16.53305435  117.39800262    0.44000000    2.64000010
   16.53638840  110.56700134    0.41999999    2.64000010
   16.53944397  122.31500244    0.41999999    2.64000010
   16.54277802  113.97599792    0.41999999    2.61999989
   16.54361153  118.99600220    0.41999999    2.61999989
   16.54638863  117.70600128    0.41999999    2.61999989
   16.54972076  115.37300110    0.41999999    2.61999989
   16.55277634  113.60700226    0.40000001    2.61999989
   16.55611038  106.43299866    0.40000001    2.64000010
   16.55944443  108.97699738    0.38000000    2.61999989
   16.56250000  115.19400024    0.38000000    2.64000010
   16.56861115  115.19400024    0.40000001    2.61999989
   16.57277870  119.44699860    0.40000001    2.61999989
   16.57583427  106.31099701    0.40000001    2.61999989
   16.57694626   96.86710358    0.40000001    2.61999989
   16.57944489  110.05100250    0.40000001    2.64000010
   16.58277893  100.88600159    0.40000001    2.64000010
   16.58611107  110.31900024    0.40000001    2.64000010
   16.58916664  107.15299988    0.40000001    2.64000010
   16.59250069  109.15799713    0.40000001    2.61999989
   16.59555626  107.55899811    0.38000000    2.61999989
   16.59889030  109.65699768    0.38000000    2.61999989
   16.60222244  105.31999969    0.38000000    2.61999989
   16.60527802  120.58100128    0.40000001    2.61999989
   16.61138916  120.58100128    0.41999999    2.61999989
   16.61555672  107.46700287    0.40000001    2.61999989
   16.61888885  109.62899780    0.40000001    2.61999989
   16.62194443  101.91000366    0.40000001    2.61999989
   16.62527847  110.28800201    0.40000001    2.61999989
   16.62861061  113.48699951    0.40000001    2.61999989
   16.63166618  112.09500122    0.40000001    2.61999989
   16.63500023  107.86100006    0.40000001    2.61999989
   16.63805580  110.41000366    0.38000000    2.61999989
   16.64138794  110.69699860    0.38000000    2.61999989
   16.64361191  105.23300171    0.38000000    2.61999989
   16.64500046  107.00299835    0.38000000    2.61999989
   16.64833260  110.12599945    0.38000000    2.64000010
   16.65416718  110.12599945    0.36000001    2.64000010
   16.65833282  111.29100037    0.36000001    2.64000010
   16.66166687  108.90499878    0.36000001    2.61999989
   16.66499901  110.76000214    0.36000001    2.61999989
   16.66805458  106.72299957    0.36000001    2.64000010
   16.67138863  110.75900269    0.36000001    2.61999989
   16.67444420  113.81400299    0.34000000    2.61999989
   16.67694473  109.85500336    0.34000000    2.61999989
   16.67805481  110.82499695    0.34000000    2.61999989
   16.68138885  111.79199982    0.34000000    2.61999989
   16.68444443  110.28600311    0.34000000    2.64000010
   16.68777657  115.12400055    0.34000000    2.64000010
   16.69111061  107.14299774    0.36000001    2.61999989
   16.69722176  107.14299774    0.36000001    2.61999989
   16.70138931  110.10600281    0.36000001    2.64000010
   16.70444489  106.27500153    0.36000001    2.61999989
   16.70777893  113.80699921    0.36000001    2.64000010
   16.71055603  116.64600372    0.36000001    2.61999989
   16.71138954  110.37899780    0.36000001    2.61999989
   16.71472359  112.68299866    0.38000000    2.64000010
   16.71777916  113.86699677    0.38000000    2.61999989
   16.72111130  101.66400146    0.38000000    2.61999989
   16.72444534  110.68699646    0.38000000    2.61999989
   16.72750092  109.40799713    0.38000000    2.61999989
   16.73083305  111.12599945    0.38000000    2.64000010
   16.73416710  113.04199982    0.38000000    2.61999989
   16.73999977  113.04199982    0.40000001    2.61999989
   16.74416733  112.62500000    0.40000001    2.64000010
   16.74749947  106.35099792    0.40000001    2.61999989
   16.75055504  105.46600342    0.38000000    2.61999989
   16.75388908  110.30799866    0.38000000    2.61999989
   16.75722313  103.13899994    0.38000000    2.61999989
   16.76027870  113.76599884    0.38000000    2.61999989
   16.76361084  107.87500000    0.38000000    2.61999989
   16.76666641  112.31900024    0.36000001    2.64000010
   16.77000046  111.13500214    0.36000001    2.64000010
   16.77333260  105.73699951    0.36000001    2.61999989
   16.77638817  115.36799622    0.34000000    2.61999989
   16.77694511  117.21600342    0.34000000    2.61999989
   16.78277779  117.21600342    0.31999999    2.64000010
   16.78694344  116.74500275    0.31999999    2.64000010
   16.79027748  108.90100098    0.31999999    2.61999989
   16.79333305  112.67500305    0.31999999    2.61999989
   16.79666710  110.34500122    0.31999999    2.64000010
   16.79999924  115.37599945    0.31999999    2.64000010
   16.80305481  110.25800323    0.31999999    2.61999989
   16.80638885  120.04100037    0.31999999    2.61999989
   16.80944443  117.76000214    0.31999999    2.61999989
   16.81055450  108.75399780    0.31999999    2.61999989
   16.81305504  116.16799927    0.31999999    2.61999989
   16.81638718  114.72399902    0.31999999    2.61999989
   16.81944466  119.87100220    0.31999999    2.64000010
   16.82555580  119.87100220    0.31999999    2.64000010
   16.82972336  107.48600006    0.31999999    2.64000010
   16.83305550  115.35500336    0.31999999    2.64000010
   16.83638954  115.43900299    0.31999999    2.61999989
   16.83944511  115.90899658    0.31999999    2.64000010
   16.84277916  111.71900177    0.31999999    2.61999989
   16.84361267  109.68399811    0.31999999    2.61999989
   16.84638977  113.89399719    0.31999999    2.61999989
   16.84972191  110.03299713    0.31999999    2.61999989
   16.85277748  119.28299713    0.31999999    2.64000010
   16.85611153  111.37200165    0.31999999    2.64000010
   16.85944557  108.33899689    0.30000001    2.64000010
   16.86250114  116.50299835    0.30000001    2.64000010
   16.86861038  116.50299835    0.30000001    2.64000010
   16.87277794  104.22599792    0.30000001    2.61999989
   16.87583351  110.52899933    0.30000001    2.61999989
   16.87722206  127.89600372    0.30000001    2.64000010
   16.87944412  114.72899628    0.30000001    2.61999989
   16.88277817  105.04299927    0.30000001    2.64000010
   16.88583374  116.14199829    0.30000001    2.64000010
   16.88916588  113.49700165    0.30000001    2.61999989
   16.89249992  120.00099945    0.30000001    2.61999989
   16.89555550  117.38200378    0.31999999    2.64000010
   16.89888954  118.52100372    0.31999999    2.64000010
   16.90222168  109.16100311    0.31999999    2.61999989
   16.90527725  113.09300232    0.31999999    2.61999989
   16.91138840  113.09300232    0.31999999    2.61999989
   16.91555595  119.15299988    0.31999999    2.61999989
   16.91860962  116.65499878    0.31999999    2.61999989
   16.92194366  115.28800201    0.31999999    2.64000010
   16.92527771  111.05500031    0.31999999    2.61999989
   16.92833328  110.39099884    0.30000001    2.61999989
   16.93166542  108.03299713    0.30000001    2.64000010
   16.93499947  100.30300140    0.30000001    2.61999989
   16.93805504  103.89700317    0.30000001    2.61999989
   16.94138718  120.71700287    0.28000000    2.64000010
   16.94388771  113.53500366    0.28000000    2.61999989
   16.94499969  110.20700073    0.28000000    2.61999989
   16.94833183  112.37599945    0.28000000    2.61999989
   16.95416832  112.37599945    0.28000000    2.64000010
   16.95833397  111.98300171    0.28000000    2.61999989
   16.96166801  117.07700348    0.28000000    2.64000010
   16.96472359  113.61000061    0.30000001    2.61999989
   16.96805573  114.07099915    0.30000001    2.61999989
   16.97138977  114.47399902    0.28000000    2.61999989
   16.97444534  118.16799927    0.28000000    2.64000010
   16.97722244  104.05500031    0.28000000    2.64000010
   16.97805595  113.95700073    0.28000000    2.64000010
   16.98139000  111.32499695    0.30000001    2.61999989
   16.98472214  116.11799622    0.28000000    2.61999989
   16.98777771  109.12200165    0.28000000    2.64000010
   16.99111176  105.84500122    0.28000000    2.64000010
   16.99694443  105.84500122    0.28000000    2.64000010
   17.00111198  114.12100220    0.28000000    2.61999989
   17.00444412  109.86699677    0.28000000    2.61999989
   17.00777817  112.04000092    0.28000000    2.64000010
   17.01055527  108.57399750    0.28000000    2.64000010
   17.01138878  110.42099762    0.28000000    2.64000010
   17.01472282  109.74500275    0.28000000    2.61999989
   17.01805496  112.19699860    0.28000000    2.61999989
   17.02111053  106.96800232    0.28000000    2.61999989
   17.02444458  110.57599640    0.28000000    2.61999989
   17.02750015  106.77700043    0.28000000    2.61999989
   17.03083229  107.27500153    0.28000000    2.61999989
   17.03416634  107.57599640    0.28000000    2.61999989
   17.03999901  107.57599640    0.28000000    2.61999989
   17.04416656  110.69000244    0.28000000    2.64000010
   17.04722214  109.87999725    0.28000000    2.64000010
   17.05055428  103.87999725    0.28000000    2.61999989
   17.05360985  105.15699768    0.28000000    2.61999989
   17.05694389  112.12799835    0.28000000    2.61999989
   17.06027794  111.60399628    0.28000000    2.64000010
   17.06333351  118.91100311    0.31999999    2.61999989
   17.06666756  120.78099823    0.31999999    2.61999989
   17.07000160  110.72799683    0.30000001    2.61999989
   17.07305717  113.98699951    0.31999999    2.61999989
   17.07638931  113.69100189    0.31999999    2.61999989
   17.07722282  109.65100098    0.31999999    2.61999989
   17.08277893  109.65100098    0.30000001    2.61999989
   17.08694458  110.22399902    0.28000000    2.61999989
   17.09000015  107.89099884    0.28000000    2.61999989
   17.09333420  110.01599884    0.28000000    2.61999989
   17.09666824  107.90000153    0.30000001    2.61999989
   17.10000038  114.12999725    0.28000000    2.61999989
   17.10305595  105.70600128    0.28000000    2.64000010
   17.10639000  112.70400238    0.28000000    2.61999989
   17.10972214  113.34300232    0.30000001    2.64000010
   17.11055565  109.08699799    0.30000001    2.64000010
   17.11305618  115.72100067    0.31999999    2.64000010
   17.11638832  127.14600372    0.31999999    2.64000010
   17.11972237  116.12200165    0.31999999    2.61999989
   17.12555504  116.12200165    0.30000001    2.64000010
   17.12972260  110.99099731    0.31999999    2.64000010
   17.13305473  113.32499695    0.31999999    2.64000010
   17.13611031  111.50399780    0.31999999    2.64000010
   17.13944435  117.35600281    0.31999999    2.64000010
   17.14277840  115.16600037    0.31999999    2.61999989
   17.14388847  108.53600311    0.31999999    2.61999989
   17.14611053  120.52999878    0.30000001    2.66000009
   17.14944458  110.74299622    0.30000001    2.61999989
   17.15277672  116.44300079    0.30000001    2.64000010
   17.15583229  109.71299744    0.30000001    2.64000010
   17.15916634  106.98400116    0.30000001    2.64000010
   17.16222191  119.63600159    0.30000001    2.64000010
   17.16833305  119.63600159    0.31999999    2.61999989
   17.17249870  121.49900055    0.30000001    2.64000010
   17.17583275  109.73000336    0.31999999    2.61999989
   17.17722130  129.97999573    0.31999999    2.61999989
   17.17944336  130.83299255    0.31999999    2.64000010
   17.18277740  113.07499695    0.31999999    2.64000010
   17.18610954  117.62500000    0.31999999    2.64000010
   17.18916512  111.02799988    0.31999999    2.64000010
   17.19249916  119.37200165    0.31999999    2.64000010
   17.19555473  106.13700104    0.31999999    2.64000010
   17.19888878  107.27799988    0.31999999    2.64000010
   17.20222282  111.99800110    0.31999999    2.64000010
   17.20527840  108.03199768    0.30000001    2.64000010
   17.21138954  108.03199768    0.30000001    2.64000010
   17.21555710  104.12100220    0.31999999    2.64000010
   17.21861076  106.88500214    0.31999999    2.64000010
   17.22194481  109.37599945    0.31999999    2.61999989
   17.22527885  109.55899811    0.31999999    2.59999990
   17.22833443  110.29199982    0.31999999    2.59999990
   17.23166656  108.34899902    0.34000000    2.64000010
   17.23472214  102.40000153    0.34000000    2.64000010
   17.23805618  113.72699738    0.34000000    2.61999989
   17.24138832  110.95200348    0.31999999    2.64000010
   17.24388885  106.23100281    0.31999999    2.61999989
   17.26444435  106.23100281    0.34000000    2.64000010
   17.26861000  114.42299652    0.34000000    2.61999989
   17.27194405  108.29399872    0.34000000    2.64000010
   17.27499962  111.41899872    0.31999999    2.61999989
   17.27722168  105.68499756    0.34000000    2.61999989
   17.27888870  108.67600250    0.34000000    2.61999989
   17.28194427  112.92299652    0.31999999    2.64000010
   17.28527641  115.22599792    0.31999999    2.61999989
   17.28861046  110.43199921    0.31999999    2.61999989
   17.29166603  113.35399628    0.31999999    2.61999989
   17.29500008  107.23500061    0.31999999    2.61999989
   17.29805565  100.75199890    0.30000001    2.61999989
   17.30138779  109.36799622    0.30000001    2.64000010
   17.30722237  109.36799622    0.28000000    2.64000010
   17.31138802  115.50900269    0.28000000    2.61999989
   17.31444359  112.59600067    0.28000000    2.61999989
   17.31777954  116.64499664    0.28000000    2.61999989
   17.32111168  114.38200378    0.30000001    2.61999989
   17.32416725  112.35299683    0.30000001    2.61999989
   17.32750130  107.29399872    0.30000001    2.61999989
   17.33083344  110.46399689    0.30000001    2.61999989
   17.33388901  114.53600311    0.30000001    2.61999989
   17.33722305  112.29699707    0.30000001    2.61999989
   17.34027863  108.48999786    0.30000001    2.61999989
   17.34361267  116.82900238    0.30000001    2.61999989
   17.34416771  115.77700043    0.30000001    2.61999989
   17.35000038  115.77700043    0.28000000    2.61999989
   17.35416794  118.18399811    0.28000000    2.64000010
   17.35750008  112.80000305    0.28000000    2.61999989
   17.36055565  126.38899994    0.28000000    2.61999989
   17.36388969  115.75599670    0.28000000    2.61999989
   17.36722183  118.99600220    0.30000001    2.61999989
   17.37027740  121.15399933    0.30000001    2.61999989
   17.37361145  130.31100464    0.30000001    2.61999989
   17.37666702  126.08799744    0.30000001    2.61999989
   17.37750053  122.14199829    0.30000001    2.61999989
   17.38055611  118.08200073    0.30000001    2.64000010
   17.38361168  124.93299866    0.30000001    2.61999989
   17.38694382  136.71699524    0.30000001    2.61999989
   17.39277840  136.71699524    0.30000001    2.61999989
   17.39694405  127.53800201    0.30000001    2.61999989
   17.40027809  121.33899689    0.30000001    2.61999989
   17.40361023  126.00299835    0.30000001    2.61999989
   17.40666580  114.66899872    0.30000001    2.61999989
   17.40999985  125.78800201    0.30000001    2.61999989
   17.41083336  132.68499756    0.30000001    2.61999989
   17.41361046  128.99499512    0.28000000    2.61999989
   17.41666603  135.19200134    0.28000000    2.61999989
   17.42000008  139.91400146    0.30000001    2.61999989
   17.42305565  130.29200745    0.28000000    2.59999990
   17.42638779  125.76200104    0.28000000    2.59999990
   17.42972183  126.82099915    0.30000001    2.61999989
   17.43583298  126.82099915    0.30000001    2.61999989
   17.43999863  125.73400116    0.28000000    2.59999990
   17.44305420  121.19999695    0.28000000    2.64000010
   17.44416618  129.91200256    0.28000000    2.61999989
   17.44666672  138.10200500    0.28000000    2.61999989
   17.44972038  137.96899414    0.28000000    2.64000010
   17.45305634  128.19099426    0.30000001    2.61999989
   17.45639038  126.52999878    0.28000000    2.61999989
   17.45944595  125.68099976    0.28000000    2.61999989
   17.46277809  117.08899689    0.28000000    2.61999989
   17.46583366  130.39700317    0.28000000    2.61999989
   17.46916771  144.34300232    0.28000000    2.61999989
   17.47249985  144.66299438    0.28000000    2.61999989
   17.47861099  144.66299438    0.28000000    2.61999989
   17.48277855  166.85600281    0.28000000    2.61999989
   17.48583412  160.29899597    0.28000000    2.61999989
   17.48916626  159.09500122    0.28000000    2.61999989
   17.49250031  150.05999756    0.28000000    2.61999989
   17.49555588  181.79699707    0.28000000    2.61999989
   17.49888992  156.41200256    0.28000000    2.61999989
   17.50194359  165.49299622    0.28000000    2.61999989
   17.50527763  195.86900330    0.28000000    2.61999989
   17.50861168  157.53500366    0.25999999    2.61999989
   17.51083374  158.54600525    0.28000000    2.61999989
   17.51222229  157.75500488    0.28000000    2.61999989
   17.51527786  140.44400024    0.25999999    2.61999989
   17.52138901  140.44400024    0.28000000    2.61999989
   17.52555466  164.32499695    0.25999999    2.61999989
   17.52888870  159.65400696    0.28000000    2.61999989
   17.53194427  148.88999939    0.28000000    2.61999989
   17.53527641  171.37899780    0.28000000    2.64000010
   17.53861046  138.04600525    0.30000001    2.61999989
   17.54166603  147.49699402    0.30000001    2.61999989
   17.54416656  147.03100586    0.28000000    2.61999989
   17.54555511  149.59899902    0.28000000    2.61999989
   17.54861069  137.18699646    0.28000000    2.61999989
   17.55194283  168.35299683    0.28000000    2.61999989
   17.55499840  162.78399658    0.28000000    2.61999989
   17.55833244  146.12600708    0.28000000    2.61999989
   17.56416512  146.12600708    0.28000000    2.61999989
   17.56833458  153.82099915    0.28000000    2.59999990
   17.57166672  148.46400452    0.28000000    2.61999989
   17.57500076  146.20500183    0.28000000    2.61999989
   17.57750130  140.11599731    0.28000000    2.61999989
   17.57861137  156.22900391    0.28000000    2.61999989
   17.58166695  139.74200439    0.28000000    2.61999989
   17.58500099  148.27900696    0.28000000    2.61999989
   17.58805656  113.38800049    0.28000000    2.61999989
   17.59138870  155.35800171    0.30000001    2.61999989
   17.59472275  126.87500000    0.28000000    2.61999989
   17.59777832  141.34899902    0.28000000    2.61999989
   17.60111237  138.53999329    0.28000000    2.61999989
   17.60722351  138.53999329    0.28000000    2.61999989
   17.61138916  138.64399719    0.28000000    2.61999989
   17.61444473  137.82800293    0.28000000    2.61999989
   17.61777878  140.33700562    0.28000000    2.59999990
   17.62083435  160.22000122    0.28000000    2.59999990
   17.62416649  141.26699829    0.28000000    2.59999990
   17.62750053  127.04399872    0.28000000    2.61999989
   17.63055611  138.83000183    0.28000000    2.59999990
   17.63388824  127.47899628    0.28000000    2.59999990
   17.63722229  148.11799622    0.28000000    2.61999989
   17.64027786  144.10800171    0.28000000    2.61999989
   17.64361191  142.23399353    0.28000000    2.61999989
   17.64416695  144.33999634    0.28000000    2.61999989
   17.64999962  144.33999634    0.28000000    2.59999990
   17.65416718  149.37699890    0.28000000    2.61999989
   17.65749931  138.76800537    0.28000000    2.61999989
   17.66083336  148.25700378    0.28000000    2.61999989
   17.66388893  136.40499878    0.28000000    2.61999989
   17.66722107  135.61599731    0.28000000    2.59999990
   17.67027664  139.49899292    0.28000000    2.61999989
   17.67361069  141.41000366    0.28000000    2.61999989
   17.67694473  177.16700745    0.28000000    2.59999990
   17.67749977  148.72700500    0.28000000    2.59999990
   17.68055534  145.50199890    0.28000000    2.61999989
   17.68361092  132.08599854    0.28000000    2.59999990
   17.68694305  142.93200684    0.28000000    2.61999989
   17.69277763  142.93200684    0.28000000    2.61999989
   17.69694328  144.63099670    0.28000000    2.61999989
   17.70027924  160.95100403    0.28000000    2.61999989
   17.70333481  135.88200378    0.28000000    2.59999990
   17.70666695  141.06500244    0.28000000    2.61999989
   17.70972252  140.25799561    0.28000000    2.61999989
   17.71083450  152.57699585    0.28000000    2.61999989
   17.71361160  157.92700195    0.28000000    2.61999989
   17.71666718  152.02600098    0.28000000    2.61999989
   17.72000122  142.64700317    0.28000000    2.59999990
   17.72333336  159.78100586    0.28000000    2.61999989
   17.72638893  170.23800659    0.28000000    2.59999990
   17.72972298  141.04800415    0.28000000    2.61999989
   17.73555565  141.04800415    0.28000000    2.59999990
   17.73972321  141.16099548    0.28000000    2.59999990
   17.74305534  148.43899536    0.28000000    2.59999990
   17.74416733  155.21600342    0.28000000    2.59999990
   17.74666786  133.71200562    0.28000000    2.61999989
   17.74972153  160.65800476    0.25999999    2.59999990
   17.75305557  151.54100037    0.25999999    2.61999989
   17.75611115  166.14900208    0.25999999    2.64000010
   17.75944519  149.51100159    0.28000000    2.59999990
   17.76277733  133.02099609    0.25999999    2.61999989
   17.76583290  150.20500183    0.28000000    2.59999990
   17.76916695  143.55000305    0.25999999    2.61999989
   17.77249908  138.99400330    0.25999999    2.59999990
   17.77861023  138.99400330    0.28000000    2.61999989
   17.78277779  149.31599426    0.25999999    2.61999989
   17.78583336  136.48599243    0.25999999    2.61999989
   17.78916550  155.10800171    0.25999999    2.61999989
   17.79222107  133.44700623    0.25999999    2.59999990
   17.79555511  138.22300720    0.25999999    2.59999990
   17.79888916  144.06399536    0.25999999    2.59999990
   17.80194283  127.88999939    0.25999999    2.59999990
   17.80527687  136.95300293    0.25999999    2.59999990
   17.80861092  144.48100281    0.25999999    2.59999990
   17.81083298  137.10600281    0.25999999    2.59999990
   17.81222153  145.58399963    0.25999999    2.61999989
   17.81527710  145.82800293    0.25999999    2.59999990
   17.82139015  145.82800293    0.25999999    2.61999989
   17.82555580  136.40600586    0.25999999    2.61999989
   17.82861137  142.37300110    0.25999999    2.59999990
   17.83194542  133.74600220    0.25999999    2.61999989
   17.83527756  135.30700684    0.25999999    2.59999990
   17.83833313  148.83999634    0.25999999    2.59999990
   17.84166718  121.49400330    0.25999999    2.59999990
   17.84416771  124.60900116    0.25999999    2.59999990
   17.84527779  126.17199707    0.25999999    2.59999990
   17.84833336  132.88800049    0.25999999    2.59999990
   17.85166740  130.52000427    0.25999999    2.61999989
   17.85472298  139.88699341    0.25999999    2.59999990
   17.85805511  148.29600525    0.25999999    2.59999990
   17.86416626  148.29600525    0.25999999    2.59999990
   17.86833382  126.82700348    0.25999999    2.59999990
   17.87166595  131.39199829    0.25999999    2.61999989
   17.87472153  141.25199890    0.25999999    2.59999990
   17.87750053  146.66000366    0.25999999    2.61999989
   17.87861061  152.42100525    0.25999999    2.61999989
   17.88166618  131.56500244    0.25999999    2.61999989
   17.88500023  135.12100220    0.25999999    2.59999990
   17.88805580  146.33200073    0.25000000    2.61999989
   17.89138794  127.76200104    0.25000000    2.61999989
   17.89472198  128.90899658    0.25999999    2.59999990
   17.89777756  137.59300232    0.25999999    2.59999990
   17.90111160  135.71200562    0.25000000    2.59999990
   17.90694427  135.71200562    0.25999999    2.59999990
   17.91110992  135.95899963    0.25000000    2.59999990
   17.91444397  133.94599915    0.25000000    2.59999990
   17.91749954  138.87300110    0.25000000    2.59999990
   17.92083359  131.03599548    0.25000000    2.59999990
   17.92416573  140.55099487    0.25999999    2.59999990
   17.92722130  137.00500488    0.25999999    2.59999990
   17.93055534  139.35200500    0.25999999    2.59999990
   17.93388748  138.85200500    0.25999999    2.61999989
   17.93694305  130.16099548    0.25999999    2.61999989
   17.94027710  137.63600159    0.25999999    2.59999990
   17.94333267  130.69400024    0.25999999    2.59999990
   17.94416618  130.40400696    0.25999999    2.59999990
   17.95000076  130.40400696    0.25999999    2.59999990
   17.95388985  131.75599670    0.25999999    2.59999990
   17.95722389  136.71899414    0.25999999    2.59999990
   17.96055603  131.07499695    0.25999999    2.59999990
   17.96361160  124.65200043    0.25999999    2.59999990
   17.96694565  137.45100403    0.25999999    2.59999990
   17.97027779  129.74699402    0.25999999    2.59999990
   17.97333336  121.66100311    0.25999999    2.59999990
   17.97666740  129.83200073    0.25999999    2.59999990
   17.97750092  125.58100128    0.25999999    2.59999990
   17.98027802  141.86300659    0.25999999    2.59999990
   17.98333359  161.05000305    0.25000000    2.59999990
   17.98666763  134.38999939    0.25999999    2.59999990
   17.99277878  134.38999939    0.25000000    2.59999990
   17.99694443  131.45100403    0.25999999    2.59999990
   18.00000000  120.11199951    0.25000000    2.59999990
   18.00333405  125.85700226    0.25000000    2.59999990
   18.00666618  126.75000000    0.25000000    2.59999990
   18.00972176  119.43699646    0.25999999    2.59999990
   18.01083374  126.83699799    0.25999999    2.59999990
   18.01333427  136.19099426    0.25999999    2.59999990
   18.01638794  137.13499451    0.25999999    2.59999990
   18.01972198  135.68499756    0.25999999    2.57999992
   18.02305603  142.00700378    0.25999999    2.59999990
   18.02611160  122.60900116    0.25999999    2.59999990
   18.02944374  134.44999695    0.25999999    2.59999990
   18.03555489  134.44999695    0.25000000    2.59999990
   18.03972244  145.36900330    0.25999999    2.59999990
   18.04305458  142.93800354    0.25000000    2.59999990
   18.04416656  124.25000000    0.25000000    2.59999990
   18.04666710  130.85499573    0.25000000    2.59999990
   18.04999924  130.78199768    0.25000000    2.59999990
   18.05305481  141.79200745    0.25000000    2.59999990
   18.05638885  128.97700500    0.25000000    2.57999992
   18.05944443  123.80500031    0.25000000    2.57999992
   18.06277657  125.65899658    0.25000000    2.61999989
   18.06611061  116.85700226    0.25999999    2.59999990
   18.06916809  122.73400116    0.25000000    2.59999990
   18.07250023  125.20899963    0.25000000    2.59999990
   18.07833481  125.20899963    0.25999999    2.59999990
   18.08250046  118.54599762    0.25000000    2.59999990
   18.08583450  120.81700134    0.25999999    2.59999990
   18.08889008  129.86199951    0.25000000    2.59999990
   18.09222221  119.23300171    0.25000000    2.59999990
   18.09555626  118.04299927    0.25000000    2.59999990
   18.09861183  120.55699921    0.25000000    2.59999990
   18.10194397  128.80999756    0.25999999    2.59999990
   18.10527802  125.89800262    0.25000000    2.59999990
   18.10833359  132.16999817    0.25000000    2.59999990
   18.11083412  121.72399902    0.25000000    2.59999990
   18.11194420  127.45600128    0.25000000    2.59999990
   18.11527824  124.40599823    0.25999999    2.59999990
   18.12138939  124.40599823    0.25999999    2.57999992
   18.12527847  121.94499969    0.25000000    2.59999990
   18.12861061  121.36399841    0.25000000    2.59999990
   18.13194466  115.91899872    0.25000000    2.59999990
   18.13527679  123.30899811    0.25999999    2.59999990
   18.13833237  120.77799988    0.25000000    2.57999992
   18.14166641  122.10900116    0.25000000    2.57999992
   18.14416695  124.20899963    0.25000000    2.57999992
   18.14527702  127.61100006    0.25999999    2.57999992
   18.14833260  123.35399628    0.25999999    2.59999990
   18.15166664  113.03399658    0.25999999    2.59999990
   18.15499878  125.48300171    0.25999999    2.59999990
   18.15805435  124.64099884    0.25999999    2.59999990
   18.16416550  124.64099884    0.25999999    2.59999990
   18.16833305  122.94100189    0.25999999    2.59999990
   18.17138863  124.21700287    0.25999999    2.59999990
   18.17472076  119.08200073    0.25999999    2.57999992
   18.17749977  115.65799713    0.25999999    2.57999992
   18.17833328  120.83799744    0.25999999    2.57999992
   18.18138885  117.64199829    0.25999999    2.59999990
   18.18472099  129.66499329    0.25999999    2.59999990
   18.18805504  108.55599976    0.25999999    2.59999990
   18.19111061  119.12100220    0.25999999    2.59999990
   18.19444275  119.82099915    0.25999999    2.59999990
   18.19777679  119.65100098    0.25999999    2.57999992
   18.20083427  120.69499969    0.25999999    2.57999992
   18.20694542  120.69499969    0.25999999    2.57999992
   18.21111107  109.41899872    0.25999999    2.57999992
   18.21444511  130.95700073    0.25999999    2.59999990
   18.21750069  138.30700684    0.25999999    2.59999990
   18.22083473  119.62500000    0.25999999    2.59999990
   18.22416687  119.46099854    0.25999999    2.59999990
   18.22722244  114.04000092    0.25999999    2.57999992
   18.23055649  119.87100220    0.25999999    2.57999992
   18.23388863  118.96499634    0.25999999    2.59999990
   18.23694420  120.32499695    0.25999999    2.57999992
   18.24027824  116.37599945    0.25999999    2.57999992
   18.24333382  106.85199738    0.25999999    2.57999992
   18.24416733  123.10600281    0.25999999    2.57999992
   18.25000000  123.10600281    0.25999999    2.57999992
   18.25388908  120.33399963    0.25999999    2.59999990
   18.25722313  126.69400024    0.25999999    2.57999992
   18.26055527  119.84400177    0.25999999    2.57999992
   18.27805519  116.24500275    0.25999999    2.57999992
   18.28027725  125.15499878    0.25999999    2.57999992
   18.28361130  117.18900299    0.25999999    2.57999992
   18.28694344  135.86099243    0.25999999    2.57999992
   18.29277802  135.86099243    0.25999999    2.57999992
   18.29694366  131.47900391    0.25999999    2.57999992
   18.30027771  129.92999268    0.25999999    2.57999992
   18.30333328  120.02500153    0.25999999    2.57999992
   18.30666542  135.40899658    0.25999999    2.57999992
   18.30999947  131.09199524    0.25999999    2.57999992
   18.31110954  128.30900574    0.25999999    2.57999992
   18.31361008  127.22799683    0.25999999    2.57999992
   18.31666756  116.73500061    0.25999999    2.59999990
   18.32000160  134.82099915    0.25999999    2.59999990
   18.32305717  132.62199402    0.25999999    2.57999992
   18.32638931  133.96400452    0.25999999    2.57999992
   18.32972336  126.24299622    0.25999999    2.59999990
   18.33555603  126.24299622    0.25999999    2.57999992
   18.33972359  139.91200256    0.25999999    2.59999990
   18.34305573  125.53199768    0.25999999    2.59999990
   18.34472275  122.48400116    0.25999999    2.57999992
   18.34666824  128.62300110    0.25999999    2.57999992
   18.35000038  139.46899414    0.25999999    2.57999992
   18.35305595  139.68600464    0.25999999    2.57999992
   18.35639000  138.17500305    0.25999999    2.57999992
   18.35972214  121.73400116    0.25999999    2.57999992
   18.36277771  119.23300171    0.25999999    2.57999992
   18.36611176  119.73100281    0.25999999    2.57999992
   18.36944389  130.12199402    0.25999999    2.57999992
   18.37249947  120.10299683    0.25999999    2.57999992
   18.37861061  120.10299683    0.25999999    2.57999992
   18.38277817  130.22999573    0.25999999    2.57999992
   18.38583374  126.40899658    0.25999999    2.57999992
   18.38916588  122.31700134    0.25999999    2.57999992
   18.39249992  123.62500000    0.25999999    2.57999992
   18.39555550  137.92700195    0.25999999    2.57999992
   18.39888954  125.00800323    0.25999999    2.57999992
   18.40194321  125.11199951    0.25999999    2.57999992
   18.40527725  123.72000122    0.25999999    2.57999992
   18.40861130  122.43499756    0.25999999    2.57999992
   18.41138840  125.58200073    0.25999999    2.57999992
   18.41194344  124.63400269    0.25999999    2.57999992
   18.41527748  109.44899750    0.25999999    2.57999992
   18.42138863  109.44899750    0.28000000    2.57999992
   18.42555428  128.52699280    0.28000000    2.57999992
   18.42860985  126.47799683    0.28000000    2.57999992
   18.43194389  126.61499786    0.28000000    2.57999992
   18.43527603  120.46499634    0.28000000    2.57999992
   18.43833160  112.03900146    0.28000000    2.57999992
   18.44166565  128.82699585    0.28000000    2.57999992
   18.44472122  120.47399902    0.28000000    2.57999992
   18.44527626  115.20700073    0.28000000    2.57999992
   18.44861031  122.27100372    0.28000000    2.57999992
   18.45194435  106.71299744    0.28000000    2.57999992
   18.45499992  114.65200043    0.28000000    2.57999992
   18.45833397  101.40299988    0.28000000    2.57999992
   18.46416664  101.40299988    0.28000000    2.55999994
   18.46833420  111.40299988    0.28000000    2.57999992
   18.47166634  104.71900177    0.28000000    2.55999994
   18.47472191  108.23100281    0.28000000    2.55999994
   18.47805595  117.68000031    0.28000000    2.57999992
   18.47833443  115.65799713    0.28000000    2.57999992
   18.48166656  129.36500549    0.28000000    2.57999992
   18.48500061  122.85199738    0.28000000    2.57999992
   18.48805618  121.53700256    0.28000000    2.57999992
   18.49138832  131.67100525    0.28000000    2.57999992
   18.49472237  130.44200134    0.28000000    2.55999994
   18.49777794  118.99500275    0.28000000    2.57999992
   18.50111198  124.32099915    0.28000000    2.57999992
   18.50694466  124.32099915    0.28000000    2.57999992
   18.51111031  122.69400024    0.28000000    2.57999992
   18.51166725  125.25000000    0.28000000    2.57999992
   18.51499939  123.09700012    0.28000000    2.55999994
   18.51805496  110.33499908    0.28000000    2.57999992
   18.52138901  108.81999969    0.28000000    2.57999992
   18.52472115  114.61699677    0.28000000    2.55999994
   18.52777672  115.07700348    0.28000000    2.55999994
   18.53111076  103.74800110    0.28000000    2.55999994
   18.53416634  118.30100250    0.28000000    2.57999992
   18.53750038  115.33699799    0.28000000    2.57999992
   18.54083252  105.60900116    0.28000000    2.57999992
   18.54388809  110.19899750    0.28000000    2.55999994
   18.54500008  110.25199890    0.28000000    2.55999994
   18.54999924  110.25199890    0.28000000    2.57999992
   18.55416679  109.70300293    0.28000000    2.57999992
   18.55722237  111.82099915    0.28000000    2.55999994
   18.56055450  111.84200287    0.28000000    2.55999994
   18.56388855  115.96199799    0.28000000    2.55999994
   18.56694603  113.75099945    0.28000000    2.55999994
   18.57027817  109.49900055    0.28000000    2.55999994
   18.57333374  115.63300323    0.28000000    2.55999994
   18.57666779  114.82499695    0.28000000    2.55999994
   18.57833481  109.86900330    0.28000000    2.55999994
   18.58027840  107.87799835    0.28000000    2.55999994
   18.58361244  108.20800018    0.28000000    2.55999994
   18.58666801  114.68000031    0.28000000    2.57999992
   18.59277916  114.68000031    0.25999999    2.55999994
   18.59694481  114.57800293    0.25999999    2.55999994
   18.60027885  110.29499817    0.25999999    2.55999994
   18.60333443  116.08200073    0.25999999    2.55999994
   18.60666656  104.97200012    0.25999999    2.55999994
   18.60972214  101.77500153    0.25999999    2.55999994
   18.61166763  105.07900238    0.25999999    2.57999992
   18.61333466  104.41000366    0.28000000    2.55999994
   18.61666679  107.96800232    0.28000000    2.55999994
   18.61972237   98.09269714    0.28000000    2.55999994
   18.62305641   98.01419830    0.28000000    2.57999992
   18.62611198  109.16699982    0.28000000    2.55999994
   18.62944412  103.07199860    0.28000000    2.55999994
   18.63555527  103.07199860    0.28000000    2.55999994
   18.63972282  114.98500061    0.28000000    2.55999994
   18.64305496  106.06900024    0.28000000    2.55999994
   18.64500046  109.21600342    0.28000000    2.57999992
   18.64666748  115.20999908    0.28000000    2.57999992
   18.64972115  113.94100189    0.28000000    2.55999994
   18.65305519  110.04900360    0.28000000    2.55999994
   18.65638924  105.02600098    0.28000000    2.55999994
   18.65944481  105.89299774    0.28000000    2.53999996
   18.66277695  104.27999878    0.28000000    2.55999994
   18.66583252  106.54499817    0.28000000    2.55999994
   18.66916656  108.54199982    0.28000000    2.55999994
   18.67249870  114.08399963    0.28000000    2.53999996
   18.67833328  114.08399963    0.28000000    2.55999994
   18.68249893  115.73400116    0.28000000    2.55999994
   18.68583298  107.90799713    0.28000000    2.55999994
   18.68888855  111.46499634    0.28000000    2.55999994
   18.69222069  106.92400360    0.30000001    2.55999994
   18.69555473  111.00099945    0.28000000    2.55999994
   18.69861031  112.28500366    0.28000000    2.55999994
   18.70194435  103.04000092    0.30000001    2.55999994
   18.70499992  110.38999939    0.28000000    2.55999994
   18.70833397  112.40299988    0.28000000    2.53999996
   18.71166801  108.48100281    0.30000001    2.55999994
   18.71222305  111.49900055    0.30000001    2.55999994
   18.71527863  111.13200378    0.30000001    2.55999994
   18.72138977  111.13200378    0.28000000    2.55999994
   18.72555542  119.64199829    0.28000000    2.55999994
   18.72861099  113.10600281    0.28000000    2.55999994
   18.73194504  115.46199799    0.30000001    2.55999994
   18.73500061  110.55899811    0.28000000    2.55999994
   18.73833275  110.74199677    0.28000000    2.53999996
   18.74166679  116.86699677    0.28000000    2.53999996
   18.74472237  114.21199799    0.28000000    2.55999994
   18.74555588  109.91699982    0.28000000    2.55999994
   18.74833298  104.27999878    0.30000001    2.55999994
   18.75166702  100.12799835    0.30000001    2.55999994
   18.75499916   97.30989838    0.30000001    2.55999994
   18.75805473  107.02500153    0.28000000    2.53999996
   18.76416588  107.02500153    0.28000000    2.53999996
   18.76833344  106.83599854    0.28000000    2.53999996
   18.77166557  105.61100006    0.28000000    2.55999994
   18.77472115  102.95099640    0.28000000    2.55999994
   18.77805519  104.93199921    0.28000000    2.53999996
   18.77888870   95.12239838    0.28000000    2.55999994
   18.78138924  119.81300354    0.28000000    2.55999994
   18.78472137  106.31300354    0.28000000    2.55999994
   18.78805542  110.93599701    0.28000000    2.53999996
   18.79111099  102.75800323    0.28000000    2.53999996
   18.79444313  104.17099762    0.28000000    2.55999994
   18.79749870  102.70200348    0.28000000    2.55999994
   18.80083275  105.86599731    0.28000000    2.53999996
   18.80694389  105.86599731    0.28000000    2.53999996
   18.81110954  114.00599670    0.28000000    2.55999994
   18.81222153  106.99400330    0.28000000    2.55999994
   18.81472206  105.51499939    0.28000000    2.53999996
   18.81805611  111.59300232    0.28000000    2.53999996
   18.82111168  106.80400085    0.28000000    2.53999996
   18.82444572  107.83100128    0.28000000    2.53999996
   18.82777786  108.29900360    0.28000000    2.53999996
   18.83083344  108.49800110    0.28000000    2.53999996
   18.83416748  109.37100220    0.28000000    2.53999996
   18.83750153  112.13400269    0.28000000    2.53999996
   18.84055710  114.08200073    0.30000001    2.53999996
   18.84388924  107.70600128    0.28000000    2.53999996
   18.84555626  107.97399902    0.28000000    2.53999996
   18.84972191  107.97399902    0.28000000    2.53999996
   18.85388947  111.26899719    0.28000000    2.53999996
   18.85722351  109.45600128    0.28000000    2.53999996
   18.86027908  112.99400330    0.30000001    2.51999998
   18.86361122  105.90699768    0.30000001    2.55999994
   18.86694527  105.69699860    0.30000001    2.53999996
   18.87000084  110.85800171    0.30000001    2.53999996
   18.87333298  109.23300171    0.30000001    2.53999996
   18.87666702  113.18199921    0.30000001    2.53999996
   18.87888908  109.72899628    0.30000001    2.53999996
   18.88000107  110.23899841    0.30000001    2.53999996
   18.88333321  110.25399780    0.30000001    2.53999996
   18.88666725  116.17099762    0.30000001    2.53999996
   18.89277840  116.17099762    0.31999999    2.53999996
   18.89694405  106.71800232    0.31999999    2.55999994
   18.89999962  109.45899963    0.31999999    2.53999996
   18.90333366  116.51899719    0.31999999    2.53999996
   18.90638924  107.55200195    0.31999999    2.53999996
   18.90972137   98.68000031    0.31999999    2.53999996
   18.91222191  105.35099792    0.31999999    2.53999996
   18.91333389   98.05760193    0.31999999    2.53999996
   18.91666603   93.94149780    0.31999999    2.51999998
   18.92000008  105.91500092    0.31999999    2.53999996
   18.92305565   95.48500061    0.31999999    2.53999996
   18.92638779   96.99680328    0.31999999    2.53999996
   18.92972183  102.73100281    0.31999999    2.53999996
   18.93555450  102.73100281    0.30000001    2.51999998
   18.93972206   99.34040070    0.30000001    2.51999998
   18.94277763   91.16860199    0.30000001    2.53999996
   18.94555473  108.99199677    0.30000001    2.53999996
   18.94638824  100.24800110    0.30000001    2.53999996
   18.94972038  108.51599884    0.30000001    2.53999996
   18.95305634  100.19999695    0.30000001    2.53999996
   18.95611191  106.90200043    0.30000001    2.53999996
   18.95944595  108.17099762    0.30000001    2.53999996
   18.96277809  101.01699829    0.30000001    2.53999996
   18.96583366   97.54689789    0.28000000    2.51999998
   18.96916771  104.64399719    0.30000001    2.51999998
   18.97249985  101.49700165    0.30000001    2.51999998
   18.97833443  101.49700165    0.30000001    2.53999996
   18.98250008  107.16000366    0.31999999    2.51999998
   18.98583412  100.63899994    0.31999999    2.51999998
   18.98888969   95.50749969    0.31999999    2.53999996
   18.99222183  102.60199738    0.31999999    2.53999996
   18.99555588  108.55400085    0.31999999    2.53999996
   18.99861145  107.61900330    0.31999999    2.51999998
   19.00194359   97.25050354    0.31999999    2.53999996
   19.00527763   95.06839752    0.34000000    2.51999998
   19.00833321  103.81300354    0.34000000    2.51999998
   19.01166725   97.85820007    0.34000000    2.51999998
   19.01333427   99.91919708    0.34000000    2.51999998
   19.01527786   93.04540253    0.34000000    2.51999998
   19.02138901   93.04540253    0.34000000    2.51999998
   19.02555466   98.81130219    0.31999999    2.51999998
   19.02861023  106.88400269    0.34000000    2.51999998
   19.03194427   97.57869720    0.34000000    2.51999998
   19.03499985  100.84300232    0.34000000    2.51999998
   19.03833199   96.16889954    0.34000000    2.53999996
   19.04166603   99.72270203    0.34000000    2.51999998
   19.04472160  104.29100037    0.34000000    2.51999998
   19.04666710   91.81060028    0.34000000    2.51999998
   19.04833221  104.95300293    0.34000000    2.51999998
   19.05138779  100.61299896    0.34000000    2.51999998
   19.05472183  100.11399841    0.34000000    2.51999998
   19.05861092  102.20899963    0.34000000    2.51999998
   19.06416512  102.20899963    0.31999999    2.51999998
   19.06805611  111.11599731    0.31999999    2.51999998
   19.07139015  103.10500336    0.34000000    2.51999998
   19.07472229   93.45690155    0.31999999    2.51999998
   19.07777786  110.95999908    0.31999999    2.51999998
   19.08027840   93.76750183    0.31999999    2.51999998
   19.08166695   95.59529877    0.31999999    2.51999998
   19.08472252  102.95700073    0.31999999    2.51999998
   19.08805656  107.09600067    0.31999999    2.51999998
   19.09111214  103.41200256    0.31999999    2.51999998
   19.09444427   95.79799652    0.31999999    2.51999998
   19.09777832   99.62400055    0.31999999    2.51999998
   19.10083389  102.15399933    0.31999999    2.51999998
   19.10694504  102.15399933    0.31999999    2.51999998
   19.11111069  105.70500183    0.31999999    2.51999998
   19.11361122  104.29499817    0.34000000    2.51999998
   19.11472321  106.07800293    0.34000000    2.51999998
   19.11777878  108.42400360    0.34000000    2.51999998
   19.12111092   92.41979980    0.34000000    2.51999998
   19.12444496  103.35700226    0.31999999    2.51999998
   19.12750053   95.89649963    0.31999999    2.51999998
   19.13083267  100.12999725    0.34000000    2.51999998
   19.13388824  104.32900238    0.31999999    2.50000000
   19.13722229  102.43399811    0.31999999    2.50000000
   19.14055634  106.78199768    0.34000000    2.51999998
   19.14361191   95.40249634    0.34000000    2.50000000
   19.14972115   95.40249634    0.31999999    2.51999998
   19.15388870  101.02600098    0.31999999    2.50000000
   19.15722275  107.70400238    0.31999999    2.51999998
   19.16055489  107.85900116    0.31999999    2.50000000
   19.16361046  103.29799652    0.31999999    2.51999998
   19.16694450   97.43710327    0.31999999    2.50000000
   19.17027664  106.47599792    0.31999999    2.50000000
   19.17361069   97.47460175    0.31999999    2.50000000
   19.17666626  105.47000122    0.34000000    2.50000000
   19.18000031  107.60299683    0.31999999    2.50000000
   19.18055534  103.12599945    0.31999999    2.50000000
   19.18361092  115.43000031    0.31999999    2.51999998
   19.18694305   97.48139954    0.34000000    2.50000000
   19.19249916   97.48139954    0.34000000    2.50000000
   19.19666672  108.54799652    0.34000000    2.50000000
   19.20000076  107.46199799    0.31999999    2.51999998
   19.20305634  111.38500214    0.31999999    2.50000000
   19.20639038  106.33000183    0.31999999    2.50000000
   19.20972252  111.36699677    0.34000000    2.50000000
   19.21277809  100.72299957    0.34000000    2.50000000
   19.21389008  101.74400330    0.34000000    2.50000000
   19.21638870  101.08999634    0.31999999    2.50000000
   19.21972275  102.05000305    0.31999999    2.50000000
   19.22277832  108.18000031    0.34000000    2.50000000
   19.22611237  104.17600250    0.36000001    2.50000000
   19.22916794  109.73899841    0.36000001    2.50000000
   19.23527718  109.73899841    0.36000001    2.50000000
   19.23944473  104.65299988    0.38000000    2.50000000
   19.24277878   97.68299866    0.38000000    2.50000000
   19.24611092  107.42299652    0.36000001    2.50000000
   19.24749947  108.36000061    0.38000000    2.50000000
   19.24972153  111.18399811    0.38000000    2.50000000
   19.25277710  113.44499969    0.36000001    2.50000000
   19.25611115  105.10700226    0.36000001    2.50000000
   19.25944519   96.51110077    0.36000001    2.50000000
