    HOUR (UT)   FLARE FACTOR    SKY TESTER    SUN TESTER
   11.08444405   -1.00000000   -1.00000000   -1.00000000
   11.11361122  402.29901123    0.00000000    0.00000000
   11.11694431  351.77398682    0.00000000    0.00000000
   11.11888885  336.17001343    0.00000000    0.00000000
   11.12027836  318.95800781    0.00000000    0.00000000
   11.12166691  313.50601196    0.00000000    0.00000000
   11.12305546  302.50698853    0.00000000    0.00000000
   11.12444496  334.37899780    0.00000000    0.00000000
   11.12583351  320.81698608    0.00000000    0.00000000
   11.12722206  327.10800171    0.00000000    0.00000000
   11.12861156  333.82400513    0.00000000    0.00000000
   11.13000011  325.62200928    0.00000000    0.00000000
   11.13138866  330.74899292    0.00000000    0.00000000
   11.13277817  326.64001465    0.00000000    0.00000000
   11.13416672  357.00000000    0.00000000    0.00000000
   11.13555527  312.22198486    0.00000000    0.00000000
   11.13694477  337.07598877    0.00000000    0.00000000
   11.13833332  296.27301025    0.00000000    0.00000000
   11.13972187  345.29098511    0.00000000    0.00000000
   11.14111137  321.49099731    0.00000000    0.00000000
   11.14249992  308.68301392    0.00000000    0.00000000
   11.14388847  298.75799561    0.00000000    0.00000000
   11.14527798  294.99798584    0.00000000    0.00000000
   11.14666653  322.79998779    0.00000000    0.00000000
   11.14805508  287.61300659    0.00000000    0.00000000
   11.14944458  313.53601074    0.00000000    0.00000000
   11.15083313  306.53900146    0.00000000    0.00000000
   11.15222168  285.86898804    0.00000000    0.00000000
   11.15361118  322.48800659    0.00000000    0.00000000
   11.15499973  278.04098511    0.00000000    0.00000000
   11.15638828  309.82699585    0.00000000    0.00000000
   11.15777779  302.30398560    0.00000000    0.00000000
   11.15916634  275.85699463    0.00000000    0.00000000
   11.16055489  296.79098511    0.00000000    0.00000000
   11.16194439  302.03900146    0.00000000    0.00000000
   11.16333294  280.95599365    0.00000000    0.00000000
   11.16472149  283.09799194    0.00000000    0.00000000
   11.16611099  308.57699585    0.00000000    0.00000000
   11.16750050  269.54000854    0.00000000    0.00000000
   11.16888905  291.02200317    0.00000000    0.00000000
   11.17027855  301.42300415    0.00000000    0.00000000
   11.17166710  280.31298828    0.00000000    0.00000000
   11.17305565  267.09899902    0.00000000    0.00000000
   11.17444515  302.12100220    0.00000000    0.00000000
   11.17583370  300.76098633    0.00000000    0.00000000
   11.17722225  288.07598877    0.00000000    0.00000000
   11.17861176  293.70401001    0.00000000    0.00000000
   11.18000031  300.79199219    0.00000000    0.00000000
   11.18138885  274.71499634    0.00000000    0.00000000
   11.18277836  285.79000854    0.00000000    0.00000000
   11.18416691  285.35400391    0.00000000    0.00000000
   11.18555546  281.49798584    0.00000000    0.00000000
   11.18694496  278.63598633    0.00000000    0.00000000
   11.18833351  267.23199463    0.00000000    0.00000000
   11.18972206  286.42898560    0.00000000    0.00000000
   11.19111156  296.91500854    0.00000000    0.00000000
   11.19250011  306.12600708    0.00000000    0.00000000
   11.19388866  297.31100464    0.00000000    0.00000000
   11.19527817  290.37799072    0.00000000    0.00000000
   11.19666672  278.89300537    0.00000000    0.00000000
   11.19805527  302.90701294    0.00000000    0.00000000
   11.19944477  293.70199585    0.00000000    0.00000000
   11.20083332  262.29000854    0.00000000    0.00000000
   11.20222187  277.63500977    0.00000000    0.00000000
   11.20361137  269.14199829    0.00000000    0.00000000
   11.20499992  301.49600220    0.00000000    0.00000000
   11.20638847  293.70001221    0.00000000    0.00000000
   11.20777798  289.43798828    0.00000000    0.00000000
   11.20916653  285.44198608    0.00000000    0.00000000
   11.21055508  277.29998779    0.00000000    0.00000000
   11.21194458  275.98498535    0.00000000    0.00000000
   11.21333313  268.73498535    0.00000000    0.00000000
   11.21472168  278.73199463    0.00000000    0.00000000
   11.21611118  284.32000732    0.00000000    0.00000000
   11.21749973  282.36801147    0.00000000    0.00000000
   11.21888828  280.49600220    0.00000000    0.00000000
   11.22027779  283.70599365    0.00000000    0.00000000
   11.22166634  277.41400146    0.00000000    0.00000000
   11.22305489  279.30801392    0.00000000    0.00000000
   11.22444439  250.94999695    0.00000000    0.00000000
   11.22583294  264.89199829    0.00000000    0.00000000
   11.22722149  249.46400452    0.00000000    0.00000000
   11.22861099  271.83200073    0.00000000    0.00000000
   11.22999954  275.35699463    0.00000000    0.00000000
   11.23138809  278.31500244    0.00000000    0.00000000
   11.23277760  252.31300354    0.00000000    0.00000000
   11.23416710  255.61000061    0.00000000    0.00000000
   11.23555565  244.71600342    0.00000000    0.00000000
   11.23694515  257.82299805    0.00000000    0.00000000
   11.23833370  253.63800049    0.00000000    0.00000000
   11.23972225  270.91500854    0.00000000    0.00000000
   11.24111176  262.46798706    0.00000000    0.00000000
   11.24250031  262.27999878    0.00000000    0.00000000
   11.24388885  257.96200562    0.00000000    0.00000000
   11.24527836  269.20800781    0.00000000    0.00000000
   11.24666691  254.54200745    0.00000000    0.00000000
   11.24805546  250.19900513    0.00000000    0.00000000
   11.24944496  248.57499695    0.00000000    0.00000000
   11.25083351  250.57499695    0.00000000    0.00000000
   11.25222206  274.10800171    0.00000000    0.00000000
   11.25361156  236.44799805    0.00000000    0.00000000
   11.25500011  286.66299438    0.00000000    0.00000000
   11.25638866  244.44599915    0.00000000    0.00000000
   11.25777817  238.72099304    0.00000000    0.00000000
   11.25916672  260.81201172    0.00000000    0.00000000
   11.26055527  254.50500488    0.00000000    0.00000000
   11.26194477  248.20399475    0.00000000    0.00000000
   11.26333332  247.88600159    0.00000000    0.00000000
   11.26472187  257.90399170    0.00000000    0.00000000
   11.26611137  252.22500610    0.00000000    0.00000000
   11.26749992  260.60000610    0.00000000    0.00000000
   11.26888847  252.52799988    0.00000000    0.00000000
   11.27027798  249.97999573    0.00000000    0.00000000
   11.27166653  242.21099854    0.00000000    0.00000000
   11.27305508  243.50199890    0.00000000    0.00000000
   11.27444458  239.32099915    0.00000000    0.00000000
   11.27583313  244.18600464    0.00000000    0.00000000
   11.27722168  242.53799438    0.00000000    0.00000000
   11.27861118  242.61500549    0.00000000    0.00000000
   11.27999973  255.53599548    0.00000000    0.00000000
   11.28138828  223.74600220    0.00000000    0.00000000
   11.28138828  351.77398682    0.00000000    0.00000000
   11.28194427  247.13000488    0.00000000    0.00000000
   11.28527832  226.46499634    0.00000000    0.00000000
   11.28833389  229.50100708    0.00000000    0.00000000
   11.29166698  232.78100586    0.00000000    0.00000000
   11.29500008  241.08900452    0.00000000    0.00000000
   11.29805565  247.44400024    0.00000000    0.00000000
   11.30222225  247.44400024    0.00000000    0.00000000
   11.30638885  226.62399292    0.00000000    0.00000000
   11.30972195  226.57800293    0.00000000    0.00000000
   11.31277752  225.19700623    0.00000000    0.00000000
   11.31527805  243.92700195    0.00000000    0.00000000
   11.31638908  205.92300415    0.00000000    0.00000000
   11.31972218  244.22099304    0.00000000    0.00000000
   11.32305527  229.94900513    0.00000000    0.00000000
   11.32611084  229.97200012    0.00000000    0.00000000
   11.32944393  232.82000732    0.00000000    0.00000000
   11.33277798  225.20700073    0.00000000    0.00000000
   11.33583260  225.03700256    0.00000000    0.00000000
   11.33916664  219.55099487    0.00000000    0.00000000
   11.34499931  219.55099487    0.00000000    0.00000000
   11.34916592  211.00700378    0.00000000    0.00000000
   11.35249996  210.33799744    0.00000000    0.00000000
   11.35583401  228.57899475    0.00000000    0.00000000
   11.35888958  214.96299744    0.00000000    0.00000000
   11.36222267  206.18099976    0.00000000    0.00000000
   11.36527824  207.92399597    0.00000000    0.00000000
   11.36861134  205.84599304    0.00000000    0.00000000
   11.37194443  212.25000000    0.00000000    0.00000000
   11.37500000  204.31700134    0.00000000    0.00000000
   11.37833309  209.74400330    0.00000000    0.00000000
   11.38166714  209.48399353    0.00000000    0.00000000
   11.38194466  213.80599976    0.00000000    0.00000000
   11.38805580  213.80599976    0.00000000    0.00000000
   11.39194393  232.33500671    0.00000000    0.00000000
   11.39527798  339.00900269    0.00000000    0.00000000
   11.39722252  311.92001343    0.00000000    0.00000000
   11.39861107  354.44699097    0.00000000    0.00000000
   11.39999962  345.23199463    0.00000000    0.00000000
   11.40138817  344.13198853    0.00000000    0.00000000
   11.40277767  365.80398560    0.00000000    0.00000000
   11.40416622  399.01501465    0.00000000    0.00000000
   11.40555477  393.46200562    0.00000000    0.00000000
   11.40694427  416.57998657    0.00000000    0.00000000
   11.40833282  396.05099487    0.00000000    0.00000000
   11.40972137  441.37200928    0.00000000    0.00000000
   11.41111088  430.24798584    0.00000000    0.00000000
   11.41249943  419.73098755    0.00000000    0.00000000
   11.41388893  421.94601440    0.00000000    0.00000000
   11.41527748  445.01199341    0.00000000    0.00000000
   11.41666698  440.85598755    0.00000000    0.00000000
   11.41805553  454.17800903    0.00000000    0.00000000
   11.41944504  422.26098633    0.00000000    0.00000000
   11.42083359  421.63598633    0.00000000    0.00000000
   11.42222214  404.35101318    0.00000000    0.00000000
   11.42361164  403.14300537    0.00000000    0.00000000
   11.42500019  390.23400879    0.00000000    0.00000000
   11.42638874  385.81298828    0.00000000    0.00000000
   11.42777824  368.81399536    0.00000000    0.00000000
   11.42916679  390.13400269    0.00000000    0.00000000
   11.43055630  363.78799438    0.00000000    0.00000000
   11.43194485  350.07501221    0.00000000    0.00000000
   11.43333340  349.16198730    0.00000000    0.00000000
   11.43472195  339.73199463    0.00000000    0.00000000
   11.43611145  380.11499023    0.00000000    0.00000000
   11.43750000  349.84500122    0.00000000    0.00000000
   11.43888855  338.15301514    0.00000000    0.00000000
   11.44027805  322.59799194    0.00000000    0.00000000
   11.44166660  322.65899658    0.00000000    0.00000000
   11.44305515  367.54501343    0.00000000    0.00000000
   11.44444466  339.05801392    0.00000000    0.00000000
   11.44583321  326.66799927    0.00000000    0.00000000
   11.44722271  343.51599121    0.00000000    0.00000000
   11.44861126  324.45001221    0.00000000    0.00000000
   11.44999981  322.38699341    0.00000000    0.00000000
   11.45138836  316.16699219    0.00000000    0.00000000
   11.45277786  324.06399536    0.00000000    0.00000000
   11.45416641  312.36700439    0.00000000    0.00000000
   11.45555496  314.64199829    0.00000000    0.00000000
   11.45694447  314.77099609    0.00000000    0.00000000
   11.45833302  326.10501099    0.00000000    0.00000000
   11.45972157  283.95401001    0.00000000    0.00000000
   11.46111107  309.39300537    0.00000000    0.00000000
   11.46249962  299.17098999    0.00000000    0.00000000
   11.46388912  301.96701050    0.00000000    0.00000000
   11.46527767  298.08599854    0.00000000    0.00000000
   11.46666622  308.25399780    0.00000000    0.00000000
   11.46805477  300.40600586    0.00000000    0.00000000
   11.46944427  301.44900513    0.00000000    0.00000000
   11.47083282  287.38000488    0.00000000    0.00000000
   11.47222137  309.71600342    0.00000000    0.00000000
   11.47361088  297.20800781    0.00000000    0.00000000
   11.47499943  302.95001221    0.00000000    0.00000000
   11.47638798  268.79000854    0.00000000    0.00000000
   11.47777748  276.01998901    0.00000000    0.00000000
   11.47916603  283.57501221    0.00000000    0.00000000
   11.48055553  282.89801025    0.00000000    0.00000000
   11.48194408  295.23300171    0.00000000    0.00000000
   11.48333359  271.51501465    0.00000000    0.00000000
   11.48472214  277.99798584    0.00000000    0.00000000
   11.48611164  277.96701050    0.00000000    0.00000000
   11.48750019  269.08999634    0.00000000    0.00000000
   11.48888874  286.90399170    0.00000000    0.00000000
   11.49027824  285.13400269    0.00000000    0.00000000
   11.49166679  268.81900024    0.00000000    0.00000000
   11.49305534  263.77301025    0.00000000    0.00000000
   11.49444485  259.12100220    0.00000000    0.00000000
   11.49583340  261.02499390    0.00000000    0.00000000
   11.49722290  255.43899536    0.00000000    0.00000000
   11.49861145  254.99600220    0.00000000    0.00000000
   11.50000000  255.36099243    0.00000000    0.00000000
   11.50138855  254.23800659    0.00000000    0.00000000
   11.50277805  265.06900024    0.00000000    0.00000000
   11.50416660  262.46899414    0.00000000    0.00000000
   11.50555515  271.41400146    0.00000000    0.00000000
   11.50694466  254.18299866    0.00000000    0.00000000
   11.50833321  258.42800903    0.00000000    0.00000000
   11.50972176  255.78300476    0.00000000    0.00000000
   11.51111126  256.57400513    0.00000000    0.00000000
   11.51249981  258.26800537    0.00000000    0.00000000
   11.51388931  266.12799072    0.00000000    0.00000000
   11.51527786  248.87199402    0.00000000    0.00000000
   11.51666641  259.15899658    0.00000000    0.00000000
   11.51805496  267.42098999    0.00000000    0.00000000
   11.51944447  259.99798584    0.00000000    0.00000000
   11.52083302  266.41101074    0.00000000    0.00000000
   11.52222157  238.41099548    0.00000000    0.00000000
   11.52361107  252.99200439    0.00000000    0.00000000
   11.52499962  254.78599548    0.00000000    0.00000000
   11.52638817  262.01599121    0.00000000    0.00000000
   11.52777767  263.03201294    0.00000000    0.00000000
   11.52916622  228.12600708    0.00000000    0.00000000
   11.53055573  252.00100708    0.00000000    0.00000000
   11.53194427  237.54200745    0.00000000    0.00000000
   11.53333378  239.60299683    0.00000000    0.00000000
   11.53472233  248.98699951    0.00000000    0.00000000
   11.53611183  238.48599243    0.00000000    0.00000000
   11.53750038  242.00900269    0.00000000    0.00000000
   11.53888893  236.80299377    0.00000000    0.00000000
   11.54027843  229.09899902    0.00000000    0.00000000
   11.54166698  226.29600525    0.00000000    0.00000000
   11.54305553  240.66999817    0.00000000    0.00000000
   11.54444504  230.71800232    0.00000000    0.00000000
   11.54583359  243.18200684    0.00000000    0.00000000
   11.54722309  236.09100342    0.00000000    0.00000000
   11.54861164  242.95399475    0.00000000    0.00000000
   11.55000019  223.32899475    0.00000000    0.00000000
   11.55000019  209.48399353    0.00000000    0.00000000
   11.55000019  232.33500671    0.00000000    0.00000000
   11.55000019  339.00900269    0.00000000    0.00000000
   11.55000019  206.18099976    0.00000000    0.00000000
   11.55027771  207.92399597    0.00000000    0.00000000
   11.55027771  205.84599304    0.00000000    0.00000000
   11.55027771  212.25000000    0.00000000    0.00000000
   11.55027771  204.31700134    0.00000000    0.00000000
   11.55055618  209.74400330    0.00000000    0.00000000
   11.55111122  227.71099854    0.00000000    0.00000000
   11.55416679  225.49299622    0.00000000    0.00000000
   11.55749989  226.95100403    0.00000000    0.00000000
   11.56055546  226.48699951    0.00000000    0.00000000
   11.56388950  214.91600037    0.00000000    0.00000000
   11.57055569  214.91600037    0.00000000    0.00000000
   11.57472229  200.88600159    0.00000000    0.00000000
   11.57805538  221.33299255    0.00000000    0.00000000
   11.58138847  201.62199402    0.00000000    0.00000000
   11.58361053  215.13000488    0.00000000    0.00000000
   11.58472157  204.77400208    0.00000000    0.00000000
   11.58805561  200.23500061    0.00000000    0.00000000
   11.59111118  196.23100281    0.00000000    0.00000000
   11.59444427  191.47300720    0.00000000    0.00000000
   11.59777737  189.76499939    0.00000000    0.00000000
   11.60083389  184.84700012    0.00000000    0.00000000
   11.60416698  185.08200073    0.00000000    0.00000000
   11.60722256  184.64599609    0.00000000    0.00000000
   11.61361122  184.64599609    0.00000000    0.00000000
   11.61777782  175.48699951    0.00000000    0.00000000
   11.62083340  175.00900269    0.00000000    0.00000000
   11.62416649  170.78999329    0.00000000    0.00000000
   11.62750053  175.29699707    0.00000000    0.00000000
   11.63055611  182.18899536    0.00000000    0.00000000
   11.63388920  166.72300720    0.00000000    0.00000000
   11.63694477  166.56700134    0.00000000    0.00000000
   11.64027786  164.17500305    0.00000000    0.00000000
   11.64361095  163.35099792    0.00000000    0.00000000
   11.64666653  170.27699280    0.00000000    0.00000000
   11.64999962  166.16999817    0.00000000    0.00000000
   11.65055561  178.37300110    0.00000000    0.00000000
   11.65638828  178.37300110    0.00000000    0.00000000
   11.66055489  178.64999390    0.00000000    0.00000000
   11.66361046  171.24699402    0.00000000    0.00000000
   11.66694450  166.38499451    0.00000000    0.00000000
   11.67027855  171.21600342    0.00000000    0.00000000
   11.67333412  165.36399841    0.00000000    0.00000000
   11.67666721  165.31700134    0.00000000    0.00000000
   11.68000031  164.52099609    0.00000000    0.00000000
   11.68305588  165.47799683    0.00000000    0.00000000
   11.68388939  166.45500183    0.00000000    0.00000000
   11.68666649  165.97200012    0.00000000    0.00000000
   11.69000053  168.16299438    0.00000000    0.00000000
   11.69333363  162.33099365    0.00000000    0.00000000
   11.69916630  162.33099365    0.00000000    0.00000000
   11.70333290  176.72999573    0.00000000    0.00000000
   11.70666695  204.10699463    0.00000000    0.00000000
   11.70972157  188.96200562    0.00000000    0.00000000
   11.71305561  177.65400696    0.00000000    0.00000000
   11.71638870  193.29600525    0.00000000    0.00000000
   11.71722221  204.29299927    0.00000000    0.00000000
   11.71972179  203.14399719    0.00000000    0.00000000
   11.72305489  168.09399414    0.00000000    0.00000000
   11.72638798  188.74000549    0.00000000    0.00000000
   11.72944355  180.05999756    0.00000000    0.00000000
   11.73277760  190.75700378    0.00000000    0.00000000
   11.73583317  178.96299744    0.00000000    0.00000000
   11.74194431  178.96299744    0.00000000    0.00000000
   11.74611092  161.13000488    0.00000000    0.00000000
   11.74944496  166.61900330    0.00000000    0.00000000
   11.75055599  179.12399292    0.00000000    0.00000000
   11.75277805  171.43899536    0.00000000    0.00000000
   11.75611115  161.85800171    0.00000000    0.00000000
   11.75944424  157.26899719    0.00000000    0.00000000
   11.76249981  163.96299744    0.00000000    0.00000000
   11.76583290  167.47099304    0.00000000    0.00000000
   11.76888847  162.66999817    0.00000000    0.00000000
   11.77222157  158.10400391    0.00000000    0.00000000
   11.77555561  154.43499756    0.00000000    0.00000000
   11.77861118  153.30299377    0.00000000    0.00000000
   11.78500080  153.30299377    0.00000000    0.00000000
   11.78916740  153.50700378    0.00000000    0.00000000
   11.79222298  163.04899597    0.00000000    0.00000000
   11.79555607  164.66999817    0.00000000    0.00000000
   11.79861164  149.82699585    0.00000000    0.00000000
   11.80194473  154.07800293    0.00000000    0.00000000
   11.80527782  159.50300598    0.00000000    0.00000000
   11.80833340  154.28599548    0.00000000    0.00000000
   11.81166649  152.01100159    0.00000000    0.00000000
   11.81500053  156.33099365    0.00000000    0.00000000
   11.81722260  150.29899597    0.00000000    0.00000000
   11.81833363  157.56700134    0.00000000    0.00000000
   11.82166672  147.82499695    0.00000000    0.00000000
   11.82777786  147.82499695    0.00000000    0.00000000
   11.83194447  151.02000427    0.00000000    0.00000000
   11.83500004  148.57699585    0.00000000    0.00000000
   11.83833313  150.06700134    0.00000000    0.00000000
   11.84166622  151.81300354    0.00000000    0.00000000
   11.84472179  148.71600342    0.00000000    0.00000000
   11.84805489  137.96600342    0.00000000    0.00000000
   11.85055637  140.69700623    0.00000000    0.00000000
   11.85138893  147.34199524    0.00000000    0.00000000
   11.85472298  146.00900269    0.00000000    0.00000000
   11.85805607  147.70100403    0.00000000    0.00000000
   11.86111164  152.98899841    0.00000000    0.00000000
   11.86444473  147.56199646    0.00000000    0.00000000
   11.87055588  147.56199646    0.00000000    0.00000000
   11.87472248  153.94999695    0.00000000    0.00000000
   11.87805557  148.15899658    0.00000000    0.00000000
   11.88111115  151.11500549    0.00000000    0.00000000
   11.88388920  149.96200562    0.00000000    0.00000000
   11.88472176  153.46499634    0.00000000    0.00000000
   11.88805580  153.52999878    0.00000000    0.00000000
   11.89138889  142.88999939    0.00000000    0.00000000
   11.89444447  145.15699768    0.00000000    0.00000000
   11.89777756  151.05000305    0.00000000    0.00000000
   11.90111065  159.19500732    0.00000000    0.00000000
   11.90416622  150.13400269    0.00000000    0.00000000
   11.90749931  147.99600220    0.00000000    0.00000000
   11.91333294  147.99600220    0.00000000    0.00000000
   11.91750050  148.20700073    0.00000000    0.00000000
   11.92083359  151.93600464    0.00000000    0.00000000
   11.92416668  141.15800476    0.00000000    0.00000000
   11.92722225  149.50700378    0.00000000    0.00000000
   11.93055630  155.03999329    0.00000000    0.00000000
   11.93361092  146.93400574    0.00000000    0.00000000
   11.93694496  146.83000183    0.00000000    0.00000000
   11.94027805  149.29100037    0.00000000    0.00000000
   11.94333363  143.29699707    0.00000000    0.00000000
   11.94666672  149.61700439    0.00000000    0.00000000
   11.94999981  145.18699646    0.00000000    0.00000000
   11.95055580  148.32200623    0.00000000    0.00000000
   11.95638847  148.32200623    0.00000000    0.00000000
   11.96055508  136.66700745    0.00000000    0.00000000
   11.96361065  131.82400513    0.00000000    0.00000000
   11.96694374  139.07699585    0.00000000    0.00000000
   11.96999931  133.09300232    0.00000000    0.00000000
   11.97333336  137.56399536    0.00000000    0.00000000
   11.97666645  138.77200317    0.00000000    0.00000000
   11.97999954  136.78300476    0.00000000    0.00000000
   11.98305511  139.15899658    0.00000000    0.00000000
   11.98388958  135.53999329    0.00000000    0.00000000
   11.98694515  136.14399719    0.00000000    0.00000000
   11.99000072  139.55099487    0.00000000    0.00000000
   11.99333382  145.53100586    0.00000000    0.00000000
   11.99916649  145.53100586    0.00000000    0.00000000
   12.00333309  135.06500244    0.00000000    0.00000000
   12.00638866  137.69400024    0.00000000    0.00000000
   12.00972176  136.99200439    0.00000000    0.00000000
   12.01305580  139.76100159    0.00000000    0.00000000
   12.01611137  138.54200745    0.00000000    0.00000000
   12.01722240  141.65199280    0.00000000    0.00000000
   12.01999950  141.07800293    0.00000000    0.00000000
   12.02305508  154.00900269    0.00000000    0.00000000
   12.02638817  142.14700317    0.00000000    0.00000000
   12.02972221  143.28599548    0.00000000    0.00000000
   12.03277779  141.62500000    0.00000000    0.00000000
   12.03611183  143.30200195    0.00000000    0.00000000
   12.04194450  143.30200195    0.00000000    0.00000000
   12.04611111  136.22799683    0.00000000    0.00000000
   12.04944515  137.32699585    0.00000000    0.00000000
   12.05055618  137.96699524    0.00000000    0.00000000
   12.05305576  133.72999573    0.00000000    0.00000000
   12.05611134  141.56700134    0.00000000    0.00000000
   12.05944443  140.20100403    0.00000000    0.00000000
   12.06250000  144.34800720    0.00000000    0.00000000
   12.06583309  135.88200378    0.00000000    0.00000000
   12.06916618  132.44500732    0.00000000    0.00000000
   12.07222176  138.79299927    0.00000000    0.00000000
   12.07555580  143.22099304    0.00000000    0.00000000
   12.07888889  133.26400757    0.00000000    0.00000000
   12.08472157  133.26400757    0.00000000    0.00000000
   12.08888817  138.41499329    0.00000000    0.00000000
   12.09222221  129.88099670    0.00000000    0.00000000
   12.09527779  129.11999512    0.00000000    0.00000000
   12.09861088  135.38200378    0.00000000    0.00000000
   12.10194492  143.71200562    0.00000000    0.00000000
   12.10500050  126.97100067    0.00000000    0.00000000
   12.10833359  144.33299255    0.00000000    0.00000000
   12.11166668  138.59199524    0.00000000    0.00000000
   12.13111115  137.93299866    0.00000000    0.00000000
   12.13166714  137.76100159    0.00000000    0.00000000
   12.13555527  137.76100159    0.00000000    0.00000000
   12.13972187  135.72000122    0.00000000    0.00000000
   12.14305496  143.34899902    0.00000000    0.00000000
   12.14611053  131.61300659    0.00000000    0.00000000
   12.14944458  135.74299622    0.00000000    0.00000000
   12.15277767  136.57899475    0.00000000    0.00000000
   12.15583324  140.75100708    0.00000000    0.00000000
   12.15916634  127.29599762    0.00000000    0.00000000
   12.16249943  137.50000000    0.00000000    0.00000000
   12.16499996  131.46200562    0.00000000    0.00000000
   12.16583252  132.46099854    0.00000000    0.00000000
   12.16916656  139.20199585    0.00000000    0.00000000
   12.17222214  130.61799622    0.00000000    0.00000000
   12.17833328  130.61799622    0.00000000    0.00000000
   12.18249989  138.13900757    0.00000000    0.00000000
   12.18583298  131.98899841    0.00000000    0.00000000
   12.18916702  133.38000488    0.00000000    0.00000000
   12.19222260  124.41799927    0.00000000    0.00000000
   12.19555569  136.93099976    0.00000000    0.00000000
   12.19833374  134.46200562    0.00000000    0.00000000
   12.19916630  140.31900024    0.00000000    0.00000000
   12.20249939  130.85400391    0.00000000    0.00000000
   12.20555496  131.54100037    0.00000000    0.00000000
   12.20888901  143.27600098    0.00000000    0.00000000
   12.21222210  124.73600006    0.00000000    0.00000000
   12.21527767  136.83000183    0.00000000    0.00000000
   12.22138882  136.83000183    0.00000000    0.00000000
   12.22555542  127.72299957    0.00000000    0.00000000
   12.22861099  145.30999756    0.00000000    0.00000000
   12.23166656  129.91099548    0.00000000    0.00000000
   12.23222160  130.64999390    0.00000000    0.00000000
   12.23555565  140.10499573    0.00000000    0.00000000
   12.23861122  135.21400452    0.00000000    0.00000000
   12.24194431  135.71000671    0.00000000    0.00000000
   12.24527836  134.28100586    0.00000000    0.00000000
   12.24833393  130.59399414    0.00000000    0.00000000
   12.25166702  132.85600281    0.00000000    0.00000000
   12.25500011  132.16400146    0.00000000    0.00000000
   12.25805569  130.69400024    0.00000000    0.00000000
   12.26416683  130.69400024    0.00000000    0.00000000
   12.26833344  132.59100342    0.00000000    0.00000000
   12.27166653  130.00100708    0.00000000    0.00000000
   12.27472210  126.27300262    0.00000000    0.00000000
   12.27805519  126.27300262    0.00000000    0.00000000
   12.28111076  132.41000366    0.00000000    0.00000000
   12.28444481  126.90200043    0.00000000    0.00000000
   12.28777790  132.29800415    0.00000000    0.00000000
   12.29083347  130.05099487    0.00000000    0.00000000
   12.29416752  132.79400635    0.00000000    0.00000000
   12.29750061  130.14999390    0.00000000    0.00000000
   12.29916668  126.84799957    0.00000000    0.00000000
   12.30111122  126.87500000    0.00000000    0.00000000
   12.30694485  126.87500000    0.00000000    0.00000000
   12.31111145  122.71900177    0.00000000    0.00000000
   12.31444454  128.78799438    0.00000000    0.00000000
   12.31750011  122.68599701    0.00000000    0.00000000
   12.32083321  134.94900513    0.00000000    0.00000000
   12.32416630  142.18800354    0.00000000    0.00000000
   12.32722187  122.76799774    0.00000000    0.00000000
   12.33055592  136.59599304    0.00000000    0.00000000
   12.33249950  129.42300415    0.00000000    0.00000000
   12.33416653  130.89100647    0.00000000    0.00000000
   12.33722210  126.85500336    0.00000000    0.00000000
   12.34055519  128.27799988    0.00000000    0.00000000
   12.34388828  126.57700348    0.00000000    0.00000000
   12.35000038  126.57700348    0.00000000    0.00000000
   12.35388947  134.76100159    0.00000000    0.00000000
   12.35722256  132.21499634    0.00000000    0.00000000
   12.36055565  129.35499573    0.00000000    0.00000000
   12.36361122  132.03500366    0.00000000    0.00000000
   12.36611176  152.57000732    0.00000000    0.00000000
   12.36722279  134.64999390    0.00000000    0.00000000
   12.37055588  133.45500183    0.00000000    0.00000000
   12.37388897  127.46800232    0.00000000    0.00000000
   12.37694454  128.82499695    0.00000000    0.00000000
   12.38027763  126.83399963    0.00000000    0.00000000
   12.38361073  125.11599731    0.00000000    0.00000000
   12.38666630  128.72599792    0.00000000    0.00000000
   12.39277744  128.72599792    0.00000000    0.00000000
   12.39694405  121.16799927    0.00000000    0.00000000
   12.39944458  129.46200562    0.00000000    0.00000000
   12.40055561  127.42700195    0.00000000    0.00000000
   12.40361118  129.82200623    0.00000000    0.00000000
   12.40694427  127.80799866    0.00000000    0.00000000
   12.41027737  131.09300232    0.00000000    0.00000000
   12.41333294  121.54000092    0.00000000    0.00000000
   12.41666698  133.39999390    0.00000000    0.00000000
   12.42000008  130.02099609    0.00000000    0.00000000
   12.42305565  126.88099670    0.00000000    0.00000000
   12.42638874  127.79100037    0.00000000    0.00000000
   12.42944431  122.60299683    0.00000000    0.00000000
   12.43555546  122.60299683    0.00000000    0.00000000
   12.43972206  122.32199860    0.00000000    0.00000000
   12.44277763  127.31099701    0.00000000    0.00000000
   12.44611073  127.65499878    0.00000000    0.00000000
   12.44944477  126.56600189    0.00000000    0.00000000
   12.45249939  127.90000153    0.00000000    0.00000000
   12.45583344  123.30899811    0.00000000    0.00000000
   12.45916653  134.31100464    0.00000000    0.00000000
   12.46222210  135.80700684    0.00000000    0.00000000
   12.46555519  134.40100098    0.00000000    0.00000000
   12.46638870  127.98799896    0.00000000    0.00000000
   12.46972179  126.31199646    0.00000000    0.00000000
   12.47361088  123.90899658    0.00000000    0.00000000
   12.47888851  123.90899658    0.00000000    0.00000000
   12.48388958  114.09700012    0.00000000    0.00000000
   12.48777771  124.35299683    0.00000000    0.00000000
   12.49166679  122.78500366    0.00000000    0.00000000
   12.49527836  121.76399994    0.00000000    0.00000000
   12.49916649  135.00999451    0.00000000    0.00000000
   12.49972248  128.17999268    0.00000000    0.00000000
   12.50333309  128.57800293    0.00000000    0.00000000
   12.50666714  128.30000305    0.00000000    0.00000000
   12.50972176  126.90799713    0.00000000    0.00000000
   12.51305580  129.28999329    0.00000000    0.00000000
   12.51638889  125.87300110    0.00000000    0.00000000
   12.52138901  125.87300110    0.00000000    0.00000000
   12.52527714  124.02799988    0.00000000    0.00000000
   12.52861118  132.55499268    0.00000000    0.00000000
   12.53194427  122.43099976    0.00000000    0.00000000
   12.53333378  124.14199829    0.00000000    0.00000000
   12.53555584  123.83100128    0.00000000    0.00000000
   12.53861141  126.73300171    0.00000000    0.00000000
   12.54194450  126.05599976    0.00000000    0.00000000
   12.54527855  119.54000092    0.00000000    0.00000000
   12.54833412  127.55500031    0.00000000    0.00000000
   12.55166721  126.98200226    0.00000000    0.00000000
   12.55472279  133.90400696    0.00000000    0.00000000
   12.55805588  124.05100250    0.00000000    0.00000000
   12.56416702  124.05100250    0.00000000    0.00000000
   12.56833363  134.90800476    0.00000000    0.00000000
   12.57138920  124.20500183    0.00000000    0.00000000
   12.57472229  122.98000336    0.00000000    0.00000000
   12.57805538  129.72500610    0.00000000    0.00000000
   12.58111095  134.81399536    4.90999985    2.51999998
   12.58444405  136.04899597    4.90999985    2.51999998
   12.58749962  132.86599731    4.90999985    2.51999998
   12.59083271  129.16799927    4.90999985    2.51999998
   12.59416676  129.93299866    4.90999985    2.51999998
   12.59722233  125.07599640    4.90999985    2.51999998
   12.60000038  136.05400085    4.90999985    2.51999998
   12.60111141  130.76899719    4.90999985    2.51999998
   12.60694504  130.76899719    4.90999985    2.51999998
   12.61111164  123.92800140    4.90999985    2.51999998
   12.61444473  133.75300598    4.90999985    2.51999998
   12.61750031  131.87500000    4.90999985    2.51999998
   12.62083340  128.61799622    4.90999985    2.51999998
   12.62388897  134.25100708    4.90999985    2.51999998
   12.62722206  130.86799622    4.90999985    2.51999998
   12.63055611  141.56399536    4.90999985    2.51999998
   12.63333321  133.40899658    4.90999985    2.51999998
   12.63416672  136.99000549    4.90999985    2.51999998
   12.63722229  145.74499512    4.90999985    2.51999998
   12.64055538  134.64500427    4.90999985    2.51999998
   12.64388847  138.29600525    4.90999985    2.51999998
   12.64972210  138.29600525    4.90999985    2.51999998
   12.65388870  135.55900574    4.90999985    2.51999998
   12.65722179  136.02299500    4.90999985    2.51999998
   12.66027737  139.74899292    4.90999985    2.51999998
   12.66361046  130.57000732    4.90999985    2.51999998
   12.66666698  133.33399963    4.90999985    2.51999998
   12.66722298  132.02900696    4.90999985    2.51999998
   12.67027855  134.65600586    4.90999985    2.51999998
   12.67361164  135.09100342    4.90999985    2.51999998
   12.67694473  136.28399658    4.90999985    2.51999998
   12.68000031  136.81799316    4.90999985    2.51999998
   12.68333340  135.81199646    4.90999985    2.51999998
   12.68638897  148.99600220    4.90999985    2.51999998
   12.69250011  148.99600220    4.90999985    2.51999998
   12.69666672  131.67799377    4.90999985    2.51999998
   12.69999981  147.26699829    4.90999985    2.51999998
   12.70055580  155.83900452    4.90999985    2.51999998
   12.70361137  141.39399719    4.90999985    2.51999998
   12.70694447  150.61000061    4.90999985    2.51999998
   12.71027756  149.13999939    4.90999985    2.51999998
   12.71333313  140.25100708    4.90999985    2.51999998
   12.71666622  155.64500427    4.90999985    2.51999998
   12.71972179  148.36900330    4.90999985    2.51999998
   12.72305489  140.96600342    4.90999985    2.51999998
   12.72638798  146.56300354    4.90999985    2.51999998
   12.72944355  132.06599426    4.90999985    2.51999998
   12.73555565  132.06599426    4.90999985    2.51999998
   12.73972225  129.49699402    4.90999985    2.51999998
   12.74277782  134.09500122    4.90999985    2.51999998
   12.74611092  140.55299377    4.90999985    2.51999998
   12.74944496  136.51699829    4.90999985    2.51999998
   12.75249958  136.56599426    4.90999985    2.51999998
   12.75583363  135.11900330    4.90999985    2.51999998
   12.75888920  148.61099243    4.90999985    2.51999998
   12.76222229  138.20500183    4.90999985    2.51999998
   12.76555538  138.60600281    4.90999985    2.51999998
   12.76666641  142.59199524    4.90999985    2.51999998
   12.76916599  137.13800049    4.90999985    2.51999998
   12.77222157  142.16600037    4.90999985    2.51999998
   12.77833271  142.16600037    4.90999985    2.51999998
   12.78249931  134.71299744    4.90999985    2.51999998
   12.78583336  142.44900513    4.90999985    2.51999998
   12.78888893  136.57299805    4.90999985    2.51999998
   12.79222298  141.53500366    4.90999985    2.51999998
   12.79527855  142.05299377    4.90999985    2.51999998
   12.79861164  145.91999817    4.90999985    2.51999998
   12.80000019  137.14999390    4.90999985    2.51999998
   12.80222225  139.23500061    4.90999985    2.51999998
   12.80527782  141.65800476    4.90999985    2.51999998
   12.80861092  134.10800171    4.90999985    2.51999998
   12.81194496  134.02900696    4.90999985    2.51999998
   12.81500053  136.24499512    4.90999985    2.51999998
   12.82111073  136.24499512    4.90999985    2.51999998
   12.82527733  137.89300537    4.90999985    2.51999998
   12.82861137  140.68899536    4.90999985    2.51999998
   12.83166695  143.12800598    4.90999985    2.51999998
   12.83361053  128.37800598    4.90999985    2.51999998
   12.83555508  135.47799683    4.90999985    2.51999998
   12.83861065  125.10099792    4.90999985    2.51999998
   12.84194374  136.39900208    4.90999985    2.51999998
   12.84527779  138.62199402    4.90999985    2.51999998
   12.84833336  137.12899780    4.90999985    2.51999998
   12.85166740  140.75999451    4.90999985    2.51999998
   12.85472298  141.85699463    4.90999985    2.51999998
   12.85805607  140.00599670    4.90999985    2.51999998
   12.86416721  140.00599670    4.90999985    2.51999998
   12.86805534  130.28399658    4.90999985    2.51999998
   12.87138939  128.17900085    4.90999985    2.51999998
   12.87472248  136.97200012    4.90999985    2.51999998
   12.87777805  143.87300110    4.90999985    2.51999998
   12.88111115  147.29800415    4.90999985    2.51999998
   12.88444424  149.34399414    4.90999985    2.51999998
   12.88749981  138.41799927    4.90999985    2.51999998
   12.89083290  133.74800110    4.90999985    2.51999998
   12.89388847  129.33999634    4.90999985    2.51999998
   12.89722252  143.90899658    4.90999985    2.51999998
   12.90027714  132.50700378    4.90999985    2.51999998
   12.90083313  133.82099915    4.90999985    2.51999998
   12.90694427  133.82099915    4.90999985    2.51999998
   12.91111088  130.65800476    4.90999985    2.51999998
   12.91416645  129.19799805    4.90999985    2.51999998
   12.91750050  131.62199402    4.90999985    2.51999998
   12.92083359  136.54200745    4.90999985    2.51999998
   12.92416668  131.06399536    4.90999985    2.51999998
   12.92722225  138.13499451    4.90999985    2.51999998
   12.93055630  133.43800354    4.90999985    2.51999998
   12.93361092  135.87800598    4.90999985    2.51999998
   12.93416691  132.06100464    4.90999985    2.51999998
   12.93722248  134.24400330    4.90999985    2.51999998
   12.94055557  135.14900208    4.90999985    2.51999998
   12.94388866  134.27600098    4.90999985    2.51999998
   12.94972229  134.27600098    4.90999985    2.51999998
   12.95388889  137.02999878    4.90999985    2.51999998
   12.95722198  126.65299988    4.90999985    2.51999998
   12.96027756  136.19799805    4.90999985    2.51999998
   12.96361065  128.44000244    4.90999985    2.51999998
   12.96666622  128.77799988    4.90999985    2.51999998
   12.96722221  134.51300049    4.90999985    2.51999998
   12.97055531  140.61399841    4.90999985    2.51999998
   12.97361088  123.78399658    4.90999985    2.51999998
   12.97694397  133.08599854    4.90999985    2.51999998
   12.98027706  132.25100708    4.90999985    2.51999998
   12.98333359  128.49299622    4.90999985    2.51999998
   12.98666668  138.51499939    4.90999985    2.51999998
   12.99250031  138.51499939    4.90999985    2.51999998
   12.99666691  131.92999268    4.90999985    2.51999998
   13.00000000  132.78900146    4.90999985    2.51999998
   13.00055599  127.63300323    4.90999985    2.51999998
   13.00361156  135.34899902    4.90999985    2.51999998
   13.00694466  127.96800232    4.90999985    2.51999998
   13.01000023  129.02600098    4.90999985    2.51999998
   13.01333332  137.18299866    4.90999985    2.51999998
   13.01666641  131.83000183    4.90999985    2.51999998
   13.01972198  128.77400208    4.90999985    2.51999998
   13.02305508  134.58799744    4.90999985    2.51999998
   13.02638817  131.29600525    4.90999985    2.51999998
   13.02944374  131.33200073    4.90999985    2.51999998
   13.03527832  131.33200073    4.90999985    2.51999998
   13.03944492  132.37300110    4.90999985    2.51999998
   13.04277802  132.93099976    4.90999985    2.51999998
   13.04611111  128.96299744    4.90999985    2.51999998
   13.04916668  130.85400391    4.90999985    2.51999998
   13.05249977  132.32400513    4.90999985    2.51999998
   13.05583382  134.21899414    4.90999985    2.51999998
   13.05888939  133.32800293    4.90999985    2.51999998
   13.06222248  134.28900146    4.90999985    2.51999998
   13.06527805  132.25700378    4.90999985    2.51999998
   13.06722260  129.55000305    4.90999985    2.51999998
   13.06916618  132.33900452    4.90999985    2.51999998
   13.07250023  122.56400299    4.90999985    2.51999998
   13.07833290  122.56400299    4.90999985    2.51999998
   13.08249950  129.32600403    4.90999985    2.51999998
   13.08555508  127.55200195    4.90999985    2.51999998
   13.08888817  132.62300110    4.90999985    2.51999998
   13.09222221  124.65399933    4.90999985    2.51999998
   13.09527779  127.94200134    4.90999985    2.51999998
   13.09861088  128.11700439    4.90999985    2.51999998
   13.10055637  130.94900513    4.90999985    2.51999998
   13.10222244  123.16300201    4.90999985    2.51999998
   13.10555553  118.42299652    4.90999985    2.51999998
   13.10861111  128.91999817    4.90999985    2.51999998
   13.11194515  127.98699951    4.90999985    2.51999998
   13.11500072  132.39199829    4.90999985    2.51999998
   13.12111092  132.39199829    4.90999985    2.51999998
   13.12527752  136.79699707    4.90999985    2.51999998
   13.12861156  132.65899658    4.90999985    2.51999998
   13.14805508  125.36900330    4.90999985    2.51999998
   13.14861107  125.29000092    4.90999985    2.51999998
   13.15194416  130.16099548    4.90999985    2.51999998
   13.15499973  126.58599854    4.90999985    2.51999998
   13.15833282  131.70199585    4.90999985    2.51999998
   13.16416645  131.70199585    4.90999985    2.51999998
   13.16833401  122.38500214    4.90999985    2.51999998
   13.17138958  122.75700378    4.90999985    2.51999998
   13.17472267  133.02099609    4.90999985    2.51999998
   13.17805576  137.01199341    4.90999985    2.51999998
   13.18111134  126.75299835    4.90999985    2.51999998
   13.18194485  130.53900146    4.90999985    2.51999998
   13.18500042  126.25499725    4.90999985    2.51999998
   13.18805599  127.96600342    4.90999985    2.51999998
   13.19138908  126.78800201    4.90999985    2.51999998
   13.19472218  126.29299927    4.90999985    2.51999998
   13.19777775  128.23500061    4.90999985    2.51999998
   13.20111084  120.79100037    4.90999985    2.51999998
   13.20694447  120.79100037    4.90999985    2.51999998
   13.21111107  124.74600220    4.90999985    2.51999998
   13.21444416  129.39199829    4.90999985    2.51999998
   13.21527767  126.85700226    4.90999985    2.51999998
   13.21805477  141.33299255    4.90999985    2.51999998
   13.22111034  125.56199646    4.90999985    2.51999998
   13.22444439  125.00099945    4.90999985    2.51999998
   13.22749996  122.92600250    4.90999985    2.51999998
   13.23083305  132.49699402    4.90999985    2.51999998
   13.23416710  134.34199524    4.90999985    2.51999998
   13.23722267  134.64999390    4.90999985    2.51999998
   13.24055576  128.14999390    4.90999985    2.51999998
   13.24388885  125.07099915    4.90999985    2.51999998
   13.24972248  125.07099915    4.90999985    2.51999998
   13.25388908  127.14700317    4.90999985    2.51999998
   13.25722218  132.44000244    4.90999985    2.51999998
   13.26027775  127.73699951    4.90999985    2.51999998
   13.26361084  132.03900146    4.90999985    2.51999998
   13.26694393  128.07800293    4.90999985    2.51999998
   13.26999950  129.81599426    4.90999985    2.51999998
   13.27333355  126.23999786    4.90999985    2.51999998
   13.27666664  126.66000366    4.90999985    2.51999998
   13.27972221  128.63400269    4.90999985    2.51999998
   13.28194427  127.65100098    4.90999985    2.51999998
   13.28361130  117.13999939    4.90999985    2.51999998
   13.28666687  126.42099762    4.90999985    2.51999998
   13.29277802  126.42099762    4.90999985    2.51999998
   13.29666710  143.04400635    4.90999985    2.51999998
   13.30000019  135.63900757    4.90999985    2.51999998
   13.30333328  130.22300720    4.90999985    2.51999998
   13.30638885  122.50499725    4.90999985    2.51999998
   13.30972195  124.01599884    4.90999985    2.51999998
   13.31305599  124.78199768    4.90999985    2.51999998
   13.31527805  123.00099945    4.90999985    2.51999998
   13.31666660  123.41100311    4.90999985    2.51999998
   13.31972218  133.16600037    4.90999985    2.51999998
   13.32305527  124.58300018    4.90999985    2.51999998
   13.32611084  128.39799500    4.90999985    2.51999998
   13.32944393  121.56099701    4.90999985    2.51999998
   13.33555508  121.56099701    4.90999985    2.51999998
   13.33972168  123.33799744    4.90999985    2.51999998
   13.34277725  128.86799622    4.90999985    2.51999998
   13.34611034  124.53900146    4.90999985    2.51999998
   13.34861088  124.73400116    4.90999985    2.51999998
   13.34972191  131.93400574    4.90999985    2.51999998
   13.35277843  124.14900208    4.90999985    2.51999998
   13.35611153  127.13700104    4.90999985    2.51999998
   13.35944462  134.00100708    4.90999985    2.51999998
   13.36250019  134.22000122    4.90999985    2.51999998
   13.36583328  123.88800049    4.90999985    2.51999998
   13.36916637  125.52500153    4.90999985    2.51999998
   13.37222195  133.79400635    4.90999985    2.51999998
   13.37833309  133.79400635    4.90999985    2.51999998
   13.38249969  133.85600281    4.90999985    2.51999998
   13.38583279  128.71000671    4.90999985    2.51999998
   13.38888836  129.62899780    4.90999985    2.51999998
   13.39222240  130.15299988    4.90999985    2.51999998
   13.39527798  127.86900330    4.90999985    2.51999998
   13.39861107  129.43099976    4.90999985    2.51999998
   13.40194416  123.94799805    4.90999985    2.51999998
   13.40499973  126.33999634    4.90999985    2.51999998
   13.40833282  119.92800140    4.90999985    2.51999998
   13.41166592  125.36699677    4.90999985    2.51999998
   13.41472149  135.29600525    4.90999985    2.51999998
   13.41527748  126.51399994    4.90999985    2.51999998
   13.42111111  126.51399994    4.90999985    2.51999998
   13.42527771  125.30500031    4.90999985    2.51999998
   13.42861176  126.46800232    4.90999985    2.51999998
   13.43166733  128.48300171    4.90999985    2.51999998
   13.43500042  124.16200256    4.90999985    2.51999998
   13.43833351  128.28799438    4.90999985    2.51999998
   13.44138908  124.03600311    4.90999985    2.51999998
   13.44472218  122.93800354    4.90999985    2.51999998
   13.44805527  121.15399933    4.90999985    2.51999998
   13.44861126  126.45099640    4.90999985    2.51999998
   13.45166683  122.75499725    4.90999985    2.51999998
   13.45472240  132.29200745    4.90999985    2.51999998
   13.45805550  120.36399841    4.90999985    2.51999998
   13.46416664  120.36399841    4.90999985    2.51999998
   13.46805477  119.03500366    4.90999985    2.51999998
   13.47138882  122.57099915    4.90999985    2.51999998
   13.47472191  120.12699890    4.90999985    2.51999998
   13.47777748  126.52100372    4.90999985    2.51999998
   13.48111057  126.81700134    4.90999985    2.51999998
   13.48194408  127.44999695    4.90999985    2.51999998
   13.48472214  130.09500122    4.90999985    2.51999998
   13.48777771  128.66600037    4.90999985    2.51999998
   13.49111176  125.94000244    4.90999985    2.51999998
   13.49416733  126.80699921    4.90999985    2.51999998
   13.49750042  124.99700165    4.90999985    2.51999998
   13.50083351  126.13200378    4.90999985    2.51999998
   13.50694466  126.13200378    4.90999985    2.51999998
   13.51111126  124.65299988    4.90999985    2.51999998
   13.51416683  126.16899872    4.90999985    2.51999998
   13.51527786  120.09300232    4.90999985    2.51999998
   13.51805496  120.11599731    4.90999985    2.51999998
   13.52111053  123.62599945    4.90999985    2.51999998
   13.52444458  123.68399811    4.90999985    2.51999998
   13.52750015  121.16000366    4.90999985    2.51999998
   13.53083324  122.38999939    4.90999985    2.51999998
   13.53416729  120.33399963    4.90999985    2.51999998
   13.53722286  125.10700226    4.90999985    2.51999998
   13.54055595  124.94200134    4.90999985    2.51999998
   13.54388905  119.89700317    4.90999985    2.51999998
   13.54972267  119.89700317    4.90999985    2.51999998
   13.55388927  115.87899780    4.90999985    2.51999998
   13.55722237  125.74800110    4.90999985    2.51999998
   13.56027794  124.72399902    4.90999985    2.51999998
   13.56361103  120.64299774    4.90999985    2.51999998
   13.56666660  125.34200287    4.90999985    2.51999998
   13.56999969  127.58999634    4.90999985    2.51999998
   13.57333374  129.23199463    4.90999985    2.51999998
   13.57638836  125.48999786    4.90999985    2.51999998
   13.57972240  124.52799988    4.90999985    2.51999998
   13.58194447  125.38899994    4.90999985    2.51999998
   13.58333302  128.47099304    4.90999985    2.51999998
   13.58638859  125.87200165    4.90999985    2.51999998
   13.59249973  125.87200165    4.90999985    2.51999998
   13.59666634  123.86900330    4.90999985    2.51999998
   13.60000038  126.49700165    4.90999985    2.51999998
   13.60305595  123.55799866    4.90999985    2.51999998
   13.60638905  124.75800323    4.90999985    2.51999998
   13.60972214  132.26899719    4.90999985    2.51999998
   13.61527824  121.90799713    4.90999985    2.51999998
   13.61583328  123.97799683    4.90999985    2.51999998
   13.61888885  127.07700348    4.90999985    2.51999998
   13.62194443  118.90000153    4.90999985    2.51999998
   13.62527752  124.51699829    4.90999985    2.51999998
   13.62833309  124.41600037    4.90999985    2.51999998
   13.63166714  123.37899780    4.90999985    2.51999998
   13.63583279  123.37899780    4.90999985    2.51999998
   13.64055538  127.68099976    0.00000000    0.00000000
   13.64444447  123.83799744    0.00000000    0.00000000
   13.64833355  123.86599731    0.00000000    0.00000000
   13.64916611  122.87000275    0.00000000    0.00000000
   13.65249920  126.30799866    0.00000000    0.00000000
   13.65638828  122.34200287    0.00000000    0.00000000
   13.65999985  127.38500214    0.00000000    0.00000000
   13.66388893  127.67199707    0.00000000    0.00000000
   13.66777802  129.20599365    0.00000000    0.00000000
   13.67166710  128.24400330    0.00000000    0.00000000
   13.67555618  129.94900513    0.00000000    0.00000000
   13.68027782  129.94900513    0.00000000    0.00000000
   13.68472195  130.62300110    1.89999998    2.61999989
   13.68805599  127.50199890    1.89999998    2.61999989
   13.69111156  126.42500305    1.89999998    2.61999989
   13.69444466  126.09400177    1.89999998    2.61999989
   13.69777775  129.73599243    1.89999998    2.61999989
   13.70083332  125.94899750    1.89999998    2.61999989
   13.70416641  123.17099762    1.89999998    2.61999989
   13.70749950  119.54599762    1.89999998    2.61999989
   13.71055508  126.50099945    1.89999998    2.61999989
   13.71388912  132.05999756    1.89999998    2.61999989
   13.71583271  130.29600525    1.89999998    2.61999989
   13.71749973  131.51899719    1.89999998    2.61999989
   13.72249985  131.51899719    1.89999998    2.61999989
   13.72666645  128.83200073    1.89999998    2.61999989
   13.72999954  131.66700745    1.89999998    2.61999989
   13.73305511  124.75800323    1.89999998    2.61999989
   13.73638916  129.82800293    1.89999998    2.64000010
   13.73944473  124.81900024    2.00000000    2.64000010
   13.74277782  136.16700745    1.98000002    2.64000010
   13.74611092  128.21699524    1.98000002    2.64000010
   13.74916649  119.56900024    1.98000002    2.64000010
   13.74972248  144.36500549    1.94000006    2.64000010
   13.75277805  126.52500153    1.91999996    2.64000010
   13.75611115  122.20600128    1.91999996    2.64000010
   13.75916672  127.52700043    1.88000000    2.66000009
   13.76527786  127.52700043    1.85000002    2.64000010
   13.76944447  130.38200378    1.85000002    2.64000010
   13.77277756  133.30200195    1.85000002    2.66000009
   13.77583313  137.74499512    1.85000002    2.64000010
   13.77916622  130.48800659    1.85000002    2.66000009
   13.78249931  132.46800232    1.85000002    2.66000009
   13.78277779  122.36900330    1.85000002    2.66000009
   13.78611183  137.46299744    1.85000002    2.64000010
   13.78944492  146.37899780    1.85000002    2.64000010
   13.79250050  146.21200562    1.83000004    2.64000010
   13.79583359  150.30700684    1.83000004    2.66000009
   13.79888916  145.57299805    1.85000002    2.66000009
   13.80222225  144.88000488    1.85000002    2.64000010
   13.80805588  144.88000488    1.83000004    2.64000010
   13.81222248  150.53500366    1.86000001    2.64000010
   13.81555557  140.82000732    1.86000001    2.67000008
   13.81611156  148.70399475    1.86000001    2.66000009
   13.81916618  142.63800049    1.86000001    2.66000009
   13.82250023  156.55000305    1.86000001    2.66000009
   13.82555580  154.70399475    2.00000000    2.64000010
   13.82888889  143.86799622    2.00000000    2.66000009
   13.83194447  163.17799377    2.05999994    2.64000010
   13.83527756  150.19200134    2.05999994    2.64000010
   13.83861065  158.64599609    2.05999994    2.64000010
   13.84166622  158.51600647    2.03999996    2.64000010
   13.84499931  182.57600403    2.01999998    2.66000009
   13.85111141  182.57600403    2.00000000    2.64000010
   13.85527802  181.29499817    2.00000000    2.64000010
   13.85833359  155.79699707    1.96000004    2.64000010
   13.86166668  189.00900269    1.88000000    2.64000010
   13.86472225  158.77099609    1.86000001    2.64000010
   13.86805534  179.06199646    1.86000001    2.64000010
   13.87138939  188.55900574    1.86000001    2.64000010
   13.87444496  173.18200684    1.86000001    2.64000010
   13.87777805  155.89799500    1.86000001    2.64000010
   13.88111115  178.17999268    1.86000001    2.64000010
   13.88277817  193.89900208    1.86000001    2.64000010
   13.88472176  152.65699768    1.86000001    2.64000010
   13.88805580  175.80900574    1.86000001    2.64000010
   13.89416695  175.80900574    1.86000001    2.64000010
   13.89805508  219.29299927    1.86000001    2.64000010
   13.90194416  196.02200317    0.00000000    0.00000000
   13.90583324  173.59899902    0.00000000    0.00000000
   13.90972137  180.06599426    0.00000000    0.00000000
   13.91361046  165.39599609    0.00000000    0.00000000
   13.91611099  177.96699524    0.00000000    0.00000000
   13.91777802  177.63699341    0.00000000    0.00000000
   13.92166710  192.80900574    0.00000000    0.00000000
   13.92555618  170.89999390    0.00000000    0.00000000
   13.92944431  188.22500610    0.00000000    0.00000000
   13.93333340  223.13099670    0.00000000    0.00000000
   13.93722248  223.13099670    1.86000001    2.64000010
   13.94138908  200.81300354    1.86000001    2.64000010
   13.94472218  201.52099609    1.86000001    2.64000010
   13.94805527  200.43299866    1.86000001    2.64000010
   13.94972229  203.19500732    1.86000001    2.64000010
   13.95166683  201.14999390    1.86000001    2.64000010
   13.95472240  212.75500488    1.86000001    2.64000010
   13.95805550  204.63600159    1.86000001    2.64000010
   13.96138859  206.58599854    1.86000001    2.64000010
   13.96444416  209.84399414    1.86000001    2.64000010
   13.96777725  197.21299744    1.86000001    2.64000010
   13.97083282  222.69200134    1.86000001    2.64000010
   13.97416592  199.33700562    1.86000001    2.64000010
   13.98027706  199.33700562    1.86000001    2.64000010
   13.98444462  189.45199585    1.86000001    2.64000010
   13.98750019  216.30999756    1.86000001    2.64000010
   13.99083328  200.13400269    1.85000002    2.66000009
   13.99388885  202.70500183    1.76999998    2.66000009
   13.99722290  180.99499512    1.75000000    2.67000008
   14.00055599  194.30099487    1.75000000    2.66000009
   14.00361156  198.57099915    1.73000002    2.66000009
   14.00694466  164.17100525    1.71000004    2.66000009
   14.01027775  208.27900696    1.71000004    2.66000009
   14.01333332  193.34199524    1.71000004    2.66000009
   14.01638889  168.32800293    1.71000004    2.66000009
   14.01694393  159.12800598    1.71000004    2.66000009
   14.02305508  159.12800598    1.73000002    2.67000008
   14.02722168  164.93299866    1.71000004    2.66000009
   14.03027725  184.36799622    1.66999996    2.66000009
   14.03361130  193.56300354    1.66999996    2.66000009
   14.03694534  191.22900391    1.69000006    2.64000010
   14.04027843  225.78100586    1.71000004    2.67000008
   14.04333401  198.88099670    1.73000002    2.66000009
   14.04666710  187.14599609    1.73000002    2.66000009
   14.10722256  226.37300110    0.00000000    0.00000000
   14.10750008  207.09700012    0.00000000    0.00000000
   14.11138916  198.35899353    0.00000000    0.00000000
   14.11722279  198.35899353    0.00000000    0.00000000
   14.12194443  206.71899414    0.00000000    0.00000000
   14.12277794  172.05400085    0.00000000    0.00000000
   14.12611103  187.88800049    0.00000000    0.00000000
   14.13000011  189.43699646    0.00000000    0.00000000
   14.13388920  188.38099670    0.00000000    0.00000000
   14.13694477  212.15100098    1.73000002    2.66000009
   14.14027786  184.32000732    1.73000002    2.66000009
   14.14333344  190.36999512    1.73000002    2.66000009
   14.14666653  197.36900330    1.75000000    2.66000009
   14.14999962  195.59500122    1.53999996    2.67000008
   14.15305519  200.73300171    1.53999996    2.67000008
   14.15944386  200.73300171    1.61000001    2.67000008
   14.16361046  196.14599609    1.63000000    2.66000009
   14.16666698  209.12500000    1.64999998    2.67000008
   14.17000008  199.48899841    1.63000000    2.67000008
   14.17333412  203.53300476    1.63000000    2.67000008
   14.17638874  195.58000183    1.66999996    2.67000008
   14.17972279  216.35899353    1.69000006    2.67000008
   14.18277836  222.75599670    1.71000004    2.67000008
   14.18611145  193.90100098    1.69000006    2.67000008
   14.18944454  206.78500366    1.71000004    2.67000008
   14.19027805  226.15199280    1.71000004    2.67000008
   14.19305515  209.62399292    1.73000002    2.67000008
   14.19611073  215.23300171    1.71000004    2.67000008
   14.21749973  215.23300171    1.75000000    2.67000008
   14.22166634  211.32299805    1.73000002    2.67000008
   14.22388840  213.52900696    1.75000000    2.67000008
   14.22555542  207.13999939    1.75000000    2.67000008
   14.22861099  182.32000732    1.76999998    2.69000006
   14.23194408  231.00900269    1.75000000    2.69000006
   14.23500061  228.04800415    1.76999998    2.66000009
   14.23833370  226.18899536    1.76999998    2.69000006
   14.24166679  210.49499512    1.76999998    2.67000008
   14.24472237  226.89500427    1.75000000    2.67000008
   14.24805546  211.21600342    1.73000002    2.67000008
   14.25138855  197.99200439    1.73000002    2.67000008
   14.25444412  236.42300415    1.76999998    2.67000008
   14.26027775  236.42300415    1.75000000    2.67000008
   14.26444435  216.99600220    1.71000004    2.67000008
   14.26777744  222.99000549    1.71000004    2.67000008
   14.27083302  221.58299255    1.71000004    2.67000008
   14.27416611  205.30599976    1.69000006    2.66000009
   14.27722168  232.08999634    1.64999998    2.67000008
   14.28055573  238.60499573    1.63000000    2.67000008
   14.28388977  232.02000427    1.60000002    2.67000008
   14.28694534  216.46800232    1.58000004    2.69000006
   14.29027843  237.76300049    1.58000004    2.67000008
   14.29111195  196.82000732    1.58000004    2.67000008
   14.29388905  220.57200623    1.63000000    2.67000008
   14.29722309  194.96499634    1.66999996    2.69000006
   14.30305576  194.96499634    1.64999998    2.67000008
   14.30722237  202.39500427    1.69000006    2.67000008
   14.31055546  198.82299805    1.71000004    2.67000008
   14.31361103  217.22300720    1.71000004    2.67000008
   14.31694412  209.97700500    1.71000004    2.67000008
   14.32027817  215.95799255    1.71000004    2.67000008
   14.32333374  240.45100403    1.69000006    2.69000006
   14.32444477  172.91900635    1.69000006    2.69000006
   14.32694435  182.37800598    1.66999996    2.69000006
   14.33027744  232.50399780    1.69000006    2.69000006
   14.33333302  239.48599243    1.69000006    2.69000006
   14.33666611  193.17199707    1.66999996    2.67000008
   14.35472298  216.52699280    1.69000006    2.67000008
   14.35666752  248.49000549    1.69000006    2.67000008
   14.35805607  210.64999390    1.69000006    2.69000006
   14.35944462  232.22300720    1.69000006    2.69000006
   14.36083412  238.02000427    1.69000006    2.69000006
   14.36222267  231.08299255    1.66999996    2.69000006
   14.36361122  232.65499878    1.66999996    2.69000006
   14.36500072  230.19500732    1.66999996    2.69000006
   14.36638927  218.71800232    1.66999996    2.69000006
   14.36777782  217.74000549    1.66999996    2.69000006
   14.36916637  222.68400574    1.64999998    2.67000008
   14.37055588  226.61000061    1.63000000    2.67000008
   14.37194443  216.68699646    1.63000000    2.69000006
   14.37333393  198.13499451    1.63000000    2.67000008
   14.37472248  191.08799744    1.63000000    2.69000006
   14.37611103  200.91200256    1.63000000    2.69000006
   14.37750053  212.08700562    1.63000000    2.67000008
   14.37888908  203.99499512    1.63000000    2.67000008
   14.38027763  220.26699829    1.63000000    2.69000006
   14.38166714  241.24800110    1.63000000    2.69000006
   14.38305569  230.08200073    1.63000000    2.69000006
   14.38444424  214.54699707    1.63000000    2.67000008
   14.38583279  238.66900635    1.63000000    2.67000008
   14.38722229  235.89100647    1.63000000    2.69000006
   14.38861084  194.65199280    1.64999998    2.67000008
   14.39000034  236.50199890    1.63000000    2.69000006
   14.39138889  228.59599304    1.64999998    2.69000006
   14.39277744  227.56199646    1.64999998    2.67000008
   14.39416695  221.31700134    1.64999998    2.67000008
   14.39555550  226.99099731    1.64999998    2.67000008
   14.39694405  227.25599670    1.64999998    2.67000008
   14.39833355  237.49899292    1.66999996    2.69000006
   14.39972210  223.46299744    1.66999996    2.67000008
   14.40111065  225.66499329    1.66999996    2.67000008
   14.40249920  221.10899353    1.66999996    2.67000008
   14.40388870  226.44000244    1.66999996    2.69000006
   14.40527725  208.50999451    1.66999996    2.67000008
   14.40666676  199.95199585    1.69000006    2.69000006
   14.40805531  215.42199707    1.69000006    2.69000006
   14.40944386  218.68600464    1.69000006    2.69000006
   14.41083336  193.02799988    1.69000006    2.69000006
   14.41222191  225.85099792    1.69000006    2.69000006
   14.41361046  217.86900330    1.66999996    2.67000008
   14.41499996  212.44299316    1.66999996    2.67000008
   14.41638851  235.46299744    1.66999996    2.69000006
   14.41777802  246.80000305    1.69000006    2.67000008
   14.41916656  219.73100281    1.69000006    2.67000008
   14.42055607  229.66799927    1.66999996    2.69000006
   14.42194462  236.14199829    1.66999996    2.67000008
   14.42333412  201.46099854    1.69000006    2.67000008
   14.42472267  228.68899536    1.66999996    2.69000006
   14.42611122  219.01300049    1.64999998    2.67000008
   14.42750072  213.50000000    1.66999996    2.67000008
   14.42888927  202.08299255    1.66999996    2.67000008
   14.43027782  226.70199585    1.64999998    2.69000006
   14.43166733  204.30999756    1.64999998    2.69000006
   14.43305588  234.70100403    1.63000000    2.67000008
   14.43444443  222.85000610    1.63000000    2.69000006
   14.43583298  236.60200500    1.63000000    2.69000006
   14.43722248  246.49899292    1.63000000    2.69000006
   14.43861103  233.82499695    1.63000000    2.69000006
   14.44000053  226.61399841    1.63000000    2.67000008
   14.44138908  226.58399963    1.61000001    2.69000006
   14.44277763  222.71299744    1.61000001    2.67000008
   14.44416714  226.19200134    1.61000001    2.69000006
   14.44555569  207.49200439    1.61000001    2.69000006
   14.44694424  221.52400208    1.61000001    2.67000008
   14.44833374  216.78700256    1.61000001    2.69000006
   14.44972229  219.98899841    1.60000002    2.69000006
   14.45111084  208.11500549    1.60000002    2.69000006
   14.45249939  221.36300659    1.60000002    2.69000006
   14.45388889  222.58999634    1.60000002    2.69000006
   14.45527744  213.85499573    1.61000001    2.69000006
   14.45666695  230.58900452    1.58000004    2.69000006
   14.45805550  237.61099243    1.58000004    2.69000006
   14.45944405  217.34100342    1.58000004    2.69000006
   14.46083355  219.08299255    1.55999994    2.69000006
   14.46222210  188.63299561    1.55999994    2.69000006
   14.46361065  219.40899658    1.55999994    2.67000008
   14.46500015  226.81300354    1.53999996    2.67000008
   14.46638870  238.65899658    1.53999996    2.69000006
   14.46777725  226.14199829    1.53999996    2.69000006
   14.46916580  219.84700012    1.51999998    2.69000006
   14.47055531  227.57400513    1.50000000    2.69000006
   14.47194386  230.17999268    1.50000000    2.69000006
   14.47333336  202.85000610    1.50000000    2.69000006
   14.47472191  236.43499756    1.50000000    2.69000006
   14.47611046  224.74800110    1.48000002    2.69000006
   14.47749996  232.81700134    1.48000002    2.69000006
   14.47888851  212.93200684    1.48000002    2.69000006
   14.48027706  230.13499451    1.48000002    2.69000006
   14.48166656  222.05999756    1.48000002    2.69000006
   14.48305511  215.58299255    1.48000002    2.69000006
   14.48444462  214.43200684    1.48000002    2.69000006
   14.48583317  225.28300476    1.48000002    2.69000006
   14.48722267  213.52000427    1.48000002    2.69000006
   14.48861122  227.19400024    1.48000002    2.69000006
   14.49000072  217.97700500    1.48000002    2.69000006
   14.49138927  222.91400146    1.48000002    2.69000006
   14.49277782  232.19999695    1.48000002    2.69000006
   14.49416733  235.35099792    1.48000002    2.69000006
   14.49555588  230.31100464    1.50000000    2.69000006
   14.49694443  225.66799927    1.50000000    2.69000006
   14.49833393  219.61900330    1.50000000    2.69000006
   14.49972248  210.09899902    1.50000000    2.69000006
   14.50111103  221.21400452    1.50000000    2.69000006
   14.50249958  222.42500305    1.50000000    2.69000006
   14.50388908  209.34899902    1.50000000    2.69000006
   14.50527763  237.85200500    1.50000000    2.69000006
   14.50666714  213.76100159    1.50000000    2.69000006
   14.50805569  192.47000122    1.50000000    2.69000006
   14.50944424  218.89100647    1.50000000    2.69000006
   14.51083374  201.82299805    1.50000000    2.71000004
   14.51222229  210.84300232    1.50000000    2.69000006
   14.51361084  187.97599792    1.50000000    2.69000006
   14.51500034  218.01600647    1.50000000    2.69000006
   14.51638889  208.88499451    1.50000000    2.69000006
   14.51777744  215.39599609    1.50000000    2.69000006
   14.51916599  207.78199768    1.50000000    2.69000006
   14.52055550  218.67700195    1.50000000    2.69000006
   14.52194405  228.11300659    1.50000000    2.69000006
   14.52333355  227.21099854    1.50000000    2.69000006
   14.52472210  229.55900574    1.50000000    2.67000008
   14.52611065  204.78900146    1.50000000    2.71000004
   14.52750015  234.89500427    1.48000002    2.69000006
   14.52888870  227.95799255    1.48000002    2.69000006
   14.53027725  210.07699585    1.48000002    2.71000004
   14.53166676  203.81100464    1.48000002    2.71000004
   14.53305531  228.18099976    1.48000002    2.69000006
   14.53444481  230.40100098    1.48000002    2.69000006
   14.53583336  203.58599854    1.48000002    2.69000006
   14.53722286  225.06500244    1.50000000    2.69000006
   14.53861141  221.36300659    1.48000002    2.69000006
   14.54000092  225.73300171    1.48000002    2.69000006
   14.54138947  243.39199829    1.50000000    2.69000006
   14.54277802  218.57699585    1.50000000    2.69000006
   14.54416752  232.93600464    1.50000000    2.69000006
   14.54555607  207.46800232    1.50000000    2.69000006
   14.54694462  225.97000122    1.50000000    2.69000006
   14.54833412  229.97999573    1.51999998    2.69000006
   14.54972267  207.67500305    1.51999998    2.69000006
   14.55111122  206.70500183    1.51999998    2.69000006
   14.55249977  222.14999390    1.51999998    2.69000006
   14.55388927  229.96800232    1.51999998    2.67000008
   14.55527782  233.19200134    1.53999996    2.69000006
   14.55666733  229.52900696    1.53999996    2.69000006
   14.55805588  221.44000244    1.53999996    2.69000006
   14.55944443  213.89300537    1.53999996    2.69000006
   14.56083393  204.24899292    1.53999996    2.69000006
   14.56222248  243.22200012    1.53999996    2.69000006
   14.56361103  219.36900330    1.53999996    2.69000006
   14.56500053  235.63400269    1.51999998    2.69000006
   14.56638908  239.27999878    1.51999998    2.69000006
   14.56777763  211.79299927    1.53999996    2.69000006
   14.56916618  250.17599487    1.51999998    2.69000006
   14.57055569  231.18499756    1.51999998    2.69000006
   14.57194424  246.03399658    1.51999998    2.69000006
   14.57333374  213.27799988    1.51999998    2.69000006
   14.57472229  230.42999268    1.51999998    2.69000006
   14.57611084  218.77600098    1.51999998    2.69000006
   14.57750034  215.27099609    1.50000000    2.67000008
   14.57888889  207.44200134    1.51999998    2.69000006
   14.58027744  235.46600342    1.51999998    2.69000006
   14.58166695  247.66900635    1.51999998    2.69000006
   14.58305550  239.17700195    1.51999998    2.69000006
   14.58444405  217.22200012    1.51999998    2.69000006
   14.58583260  231.53999329    1.51999998    2.69000006
   14.58722210  227.87699890    1.51999998    2.71000004
   14.58861065  229.74499512    1.50000000    2.71000004
   14.59000015  210.30400085    1.50000000    2.69000006
   14.59138870  202.06399536    1.48000002    2.71000004
   14.59277725  221.21099854    1.48000002    2.71000004
   14.59416676  211.06500244    1.48000002    2.71000004
   14.59555531  223.78199768    1.48000002    2.69000006
   14.59694386  196.15800476    1.48000002    2.69000006
   14.59833336  220.21600342    1.48000002    2.71000004
   14.59972191  204.11999512    1.48000002    2.69000006
   14.60111141  231.32000732    1.48000002    2.69000006
   14.60249996  242.70899963    1.48000002    2.69000006
   14.60388947  207.21699524    1.48000002    2.69000006
   14.60527802  213.39399719    1.48000002    2.67000008
   14.60666752  240.08399963    1.48000002    2.67000008
   14.60805607  216.49699402    1.48000002    2.69000006
   14.60944462  218.17900085    1.48000002    2.69000006
   14.61083412  229.31700134    1.48000002    2.69000006
   14.61222267  223.61599731    1.48000002    2.69000006
   14.61361122  212.16799927    1.48000002    2.71000004
   14.61500072  209.93899536    1.46000004    2.71000004
   14.61638927  209.74499512    1.46000004    2.69000006
   14.61777782  204.52299500    1.46000004    2.69000006
   14.61916637  238.85299683    1.46000004    2.69000006
   14.62055588  227.38400269    1.46000004    2.69000006
   14.62194443  190.79100037    1.46000004    2.69000006
   14.62333393  219.44999695    1.46000004    2.69000006
   14.62472248  206.33000183    1.46000004    2.69000006
   14.62611103  206.38299561    1.46000004    2.69000006
   14.62750053  211.32299805    1.46000004    2.69000006
   14.62888908  200.12199402    1.48000002    2.71000004
   14.63027763  222.89999390    1.48000002    2.69000006
   14.63166714  217.85699463    1.48000002    2.71000004
   14.63305569  217.05099487    1.48000002    2.69000006
   14.63444424  210.56399536    1.48000002    2.69000006
   14.63583279  217.87399292    1.48000002    2.69000006
   14.63722229  215.89999390    1.46000004    2.69000006
   14.63861084  215.30599976    1.46000004    2.69000006
   14.64000034  200.88699341    1.46000004    2.69000006
   14.64138889  208.97999573    1.44000006    2.69000006
   14.64277744  213.22700500    1.44000006    2.69000006
   14.64416695  235.31500244    1.44000006    2.69000006
   14.64555550  234.51499939    1.44000006    2.71000004
   14.64694405  228.32899475    1.44000006    2.69000006
   14.64833355  237.36099243    1.44000006    2.69000006
   14.64972210  214.99000549    1.44000006    2.69000006
   14.65111065  221.93600464    1.44000006    2.69000006
   14.65249920  218.06300354    1.44000006    2.69000006
   14.65388870  217.36900330    1.41999996    2.71000004
   14.65527725  231.48599243    1.39999998    2.69000006
   14.65666676  218.16200256    1.39999998    2.69000006
   14.65805531  226.25100708    1.38000000    2.71000004
   14.65944386  248.25700378    1.38000000    2.71000004
   14.66083336  219.60899353    1.38000000    2.71000004
   14.66222191  221.44200134    1.38000000    2.71000004
   14.66361046  205.70300293    1.36000001    2.69000006
   14.66499996  188.48399353    1.36000001    2.71000004
   14.66638851  219.59199524    1.36000001    2.69000006
   14.66777802  227.90600586    1.34000003    2.69000006
   14.66916656  213.91900635    1.34000003    2.71000004
   14.67055607  227.98100281    1.34000003    2.71000004
   14.67194462  207.85099792    1.33000004    2.69000006
   14.67333412  197.16200256    1.33000004    2.69000006
   14.67472267  175.33700562    1.30999994    2.69000006
   14.67611122  205.27799988    1.30999994    2.71000004
   14.67750072  217.81900024    1.30999994    2.71000004
   14.67888927  210.48899841    1.30999994    2.71000004
   14.68027782  204.77799988    1.33000004    2.69000006
   14.68166733  208.28399658    1.30999994    2.71000004
   14.68305588  213.99899292    1.30999994    2.71000004
   14.68444443  211.20399475    1.33000004    2.69000006
   14.68583298  223.82400513    1.33000004    2.69000006
   14.68722248  213.14399719    1.33000004    2.69000006
   14.68861103  209.19799805    1.33000004    2.71000004
   14.69000053  228.65600586    1.33000004    2.71000004
   14.69138908  212.10200500    1.33000004    2.71000004
   14.69277763  178.69500732    1.33000004    2.71000004
   14.69416714  208.92799377    1.33000004    2.71000004
   14.69555569  214.05200195    1.33000004    2.71000004
   14.69694424  217.08399963    1.33000004    2.71000004
   14.69833374  206.82400513    1.33000004    2.71000004
   14.69972229  176.55299377    1.33000004    2.71000004
   14.70111084  197.12399292    1.30999994    2.71000004
   14.70249939  202.11999512    1.30999994    2.71000004
   14.70388889  210.21400452    1.30999994    2.71000004
   14.70527744  212.41499329    1.30999994    2.69000006
   14.70666695  206.71899414    1.30999994    2.69000006
   14.70805550  224.83099365    1.30999994    2.71000004
   14.70944405  200.03500366    1.30999994    2.69000006
   14.71083355  211.28300476    1.33000004    2.69000006
   14.71222210  181.15800476    1.34000003    2.71000004
   14.71361065  182.62100220    1.34000003    2.71000004
   14.71500015  202.91799927    1.36000001    2.69000006
   14.71638870  207.55099487    1.38000000    2.69000006
   14.71777725  219.40400696    1.39999998    2.69000006
   14.71916580  192.43200684    1.44000006    2.71000004
   14.72055531  204.43600464    1.44000006    2.69000006
   14.72194386  201.53900146    1.44000006    2.69000006
   14.72333336  188.98500061    1.46000004    2.69000006
   14.72472191  218.11000061    1.46000004    2.69000006
   14.72611046  195.10000610    1.46000004    2.69000006
   14.72749996  196.80999756    1.46000004    2.69000006
   14.72888851  197.71899414    1.46000004    2.69000006
   14.73027706  210.94599915    1.46000004    2.69000006
   14.73166656  209.43299866    1.46000004    2.71000004
   14.73305511  198.71600342    1.46000004    2.69000006
   14.73444462  191.85699463    1.48000002    2.69000006
   14.73583317  191.73100281    1.50000000    2.69000006
   14.73722267  183.93200684    1.50000000    2.69000006
   14.73861122  210.64999390    1.50000000    2.69000006
   14.74000072  210.63699341    1.48000002    2.69000006
   14.74138927  214.95700073    1.48000002    2.69000006
   14.74277782  200.30700684    1.48000002    2.69000006
   14.74416733  198.17900085    1.48000002    2.71000004
   14.74555588  200.13499451    1.48000002    2.69000006
   14.74694443  204.44299316    1.48000002    2.69000006
   14.74833393  203.63099670    1.46000004    2.69000006
   14.74972248  209.78100586    1.46000004    2.69000006
   14.75111103  194.68400574    1.44000006    2.69000006
   14.75249958  205.71600342    1.44000006    2.71000004
   14.75388908  198.39700317    1.41999996    2.71000004
   14.75527763  202.34399414    1.41999996    2.69000006
   14.75666714  201.07600403    1.41999996    2.69000006
   14.75805569  205.58299255    1.39999998    2.71000004
   14.75944424  206.92500305    1.38000000    2.69000006
   14.76083374  199.06500244    1.39999998    2.71000004
   14.76222229  194.80000305    1.41999996    2.71000004
   14.76361084  194.97900391    1.41999996    2.71000004
   14.76500034  211.13999939    1.41999996    2.71000004
   14.76638889  207.43899536    1.41999996    2.69000006
   14.76777744  209.10699463    1.41999996    2.69000006
   14.76916599  217.05400085    1.39999998    2.71000004
   14.77055550  201.54499817    1.39999998    2.69000006
   14.77194405  194.84599304    1.38000000    2.71000004
   14.77333355  195.32200623    1.38000000    2.71000004
   14.77472210  202.36399841    1.39999998    2.71000004
   14.77611065  200.08299255    1.38000000    2.69000006
   14.77750015  168.70799255    1.38000000    2.69000006
   14.77750015  216.52699280    1.69000006    2.67000008
   14.77805519  197.06399536    1.38000000    2.69000006
   14.78138828  190.78700256    1.38000000    2.69000006
   14.78472233  208.63499451    1.39999998    2.71000004
   14.78666687  207.54699707    1.39999998    2.71000004
   14.78777790  196.99299622    1.41999996    2.71000004
   14.78916740  206.72799683    1.44000006    2.71000004
   14.79055595  204.17799377    1.46000004    2.69000006
   14.79194450  185.86500549    1.46000004    2.69000006
   14.79333401  199.69900513    1.46000004    2.71000004
   14.79472256  211.41299438    1.46000004    2.71000004
   14.79611111  194.30599976    1.46000004    2.69000006
   14.79750061  195.55299377    1.48000002    2.69000006
   14.79888916  195.26300049    1.46000004    2.69000006
   14.80027771  190.31199646    1.46000004    2.69000006
   14.80166721  195.78900146    1.46000004    2.69000006
   14.80305576  212.40400696    1.46000004    2.69000006
   14.80444431  184.50399780    1.48000002    2.71000004
   14.80583382  192.05599976    1.46000004    2.69000006
   14.80722237  204.80099487    1.48000002    2.71000004
   14.80861092  188.87100220    1.48000002    2.71000004
   14.81000042  209.64599609    1.48000002    2.69000006
   14.81138897  198.67100525    1.48000002    2.69000006
   14.81277752  190.91600037    1.48000002    2.69000006
   14.81416702  217.01699829    1.48000002    2.71000004
   14.81555557  195.64599609    1.46000004    2.71000004
   14.81694412  196.64799500    1.46000004    2.71000004
   14.81833363  209.25000000    1.44000006    2.71000004
   14.81972218  213.32899475    1.44000006    2.71000004
   14.82111073  197.89700317    1.46000004    2.69000006
   14.82250023  196.35499573    1.46000004    2.71000004
   14.82388878  203.51800537    1.44000006    2.69000006
   14.82527733  191.47000122    1.41999996    2.69000006
   14.82666683  208.75799561    1.39999998    2.71000004
   14.82805538  205.88499451    1.39999998    2.71000004
   14.82944393  208.91200256    1.39999998    2.71000004
   14.83083344  206.43600464    1.38000000    2.71000004
   14.83222198  208.84800720    1.39999998    2.71000004
   14.83361053  218.55200195    1.39999998    2.71000004
   14.83500004  188.52900696    1.38000000    2.69000006
   14.83638859  206.33799744    1.36000001    2.69000006
   14.83777714  181.06799316    1.36000001    2.69000006
   14.83916664  185.61300659    1.36000001    2.71000004
   14.84055519  222.84100342    1.34000003    2.71000004
   14.84194374  200.95300293    1.33000004    2.69000006
   14.84333324  202.56399536    1.33000004    2.71000004
   14.84472179  194.16299438    1.33000004    2.71000004
   14.84611034  203.47300720    1.33000004    2.71000004
   14.84749985  217.32299805    1.33000004    2.69000006
   14.84888840  186.05499268    1.33000004    2.69000006
   14.85027790  202.89999390    1.33000004    2.71000004
   14.85166740  206.44500732    1.33000004    2.69000006
   14.85305595  211.12600708    1.33000004    2.71000004
   14.85444450  199.24899292    1.33000004    2.71000004
   14.85583401  197.11500549    1.33000004    2.71000004
   14.85722256  189.70199585    1.33000004    2.71000004
   14.85861111  210.50799561    1.33000004    2.71000004
   14.86000061  212.57899475    1.33000004    2.69000006
   14.86138916  222.89599609    1.34000003    2.71000004
   14.86277771  197.70300293    1.34000003    2.71000004
   14.86416721  189.52400208    1.34000003    2.71000004
   14.86555576  218.86000061    1.36000001    2.71000004
   14.86694431  209.29100037    1.36000001    2.71000004
   14.86833382  185.74400330    1.38000000    2.69000006
   14.86972237  211.02499390    1.38000000    2.71000004
   14.87111092  190.01899719    1.39999998    2.71000004
   14.87250042  208.34500122    1.39999998    2.71000004
   14.87388897  214.19599915    1.39999998    2.69000006
   14.87527752  209.65400696    1.39999998    2.71000004
   14.87666702  184.71400452    1.41999996    2.71000004
   14.87805557  200.97900391    1.44000006    2.69000006
   14.87944412  176.29100037    1.44000006    2.71000004
   14.88083363  210.06599426    1.44000006    2.71000004
   14.88222218  197.27400208    1.44000006    2.71000004
   14.88361073  203.83200073    1.46000004    2.71000004
   14.88500023  201.29200745    1.44000006    2.71000004
   14.88638878  192.44799805    1.46000004    2.71000004
   14.88777733  190.31300354    1.46000004    2.71000004
   14.88916683  194.58999634    1.46000004    2.71000004
   14.89055538  182.90699768    1.46000004    2.71000004
   14.89194393  178.36399841    1.48000002    2.71000004
   14.89333344  201.04899597    1.48000002    2.71000004
   14.89472198  193.45799255    1.50000000    2.71000004
   14.89611053  182.16499329    1.50000000    2.71000004
   14.89750004  213.91400146    1.50000000    2.71000004
   14.89888859  192.98800659    1.50000000    2.71000004
   14.90027714  167.45100403    1.50000000    2.71000004
   14.90055561  197.06399536    1.38000000    2.69000006
   14.90055561  190.78700256    1.38000000    2.69000006
   14.90055561  208.63499451    1.39999998    2.71000004
   14.90111065  174.10899353    1.50000000    2.71000004
   14.90444374  185.36199951    1.50000000    2.71000004
   14.90749931  194.41400146    1.51999998    2.71000004
   14.91083336  170.43200684    1.55999994    2.71000004
   14.91388893  158.00199890    1.55999994    2.71000004
   14.91722298  171.63499451    1.53999996    2.71000004
   14.92138958  171.63499451    1.51999998    2.69000006
   14.92555618  207.60400391    1.50000000    2.71000004
   14.92750072  197.01499939    1.50000000    2.71000004
   14.92861176  195.11700439    1.50000000    2.71000004
   14.93000031  192.97399902    1.50000000    2.71000004
   14.93138885  175.26199341    1.48000002    2.71000004
   14.93277836  185.71299744    1.48000002    2.69000006
   14.93416691  171.98599243    1.48000002    2.71000004
   14.93555546  192.43800354    1.48000002    2.71000004
   14.93694496  155.04600525    1.46000004    2.69000006
   14.93722248  174.10899353    1.50000000    2.71000004
   14.93722248  185.36199951    1.50000000    2.71000004
   14.93722248  194.41400146    1.51999998    2.71000004
   14.93722248  170.43200684    1.55999994    2.71000004
   14.93722248  158.00199890    1.55999994    2.71000004
   14.93750000  171.63499451    1.53999996    2.71000004
   14.93750000  207.60400391    1.50000000    2.71000004
   14.93805599  187.06500244    1.44000006    2.69000006
   14.94138908  180.77299500    1.41999996    2.71000004
   14.94444466  196.80499268    1.38000000    2.71000004
   14.94777775  174.57600403    1.36000001    2.71000004
   14.95111084  186.80999756    1.33000004    2.71000004
   14.95777798  186.80999756    1.26999998    2.71000004
   14.96194458  198.29299927    1.25000000    2.71000004
   14.96527767  196.14900208    1.23000002    2.71000004
   14.96833324  203.58599854    1.23000002    2.71000004
   14.97055531  200.00399780    1.23000002    2.71000004
   14.97166634  215.18699646    1.23000002    2.71000004
   14.97305489  179.58900452    1.25000000    2.71000004
   14.97444439  188.00900269    1.23000002    2.71000004
   14.97583294  186.82299805    1.21000004    2.71000004
   14.97722149  201.07800293    1.21000004    2.69000006
   14.97861099  193.82099915    1.21000004    2.69000006
   14.97999954  181.30999756    1.19000006    2.69000006
   14.98138809  184.06599426    1.19000006    2.71000004
   14.98277760  195.79400635    1.19000006    2.71000004
   14.98416710  189.62500000    1.16999996    2.71000004
   14.98555565  169.40299988    1.16999996    2.71000004
   14.98555565  187.06500244    1.44000006    2.69000006
   14.98583317  180.77299500    1.41999996    2.71000004
   14.98583317  196.80499268    1.38000000    2.71000004
   14.98583317  174.57600403    1.36000001    2.71000004
   14.98583317  186.80999756    1.33000004    2.71000004
   14.98583317  198.29299927    1.25000000    2.71000004
   14.98611164  196.14900208    1.23000002    2.71000004
   14.98611164  203.58599854    1.23000002    2.71000004
   14.98666668  162.72000122    1.16999996    2.71000004
   14.99000072  185.41499329    1.14999998    2.71000004
   14.99305534  184.12699890    1.13000000    2.71000004
   14.99638939  186.97399902    1.11000001    2.71000004
   14.99972248  181.00799561    1.11000001    2.71000004
   15.00638866  181.00799561    1.03999996    2.71000004
   15.01055527  193.42599487    1.01999998    2.71000004
   15.01388931  195.05099487    1.00000000    2.71000004
   15.01694393  195.55200195    0.95999998    2.71000004
   15.01944447  171.65899658    0.95999998    2.71000004
   15.02055550  180.87399292    0.94000000    2.69000006
   15.02361107  198.39500427    0.89999998    2.71000004
   15.02694416  180.12100220    0.89999998    2.71000004
   15.03027725  178.93800354    0.88000000    2.69000006
   15.03333378  184.86099243    0.88000000    2.69000006
   15.03666687  177.43499756    0.88000000    2.71000004
   15.03972244  184.20899963    0.88000000    2.71000004
   15.04305553  178.98899841    0.88000000    2.71000004
   15.04916668  178.98899841    0.88000000    2.71000004
   15.05333328  169.33599854    0.86000001    2.71000004
   15.05666733  155.20399475    0.88000000    2.71000004
   15.05972195  185.02999878    0.88000000    2.71000004
   15.06305599  173.04200745    0.88000000    2.71000004
   15.06638908  171.58399963    0.88000000    2.71000004
   15.06944466  171.39599609    0.89999998    2.71000004
   15.07277775  185.18099976    0.86000001    2.71000004
   15.07611084  180.71099854    0.83999997    2.71000004
   15.07916641  165.55000305    0.83999997    2.71000004
   15.08249950  170.08500671    0.81999999    2.71000004
   15.08583260  179.76600647    0.80000001    2.71000004
   15.08611107  159.86000061    0.80000001    2.71000004
   15.09222221  159.86000061    0.80000001    2.71000004
   15.09611034  186.17300415    0.81999999    2.71000004
   15.09944439  180.25199890    0.81999999    2.73000002
   15.10277843  177.18200684    0.81999999    2.71000004
   15.10583401  166.07600403    0.83999997    2.73000002
   15.10916710  168.41700745    0.83999997    2.71000004
   15.11250019  178.20700073    0.83999997    2.71000004
   15.11555576  174.51800537    0.80000001    2.73000002
   15.11888885  166.38900757    0.80000001    2.71000004
   15.11944485  180.48100281    0.80000001    2.71000004
   15.12250042  164.83200073    0.80000001    2.71000004
   15.12583351  187.07899475    0.80000001    2.71000004
   15.12888908  141.25900269    0.79000002    2.71000004
   15.13500023  141.25900269    0.76999998    2.73000002
   15.13916683  176.73300171    0.75000000    2.73000002
   15.14222240  169.93800354    0.73000002    2.71000004
   15.14555550  179.75599670    0.73000002    2.71000004
   15.14888859  187.08799744    0.76999998    2.71000004
   15.15194416  176.31500244    0.70999998    2.71000004
   15.15277767  169.40299988    0.69000000    2.71000004
   15.15555477  157.57600403    0.70999998    2.71000004
   15.15888882  176.35099792    0.67000002    2.71000004
   15.16194439  176.42500305    0.67000002    2.71000004
   15.16527748  159.99000549    0.64999998    2.71000004
   15.16833401  165.55900574    0.63000000    2.73000002
   15.17166710  155.82899475    0.61000001    2.71000004
   15.17777824  155.82899475    0.56999999    2.73000002
   15.18194485  162.36599731    0.56999999    2.71000004
   15.18527794  187.78900146    0.55000001    2.71000004
   15.18611145  168.58700562    0.56999999    2.71000004
   15.18861103  158.45300293    0.56999999    2.71000004
   15.19194412  167.78500366    0.56999999    2.69000006
   15.19499969  176.50799561    0.55000001    2.71000004
   15.19833374  158.00999451    0.55000001    2.71000004
   15.20166683  174.55700684    0.52999997    2.71000004
   15.20472240  176.72799683    0.51999998    2.73000002
   15.20805550  177.85200500    0.50000000    2.73000002
   15.21111107  176.26499939    0.47999999    2.71000004
   15.21444416  169.69799805    0.47999999    2.71000004
   15.22055531  169.69799805    0.41999999    2.73000002
   15.22472191  168.92500305    0.40000001    2.73000002
   15.22805500  156.38600159    0.40000001    2.71000004
   15.23111057  183.62899780    0.38000000    2.71000004
   15.23444462  178.08799744    0.34000000    2.71000004
   15.23777771  176.40699768    0.31999999    2.71000004
   15.24083328  176.03999329    0.30000001    2.71000004
   15.24416733  149.51499939    0.30000001    2.73000002
   15.24750042  167.66900635    0.28000000    2.73000002
   15.25055599  156.14599609    0.25999999    2.73000002
   15.25277805  148.60499573    0.25999999    2.73000002
   15.25416660  151.49000549    0.25000000    2.71000004
   15.25749969  154.32099915    0.23000000    2.71000004
   15.26361084  154.32099915    0.23000000    2.73000002
   15.26749992  169.60000610    0.20999999    2.73000002
   15.27083302  145.38600159    0.19000000    2.73000002
   15.27416611  145.44999695    0.17000000    2.73000002
   15.27722168  150.85699463    0.17000000    2.73000002
   15.28055573  153.32299805    0.15000001    2.73000002
   15.28388977  150.07000732    0.13000000    2.73000002
   15.28611183  156.01400757    0.11000000    2.73000002
   15.28722286  169.01600647    0.11000000    2.73000002
   15.29055595  162.88200378    0.11000000    2.71000004
   15.29361153  145.79400635    0.11000000    2.71000004
   15.29694462  155.19599915    0.09000000    2.73000002
   15.30027771  147.38699341    0.09000000    2.73000002
   15.30638885  147.38699341    0.07000000    2.73000002
   15.31055546  158.45500183    0.07000000    2.71000004
   15.31361103  154.39100647    0.05000000    2.73000002
   15.31694412  156.86700439    0.05000000    2.73000002
   15.31944466  150.34800720    0.07000000    2.73000002
   15.32055569  154.85099792    0.07000000    2.73000002
   15.32388878  152.93400574    0.05000000    2.71000004
   15.32694435  157.04499817    0.07000000    2.75000000
   15.33027744  160.07600403    0.05000000    2.71000004
   15.33361053  160.75700378    0.05000000    2.73000002
   15.33666611  160.16600037    0.05000000    2.73000002
   15.34000015  164.22599792    0.05000000    2.73000002
   15.34305477  159.48300171    0.05000000    2.73000002
   15.34916592  159.48300171    0.05000000    2.73000002
   15.36888885  172.00199890    0.05000000    2.73000002
   15.37222195  172.79299927    0.07000000    2.73000002
   15.37527752  150.82299805    0.05000000    2.73000002
   15.37861156  147.43600464    0.07000000    2.73000002
   15.38166714  149.30000305    0.05000000    2.71000004
   15.38500023  139.54499817    0.05000000    2.73000002
   15.38833332  138.30299377    0.05000000    2.71000004
   15.39222240  138.30299377    0.05000000    2.71000004
   15.39638901  135.24200439    0.05000000    2.71000004
   15.39972210  144.37600708    0.05000000    2.71000004
   15.40194416  136.02099609    0.05000000    2.71000004
   15.40333271  131.50000000    0.05000000    2.73000002
   15.40638828  139.31700134    0.05000000    2.73000002
   15.40972137  157.74299622    0.03000000    2.71000004
   15.41305542  137.44299316    0.05000000    2.73000002
   15.41611099  134.19599915    0.05000000    2.71000004
   15.41944504  140.88900757    0.05000000    2.73000002
   15.42250061  150.50399780    0.03000000    2.73000002
   15.42583370  134.80499268    0.05000000    2.71000004
   15.42916679  147.56199646    0.03000000    2.73000002
   15.43527794  147.56199646    0.03000000    2.71000004
   15.43944454  134.06500244    0.05000000    2.71000004
   15.44250011  163.64500427    0.03000000    2.71000004
   15.44583321  155.76199341    0.03000000    2.71000004
   15.44888878  151.84599304    0.03000000    2.71000004
   15.45222187  151.86999512    0.03000000    2.71000004
   15.45555496  141.88600159    0.03000000    2.73000002
   15.45861053  144.12100220    0.03000000    2.71000004
   15.46194458  131.96800232    0.03000000    2.73000002
   15.46527767  132.24499512    0.03000000    2.75000000
   15.46833324  149.80599976    0.03000000    2.73000002
   15.47027779  135.15400696    0.03000000    2.71000004
   15.47194386  156.01100159    0.03000000    2.73000002
   15.47805500  156.01100159    0.03000000    2.73000002
   15.48222160  146.59100342    0.03000000    2.73000002
   15.48527813  125.02300262    0.03000000    2.75000000
   15.48861122  148.68299866    0.03000000    2.73000002
   15.49194431  149.88099670    0.03000000    2.73000002
   15.49499989  143.39100647    0.03000000    2.75000000
   15.49833393  143.39900208    0.03000000    2.73000002
   15.50166702  152.45199585    0.03000000    2.73000002
   15.50361156  141.58900452    0.03000000    2.73000002
   15.50500011  155.87800598    0.03000000    2.73000002
   15.50833321  157.68899536    0.03000000    2.73000002
   15.51166630  161.98500061    0.03000000    2.73000002
   15.51472187  150.71800232    0.03000000    2.71000004
   15.52083302  150.71800232    0.03000000    2.71000004
   15.52499962  135.55499268    0.03000000    2.73000002
   15.52833271  135.67300415    0.03000000    2.73000002
   15.53138828  136.46299744    0.03000000    2.73000002
   15.53472233  148.94099426    0.03000000    2.71000004
   15.53694534  137.74499512    0.03000000    2.73000002
   15.53833389  135.39100647    0.03000000    2.73000002
   15.54166698  131.16200256    0.03000000    2.73000002
   15.54472256  139.24099731    0.03000000    2.71000004
   15.54805565  138.35699463    0.03000000    2.73000002
   15.55138874  149.96400452    0.03000000    2.73000002
   15.55444431  144.93899536    0.03000000    2.73000002
   15.55777836  140.64399719    0.03000000    2.73000002
   15.56361103  140.64399719    0.03000000    2.75000000
   15.56777763  148.14599609    0.03000000    2.75000000
   15.57027817  143.75500488    0.03000000    2.73000002
   15.57138920  149.99400330    0.03000000    2.73000002
   15.57472229  141.95700073    0.03000000    2.73000002
   15.57777786  149.39900208    0.03000000    2.73000002
   15.58111095  140.16400146    0.03000000    2.73000002
   15.58444405  159.62399292    0.03000000    2.71000004
   15.58749962  139.22200012    0.03000000    2.73000002
   15.59083271  144.20500183    0.03000000    2.73000002
   15.59388828  152.57499695    0.03000000    2.73000002
   15.59722233  142.04100037    0.03000000    2.75000000
   15.60055637  161.56399536    0.03000000    2.73000002
   15.60666752  161.56399536    0.03000000    2.73000002
   15.61083412  136.28500366    0.03000000    2.73000002
   15.61388969  133.71000671    0.03000000    2.73000002
   15.61722279  158.68299866    0.03000000    2.73000002
   15.62027836  149.01199341    0.03000000    2.75000000
   15.62361145  146.18800354    0.03000000    2.73000002
   15.62694454  131.67500305    0.03000000    2.73000002
   15.63000011  138.26600647    0.03000000    2.73000002
   15.63333321  140.51499939    0.03000000    2.73000002
   15.63666630  148.55299377    0.03000000    2.73000002
   15.63749981  132.70500183    0.03000000    2.73000002
   15.64027786  136.37199402    0.03000000    2.75000000
   15.64333344  137.56100464    0.03000000    2.75000000
   15.64944458  137.56100464    0.03000000    2.73000002
   15.65361118  129.37500000    0.03000000    2.75000000
   15.65666676  131.11199951    0.03000000    2.71000004
   15.65999985  131.94900513    0.03000000    2.71000004
   15.66333294  142.42999268    0.03000000    2.73000002
   15.66638851  134.08099365    0.03000000    2.75000000
   15.66972256  124.80999756    0.03000000    2.73000002
   15.67083359  126.99800110    0.03000000    2.73000002
   15.67333412  129.86799622    0.03000000    2.75000000
   15.67638874  133.12500000    0.03000000    2.73000002
   15.67972279  133.20500183    0.03000000    2.73000002
   15.68305588  134.61399841    0.03000000    2.73000002
   15.68611145  142.33599854    0.03000000    2.73000002
   15.69222260  142.33599854    0.03000000    2.73000002
   15.69638920  131.87800598    0.03000000    2.73000002
   15.69972229  132.70700073    0.03000000    2.73000002
   15.70277786  137.79400635    0.03000000    2.73000002
   15.70444393  132.95199585    0.03000000    2.73000002
   15.70638847  133.51300049    0.03000000    2.73000002
   15.70972157  139.64700317    0.03000000    2.73000002
   15.71305561  144.80900574    0.03000000    2.73000002
   15.71611118  128.33900452    0.03000000    2.73000002
   15.71944427  129.40199280    0.03000000    2.71000004
   15.72249985  126.19200134    0.03000000    2.73000002
   15.72583294  141.71099854    0.03000000    2.73000002
   15.72916603  128.29499817    0.03000000    2.73000002
   15.73500061  128.29499817    0.03000000    2.73000002
   15.73916721  131.47099304    0.03000000    2.71000004
   15.74250031  137.85600281    0.03000000    2.73000002
   15.74583340  136.01100159    0.03000000    2.73000002
   15.74888897  138.41400146    0.03000000    2.71000004
   15.75222206  135.48100281    0.03000000    2.73000002
   15.75527763  140.36900330    0.03000000    2.73000002
   15.75861073  132.17700195    0.03000000    2.71000004
   15.76194477  134.81199646    0.03000000    2.73000002
   15.76500034  134.11999512    0.01000000    2.71000004
   15.76833344  136.26100159    0.03000000    2.73000002
   15.77111053  129.27799988    0.01000000    2.73000002
   15.77194405  133.19599915    0.01000000    2.73000002
   15.77805519  133.19599915    0.01000000    2.71000004
   15.78222179  130.04400635    0.01000000    2.73000002
   15.78527832  132.72099304    0.01000000    2.71000004
   15.78861141  135.99499512    0.01000000    2.71000004
   15.79166698  129.88800049    0.01000000    2.71000004
   15.79500008  136.67999268    0.03000000    2.73000002
   15.79833412  132.94900513    0.01000000    2.71000004
   15.80138874  131.37300110    0.01000000    2.71000004
   15.80444431  136.42700195    0.03000000    2.71000004
   15.80500031  131.70199585    0.03000000    2.71000004
   15.80833340  132.94700623    0.01000000    2.71000004
   15.81166649  132.42900085    0.03000000    2.71000004
   15.81472206  132.01100159    0.03000000    2.71000004
   15.82083321  132.01100159    0.03000000    2.71000004
   15.82499981  132.22700500    0.03000000    2.71000004
   15.82805538  132.98399353    0.03000000    2.71000004
   15.83138847  135.42999268    0.01000000    2.71000004
   15.83472157  136.35099792    0.03000000    2.71000004
   15.83777714  138.98199463    0.01000000    2.71000004
   15.83805561  138.33500671    0.01000000    2.71000004
   15.84138870  144.11099243    0.01000000    2.71000004
   15.84472179  139.52200317    0.01000000    2.71000004
   15.84777737  134.57200623    0.01000000    2.73000002
   15.85111141  133.20399475    0.01000000    2.69000006
   15.85416698  140.70100403    0.03000000    2.69000006
   15.85750008  134.03399658    0.01000000    2.69000006
   15.86361122  134.03399658    0.01000000    2.69000006
   15.86777782  138.97099304    0.01000000    2.67000008
   15.87111092  137.97500610    0.03000000    2.64000010
   15.87138939  135.40199280    0.03000000    2.64000010
   15.87472248  137.66999817    0.03000000    2.57999992
   15.87805557  137.12399292    0.01000000    2.48000002
   15.88111115  133.03100586    0.03000000    2.39000010
   15.88444424  137.06900024    0.01000000    2.28999996
   15.88749981  138.01600647    0.01000000    2.13000011
   15.89083290  134.51499939    0.03000000    2.00000000
   15.89416695  130.10099792    0.01000000    1.85000002
   15.89722252  136.37800598    0.01000000    1.69000006
   15.90055561  132.79499817    0.01000000    1.51999998
   15.90638828  132.79499817    0.01000000    1.25000000
   15.91055489  139.83599854    0.01000000    0.95999998
   15.91388893  134.02499390    0.01000000    0.80000001
   15.91722298  143.32000732    0.03000000    0.63000000
   15.92027855  134.69799805    0.03000000    0.50000000
   15.92361164  139.23800659    0.01000000    0.36000001
   15.92694473  135.78799438    0.01000000    0.25000000
   15.93000031  132.54699707    0.01000000    0.15000001
   15.93333340  134.77999878    0.01000000    0.09000000
   15.93666649  130.94900513    0.03000000    0.05000000
   15.93777752  130.30799866    0.03000000    0.05000000
   15.94000053  133.38099670    0.03000000    0.01000000
   15.94333363  136.05900574    0.01000000    0.01000000
   15.94944477  136.05900574    0.01000000    0.01000000
   15.95361137  135.51100159    0.01000000    0.01000000
   15.95666695  136.29499817    0.01000000    0.01000000
   15.96000004  134.74499512    0.01000000    0.01000000
   15.96305561  134.56700134    0.01000000    0.01000000
   15.96638870  133.10499573    0.01000000    0.01000000
   15.96972179  133.96699524    0.01000000    0.01000000
   15.97111034  130.75599670    0.01000000    0.01000000
   15.97305489  137.17399597    0.01000000    0.01000000
   15.97638798  139.62300110    0.01000000    0.01000000
   15.97972202  133.47300720    0.01000000    0.01000000
   15.98277760  133.89700317    0.01000000    0.01000000
   15.98611164  133.24000549    0.01000000    0.01000000
   15.99222279  133.24000549    0.01000000    0.01000000
   15.99638939  131.54899597    0.01000000    0.01000000
   15.99944496  131.61900330    0.01000000    0.01000000
   16.00277710  129.99099731    0.01000000    0.01000000
   16.00472260  137.00700378    0.01000000    0.01000000
   16.00638962  128.70799255    0.01000000    0.01000000
   16.00972176  135.42399597    0.01000000    0.01000000
   16.01305580  131.76199341    0.01000000    0.01000000
   16.01611137  135.25599670    0.01000000    0.01000000
   16.01944351  136.32800293    0.01000000    0.01000000
   16.02249908  129.52699280    0.01000000    0.01000000
   16.02583313  129.99699402    0.01000000    0.01000000
   16.02916718  137.65199280    0.01000000    0.01000000
   16.03499985  137.65199280    0.01000000    0.01000000
   16.03916550  133.14500427    0.01000000    0.01000000
   16.04249954  135.48399353    0.01000000    0.01000000
   16.04555511  138.88699341    0.01000000    0.01000000
   16.04888916  134.36700439    0.01000000    0.01000000
   16.05222130  133.02099609    0.01000000    0.01000000
   16.05527687  139.46200562    0.01000000    0.01000000
   16.05861092  134.90299988    0.01000000    0.01000000
   16.06166649  143.89399719    0.01000000    0.01000000
   16.06499863  132.80999756    0.01000000    0.01000000
   16.06833458  134.97799683    0.01000000    0.01000000
   16.07139015  134.37899780    0.01000000    0.01000000
   16.07166672  130.14399719    0.01000000    0.01000000
   16.07777786  130.14399719    0.01000000    0.01000000
   16.08194542  126.71199799    0.01000000    0.01000000
   16.08527756  134.36399841    0.01000000    0.01000000
   16.08861160  131.17999268    0.01000000    0.01000000
   16.09166718  144.25900269    0.01000000    0.01000000
   16.09500122  134.21299744    0.01000000    0.01000000
   16.09805679  130.62600708    0.01000000    0.01000000
   16.10138893  130.87199402    0.01000000    0.01000000
   16.10472298  130.39799500    0.01000000    0.01000000
   16.10499954  132.64900208    0.01000000    0.01000000
   16.10833359  137.49099731    0.01000000    0.01000000
   16.11166763  136.55499268    0.01000000    0.01000000
   16.11472321  134.84800720    0.01000000    0.01000000
   16.12083435  134.84800720    0.01000000    0.01000000
   16.12500000  135.46099854    0.01000000    0.01000000
   16.12805557  133.61599731    0.01000000    0.01000000
   16.13138962  137.38900757    0.01000000    0.01000000
   16.13444519  134.20100403    0.01000000    0.01000000
   16.13777733  131.82400513    0.01000000    0.01000000
   16.13833237  130.57899475    0.01000000    0.01000000
   16.14138794  131.20899963    0.01000000    0.01000000
   16.14472198  130.81799316    0.01000000    0.01000000
   16.14805603  133.63299561    0.01000000    0.01000000
   16.15111160  134.91600037    0.01000000    0.01000000
   16.15444374  135.25999451    0.01000000    0.01000000
   16.15777779  133.54299927    0.01000000    0.01000000
   16.16361046  133.54299927    0.01000000    0.01000000
   16.16777802  136.44400024    0.01000000    0.01000000
   16.17083359  134.15499878    0.01000000    0.01000000
   16.17166519  133.22300720    0.01000000    0.01000000
   16.17472076  131.87500000    0.01000000    0.01000000
   16.17777634  134.60400391    0.01000000    0.01000000
   16.18111038  135.66400146    0.01000000    0.01000000
   16.18416595  139.42799377    0.01000000    0.01000000
   16.18750000  142.66499329    0.01000000    0.01000000
   16.19083214  144.33799744    0.01000000    0.01000000
   16.19388771  135.34800720    0.01000000    0.01000000
   16.19722176  131.80400085    0.01000000    0.01000000
   16.20055580  134.78199768    0.01000000    0.01000000
   16.20639038  134.78199768    0.01000000    0.01000000
   16.21055603  131.70700073    0.01000000    0.01000000
   16.21389008  134.15199280    0.01000000    0.01000000
   16.21694565  133.15199280    0.01000000    0.01000000
   16.22027779  131.04400635    0.01000000    0.01000000
   16.22361183  133.13900757    0.01000000    0.01000000
   16.22666740  132.58200073    0.01000000    0.01000000
   16.23000145  127.76899719    0.01000000    0.01000000
   16.23305511  133.97500610    0.01000000    0.01000000
   16.23638916  135.62699890    0.01000000    0.01000000
   16.23833275  133.84399414    0.01000000    0.01000000
   16.23999977  131.04499817    0.01000000    0.01000000
   16.24333382  134.19200134    0.01000000    0.01000000
   16.24916649  134.19200134    0.01000000    0.01000000
   16.25333405  131.66299438    0.01000000    0.01000000
   16.25666618  129.43400574    0.01000000    0.01000000
   16.26000023  134.09800720    0.01000000    0.01000000
   16.26305580  133.95300293    0.01000000    0.01000000
   16.26638794  130.16200256    0.01000000    0.01000000
   16.26944351  131.90100098    0.01000000    0.01000000
   16.27166557  129.94599915    0.01000000    0.01000000
   16.27305603  131.49899292    0.01000000    0.01000000
   16.27638817  131.39999390    0.01000000    0.01000000
   16.27972221  136.16099548    0.01000000    0.01000000
   16.28277779  132.23899841    0.01000000    0.01000000
   16.28610992  132.12300110    0.01000000    0.01000000
   16.29222107  132.12300110    0.01000000    0.01000000
   16.29638863  137.26600647    0.01000000    0.01000000
   16.29944420  134.61599731    0.01000000    0.01000000
   16.30277634  129.88200378    0.01000000    0.01000000
   16.30499840  136.14999390    0.01000000    0.01000000
   16.30611038  135.79600525    0.01000000    0.01000000
   16.30944443  128.70199585    0.01000000    0.01000000
   16.31277657  137.78900146    0.01000000    0.01000000
   16.31583214  133.13699341    0.01000000    0.01000000
   16.31916809  134.76199341    0.01000000    0.01000000
   16.32250023  134.80999756    0.01000000    0.01000000
   16.32555580  130.32600403    0.01000000    0.01000000
   16.32888985  128.06399536    0.01000000    0.01000000
   16.33500099  128.06399536    0.01000000    0.01000000
   16.33916664  126.79199982    0.01000000    0.01000000
   16.34250069  132.91799927    0.01000000    0.01000000
   16.34555626  137.73699951    0.01000000    0.01000000
   16.34889030  134.02999878    0.01000000    0.01000000
   16.35222244  130.55400085    0.01000000    0.01000000
   16.35527802  135.20799255    0.01000000    0.01000000
   16.35861206  136.77200317    0.01000000    0.01000000
   16.36194420  135.05999756    0.01000000    0.01000000
   16.36499977  135.30200195    0.01000000    0.01000000
   16.36833382  136.35000610    0.01000000    0.01000000
   16.38555527  135.06900024    0.01000000    0.01000000
   16.38972282  135.06900024    0.01000000    0.01000000
   16.39388847  133.68899536    0.01000000    0.01000000
   16.39694405  138.55400085    0.01000000    0.01000000
   16.40027809  130.49499512    0.01000000    0.01000000
   16.40333366  133.34700012    0.01000000    0.01000000
   16.40666580  133.56700134    0.01000000    0.01000000
   16.40999985  138.00999451    0.01000000    0.01000000
   16.41305542  134.33099365    0.01000000    0.01000000
   16.41638756  132.68899536    0.01000000    0.01000000
   16.41888809  134.15299988    0.01000000    0.01000000
   16.42000008  132.87600708    0.01000000    0.01000000
   16.42333221  133.02499390    0.01000000    0.01000000
   16.42666626  133.78199768    0.01000000    0.01000000
   16.43249893  133.78199768    0.01000000    0.01000000
   16.43666649  136.96499634    0.01000000    0.01000000
   16.43972206  136.90499878    0.01000000    0.01000000
   16.44305420  130.48399353    0.01000000    0.01000000
   16.44638824  129.64199829    0.01000000    0.01000000
   16.44944382  134.79899597    0.01000000    0.01000000
   16.45222282  136.13900757    0.01000000    0.01000000
   16.45305634  134.67300415    0.01000000    0.01000000
   16.45639038  128.66099548    0.01000000    0.01000000
   16.45972252  132.24200439    0.01000000    0.01000000
   16.46277809  131.70700073    0.01000000    0.01000000
   16.46611214  130.22099304    0.01000000    0.01000000
   16.46916771  134.11900330    0.01000000    0.01000000
   16.47527885  134.11900330    0.01000000    0.01000000
   16.47944450  128.63699341    0.01000000    0.01000000
   16.48277855  133.56199646    0.01000000    0.01000000
   16.48555565  129.69700623    0.01000000    0.01000000
   16.48611069  130.89399719    0.01000000    0.01000000
   16.48944473  132.74000549    0.01000000    0.01000000
   16.49250031  132.66400146    0.01000000    0.01000000
   16.49583435  131.97399902    0.01000000    0.01000000
   16.49916649  135.18299866    0.01000000    0.01000000
   16.50222206  135.07200623    0.01000000    0.01000000
   16.50555611  134.89300537    0.01000000    0.01000000
   16.50888824  131.96299744    0.01000000    0.01000000
   16.51194382  132.09599304    0.01000000    0.01000000
   16.51805496  132.09599304    0.01000000    0.01000000
   16.52222252  131.69000244    0.01000000    0.01000000
   16.52555466  133.88400269    0.01000000    0.01000000
   16.52888870  132.41000366    0.01000000    0.01000000
   16.53194427  130.00900269    0.01000000    0.01000000
   16.53527641  134.23899841    0.01000000    0.01000000
   16.53833199  133.47300720    0.01000000    0.01000000
   16.54166603  131.39700317    0.01000000    0.01000000
   16.54500008  125.92400360    0.01000000    0.01000000
   16.54805565  133.97700500    0.01000000    0.01000000
   16.55138779  135.39999390    0.01000000    0.01000000
   16.55305481  135.05599976    0.01000000    0.01000000
   16.55499840  130.49000549    0.01000000    0.01000000
   16.56110954  130.49000549    0.01000000    0.01000000
   16.56527710  133.12500000    0.01000000    0.01000000
   16.56833458  134.74299622    0.01000000    0.01000000
   16.57166672  136.77999878    0.01000000    0.01000000
   16.57472229  132.93499756    0.01000000    0.01000000
   16.57805634  135.24800110    0.01000000    0.01000000
   16.58139038  130.67999268    0.01000000    0.01000000
   16.58444595  132.03300476    0.01000000    0.01000000
   16.58638954  136.82499695    0.01000000    0.01000000
   16.58805656  130.00999451    0.01000000    0.01000000
   16.59138870  130.29400635    0.01000000    0.01000000
   16.59444427  130.65499878    0.01000000    0.01000000
   16.59777832  131.16299438    0.01000000    0.01000000
   16.60388947  131.16299438    0.01000000    0.01000000
   16.60805511  133.17900085    0.01000000    0.01000000
   16.61111069  131.18699646    0.01000000    0.01000000
   16.61444473  136.02000427    0.01000000    0.01000000
   16.61777878  134.07899475    0.01000000    0.01000000
   16.62000084  132.31100464    0.01000000    0.01000000
   16.62138939  133.14599609    0.01000000    0.01000000
   16.62444496  135.39799500    0.01000000    0.01000000
   16.62777710  137.36300659    0.01000000    0.01000000
   16.63111115  130.69200134    0.01000000    0.01000000
   16.63416672  131.69299316    0.01000000    0.01000000
   16.63750076  132.61599731    0.01000000    0.01000000
   16.64055634  138.16000366    0.01000000    0.01000000
   16.64666748  138.16000366    0.01000000    0.01000000
   16.65083313  132.30299377    0.01000000    0.01000000
   16.65333366  130.35400391    0.01000000    0.01000000
   16.65444374  130.79400635    0.01000000    0.01000000
   16.65749931  136.82200623    0.01000000    0.01000000
   16.66083336  131.60099792    0.01000000    0.01000000
   16.66416550  130.38299561    0.01000000    0.01000000
   16.66722107  134.68800354    0.01000000    0.01000000
   16.67055511  131.92599487    0.01000000    0.01000000
   16.67361069  130.82800293    0.01000000    0.01000000
   16.67694473  129.50900269    0.01000000    0.01000000
   16.68027687  129.89599609    0.01000000    0.01000000
   16.68333244  130.17300415    0.01000000    0.01000000
   16.68944359  130.17300415    0.01000000    0.01000000
   16.69361115  135.73599243    0.01000000    0.01000000
   16.69694328  134.38900757    0.01000000    0.01000000
   16.70000076  133.65499878    0.01000000    0.01000000
   16.70333481  129.69099426    0.01000000    0.01000000
   16.70666695  133.47799683    0.01000000    0.01000000
   16.71000099  130.45899963    0.01000000    0.01000000
   16.71305656  134.70799255    0.01000000    0.01000000
   16.71638870  134.52600098    0.01000000    0.01000000
   16.71944427  131.67599487    0.01000000    0.01000000
   16.72055626  128.86300659    0.01000000    0.01000000
   16.72305679  132.68200684    0.01000000    0.01000000
   16.72638893  132.96200562    0.01000000    0.01000000
   16.73250008  132.96200562    0.01000000    0.01000000
   16.73638916  138.33700562    0.01000000    0.01000000
   16.73972321  133.78599548    0.01000000    0.01000000
   16.74305534  130.10299683    0.01000000    0.01000000
   16.74611092  130.58500671    0.01000000    0.01000000
   16.74944496  134.05099487    0.01000000    0.01000000
   16.75277710  133.90699768    0.01000000    0.01000000
   16.75388908  132.50799561    0.01000000    0.01000000
   16.75611115  128.13999939    0.01000000    0.01000000
   16.75944519  125.20099640    0.01000000    0.01000000
   16.76277733  130.78300476    0.01000000    0.01000000
   16.76583290  127.38600159    0.01000000    0.01000000
   16.76916695  129.91099548    0.01000000    0.01000000
   16.77527809  129.91099548    0.01000000    0.01000000
   16.77944374  130.64500427    0.01000000    0.01000000
   16.78249931  130.81199646    0.01000000    0.01000000
   16.78583336  133.11799622    0.01000000    0.01000000
   16.78722191  131.38999939    0.01000000    0.01000000
   16.78944397  135.25100708    0.01000000    0.01000000
   16.79277802  132.21800232    0.01000000    0.01000000
   16.79611015  130.72399902    0.01000000    0.01000000
   16.79916573  129.57499695    0.01000000    0.01000000
   16.80249977  132.83099365    0.01000000    0.01000000
   16.80583191  131.96699524    0.01000000    0.01000000
   16.80888748  132.03700256    0.01000000    0.01000000
   16.81222153  130.91299438    0.01000000    0.01000000
   16.81805611  130.91299438    0.01000000    0.01000000
   16.82222366  130.58599854    0.01000000    0.01000000
   16.82555580  132.29899597    0.01000000    0.01000000
   16.82861137  136.07800293    0.01000000    0.01000000
   16.83194542  131.43600464    0.01000000    0.01000000
   16.83527756  129.46699524    0.01000000    0.01000000
   16.83833313  131.71200562    0.01000000    0.01000000
   16.84166718  130.11399841    0.01000000    0.01000000
   16.84472275  129.59100342    0.01000000    0.01000000
   16.84805679  133.03300476    0.01000000    0.01000000
   16.85138893  129.75300598    0.01000000    0.01000000
   16.85388947  133.97500610    0.01000000    0.01000000
   16.85499954  131.98500061    0.01000000    0.01000000
   16.86083412  131.98500061    0.01000000    0.01000000
   16.86499977  134.61300659    0.01000000    0.01000000
   16.86833382  129.63600159    0.01000000    0.01000000
   16.87166595  127.61599731    0.01000000    0.01000000
   16.87472153  134.99099731    0.01000000    0.01000000
   16.87805557  132.57899475    0.01000000    0.01000000
   16.88138962  132.66700745    0.01000000    0.01000000
   16.88444519  130.70899963    0.01000000    0.01000000
   16.88722229  129.75100708    0.01000000    0.01000000
   16.88805580  129.81700134    0.01000000    0.01000000
   16.89138794  136.31100464    0.01000000    0.01000000
   16.89444351  135.94799805    0.01000000    0.01000000
   16.89777756  132.05000305    0.01000000    0.01000000
   16.90388870  132.05000305    0.01000000    0.01000000
   16.90805435  131.72500610    0.01000000    0.01000000
   16.91110992  129.60400391    0.01000000    0.01000000
   16.91444397  130.57299805    0.01000000    0.01000000
   16.91749954  129.46600342    0.01000000    0.01000000
   16.92055511  131.75399780    0.01000000    0.01000000
   16.92111015  131.16099548    0.01000000    0.01000000
   16.92444420  128.07200623    0.01000000    0.01000000
   16.92749977  135.13099670    0.01000000    0.01000000
   16.93083191  129.11799622    0.01000000    0.01000000
   16.93416595  137.05000305    0.01000000    0.01000000
   16.93722153  132.47500610    0.01000000    0.01000000
   16.94055557  130.84800720    0.01000000    0.01000000
   16.94666672  130.84800720    0.01000000    0.01000000
   16.95083427  128.53100586    0.01000000    0.01000000
   16.95388985  130.80700684    0.01000000    0.01000000
   16.95444489  132.18800354    0.01000000    0.01000000
   16.95777893  136.03399658    0.01000000    0.01000000
   16.96083450  134.98800659    0.01000000    0.01000000
   16.96416664  129.27699280    0.01000000    0.01000000
   16.96750069  131.49000549    0.01000000    0.01000000
   16.97055626  138.62300110    0.01000000    0.01000000
   16.97389030  130.21099854    0.01000000    0.01000000
   16.97722244  135.28599548    0.01000000    0.01000000
   16.98027802  142.79100037    0.01000000    0.01000000
   16.98361206  139.74099731    0.01000000    0.01000000
   16.98944473  139.74099731    0.01000000    0.01000000
   16.99361229  136.35200500    0.01000000    0.01000000
   16.99694443  137.09399414    0.01000000    0.01000000
   17.00000000  132.01499939    0.01000000    0.01000000
   17.00333405  132.54100037    0.01000000    0.01000000
   17.00666618  130.22700500    0.01000000    0.01000000
   17.00972176  134.48599243    0.01000000    0.01000000
   17.01305580  130.30999756    0.01000000    0.01000000
   17.01611137  131.58299255    0.01000000    0.01000000
   17.01944351  131.34599304    0.01000000    0.01000000
   17.02083397  134.31399536    0.01000000    0.01000000
   17.02305603  128.76400757    0.01000000    0.01000000
   17.02638817  126.46299744    0.01000000    0.01000000
   17.03222275  126.46299744    0.01000000    0.01000000
   17.03638840  135.17199707    0.01000000    0.01000000
   17.03972244  133.91000366    0.01000000    0.01000000
   17.04305458  127.43000031    0.01000000    0.01000000
   17.04611015  133.30000305    0.01000000    0.01000000
   17.04944420  129.17999268    0.01000000    0.01000000
   17.05277634  133.49699402    0.01000000    0.01000000
   17.05416679  130.64900208    0.01000000    0.01000000
   17.05611038  132.47000122    0.01000000    0.01000000
   17.05944443  134.32000732    0.01000000    0.01000000
   17.06277657  130.36000061    0.01000000    0.01000000
   17.06583214  132.43800354    0.01000000    0.01000000
   17.06916809  133.01899719    0.01000000    0.01000000
   17.07527924  133.01899719    0.01000000    0.01000000
   17.07916832  134.73399353    0.01000000    0.01000000
   17.08250046  128.80700684    0.01000000    0.01000000
   17.08583450  131.03500366    0.01000000    0.01000000
   17.08750153  130.65600586    0.01000000    0.01000000
   17.08944511  128.14199829    0.01000000    0.01000000
   17.09277916  130.20599365    0.01000000    0.01000000
   17.09583473  133.92100525    0.01000000    0.01000000
   17.09916687  135.42500305    0.01000000    0.01000000
   17.10222244  139.37500000    0.01000000    0.01000000
   17.10555649  137.24200439    0.01000000    0.01000000
   17.10888863  136.08799744    0.01000000    0.01000000
   17.11194420  135.04899597    0.01000000    0.01000000
   17.11805534  135.04899597    0.01000000    0.01000000
   17.12222290  134.07699585    0.01000000    0.01000000
   17.12527847  134.32099915    0.01000000    0.01000000
   17.12861061  136.23100281    0.01000000    0.01000000
   17.13194466  133.79400635    0.01000000    0.01000000
   17.13500023  129.10200500    0.01000000    0.01000000
   17.13833237  133.23599243    0.01000000    0.01000000
   17.14138794  130.19200134    0.01000000    0.01000000
   17.14472198  130.38099670    0.01000000    0.01000000
   17.14805603  133.45199585    0.01000000    0.01000000
   17.15111160  130.05400085    0.01000000    0.01000000
   17.15416718  130.60400391    0.01000000    0.01000000
   17.15472221  131.90100098    0.01000000    0.01000000
   17.16083336  131.90100098    0.01000000    0.01000000
   17.16499901  131.52999878    0.01000000    0.01000000
   17.16805458  132.47200012    0.01000000    0.01000000
   17.17138863  134.24099731    0.01000000    0.01000000
   17.17472076  134.58799744    0.01000000    0.01000000
   17.17777634  129.58200073    0.01000000    0.01000000
   17.18111038  134.45599365    0.01000000    0.01000000
   17.18444443  129.62600708    0.01000000    0.01000000
   17.18750000  128.33000183    0.01000000    0.01000000
   17.18805504  131.40199280    0.01000000    0.01000000
   17.19111061  132.10400391    0.01000000    0.01000000
   17.19444275  128.28900146    0.01000000    0.01000000
   17.19777679  130.60400391    0.01000000    0.01000000
   17.20361137  130.60400391    0.01000000    0.01000000
   17.20777893  132.40100098    0.01000000    0.01000000
   17.21111107  128.55700684    0.01000000    0.01000000
   17.21416664  130.04400635    0.01000000    0.01000000
   17.21750069  135.22000122    0.01000000    0.01000000
   17.22083473  140.63499451    0.01000000    0.01000000
   17.22111130  134.56799316    0.01000000    0.01000000
   17.22444534  137.02600098    0.01000000    0.01000000
   17.22777748  136.33000183    0.01000000    0.01000000
   17.23083305  136.35800171    0.01000000    0.01000000
   17.23416710  131.21800232    0.01000000    0.01000000
   17.23722267  126.89800262    0.01000000    0.01000000
   17.24055672  130.88299561    0.01000000    0.01000000
   17.24666786  130.88299561    0.01000000    0.01000000
   17.25055504  133.20199585    0.01000000    0.01000000
   17.25388908  133.88999939    0.01000000    0.01000000
   17.25444412  133.38999939    0.01000000    0.01000000
   17.25749969  129.83000183    0.01000000    0.01000000
   17.26083374  135.06300354    0.01000000    0.01000000
   17.26388931  136.31399536    0.01000000    0.01000000
   17.26722145  133.02600098    0.01000000    0.01000000
   17.27055550  135.73399353    0.01000000    0.01000000
   17.27361107  142.47799683    0.01000000    0.01000000
   17.27694511  138.47900391    0.01000000    0.01000000
   17.28000069  132.92199707    0.01000000    0.01000000
   17.28333282  131.90600586    0.01000000    0.01000000
   17.28944397  131.90600586    0.01000000    0.01000000
   17.29361153  133.37399292    0.01000000    0.01000000
   17.29666710  136.51199341    0.01000000    0.01000000
   17.29999924  139.83900452    0.01000000    0.01000000
   17.30305481  134.48399353    0.01000000    0.01000000
   17.30638885  129.86900330    0.01000000    0.01000000
   17.30972099  130.88800049    0.01000000    0.01000000
   17.31277657  127.47599792    0.01000000    0.01000000
   17.31611061  130.60699463    0.01000000    0.01000000
   17.31944466  129.50500488    0.01000000    0.01000000
   17.32111168  132.80299377    0.01000000    0.01000000
   17.32305717  135.77200317    0.01000000    0.01000000
   17.32638931  133.63099670    0.01000000    0.01000000
   17.33222389  133.63099670    0.01000000    0.01000000
   17.33638954  136.88900757    0.01000000    0.01000000
   17.33944511  133.71200562    0.01000000    0.01000000
   17.34277916  136.05000305    0.01000000    0.01000000
   17.34611130  134.82600403    0.01000000    0.01000000
   17.34916687  131.98500061    0.01000000    0.01000000
   17.35250092  133.52499390    0.01000000    0.01000000
   17.35444450  133.05299377    0.01000000    0.01000000
   17.35611153  137.13699341    0.01000000    0.01000000
   17.35944557  136.00399780    0.01000000    0.01000000
   17.36250114  136.80900574    0.01000000    0.01000000
   17.36583328  143.29600525    0.01000000    0.01000000
   17.36916733  138.55599976    0.01000000    0.01000000
   17.37500000  138.55599976    0.01000000    0.01000000
   17.37916756  136.04600525    0.01000000    0.01000000
   17.38249969  132.68699646    0.01000000    0.01000000
   17.38555527  135.88600159    0.01000000    0.01000000
   17.40305519  140.61300659    0.01000000    0.01000000
   17.40555573  139.42700195    0.01000000    0.01000000
   17.40888786  135.51699829    0.01000000    0.01000000
   17.41222191  135.62100220    0.01000000    0.01000000
   17.41805458  135.62100220    0.01000000    0.01000000
   17.42222214  138.84800720    0.01000000    0.01000000
   17.42527771  135.35600281    0.01000000    0.01000000
   17.42860985  132.10600281    0.01000000    0.01000000
   17.43194389  111.83300018    0.01000000    0.01000000
   17.43499947  131.07099915    0.01000000    0.01000000
   17.43610954  136.08799744    0.01000000    0.01000000
   17.43861008  133.93899536    0.01000000    0.01000000
   17.44194412  134.09300232    0.01000000    0.01000000
   17.44499969  138.32000732    0.01000000    0.01000000
   17.44833183  135.25000000    0.01000000    0.01000000
   17.45138931  129.95899963    0.01000000    0.01000000
   17.45472336  141.62500000    0.01000000    0.01000000
   17.46083450  141.62500000    0.01000000    0.01000000
   17.46500015  132.54100037    0.01000000    0.01000000
   17.46833420  129.77600098    0.01000000    0.01000000
   17.46944427  140.22099304    0.01000000    0.01000000
   17.47194481  134.88600159    0.01000000    0.01000000
   17.47527885  127.14099884    0.01000000    0.01000000
   17.47833443  128.43200684    0.01000000    0.01000000
   17.48166656  128.21400452    0.01000000    0.01000000
   17.48472214  132.96600342    0.01000000    0.01000000
   17.48805618  133.45100403    0.01000000    0.01000000
   17.49138832  134.46099854    0.01000000    0.01000000
   17.49472237  131.40299988    0.01000000    0.01000000
   17.49777794  135.27299500    0.01000000    0.01000000
   17.50361061  135.27299500    0.01000000    0.01000000
   17.50777817  135.00999451    0.01000000    0.01000000
   17.51111031  132.52099609    0.01000000    0.01000000
   17.51444435  134.92999268    0.01000000    0.01000000
   17.51749992  131.97200012    0.01000000    0.01000000
   17.52083397  132.38400269    0.01000000    0.01000000
   17.52388954  131.69000244    0.01000000    0.01000000
   17.52722168  127.69499969    0.01000000    0.01000000
   17.53055573  130.06500244    0.01000000    0.01000000
   17.53361130  130.77900696    0.01000000    0.01000000
   17.53610992  134.19700623    0.01000000    0.01000000
   17.53722191  132.59100342    0.01000000    0.01000000
   17.54055595  138.31100464    0.01000000    0.01000000
   17.54666710  138.31100464    0.01000000    0.01000000
   17.55083275  137.82699585    0.01000000    0.01000000
   17.55388832  135.01400757    0.01000000    0.01000000
   17.55722237  141.27299500    0.01000000    0.01000000
   17.56027794  129.97399902    0.01000000    0.01000000
   17.56361008  134.09199524    0.01000000    0.01000000
   17.56694603  136.32499695    0.01000000    0.01000000
   17.56944466  136.96600342    0.01000000    0.01000000
   17.57055664  134.30700684    0.01000000    0.01000000
   17.57389069  133.87600708    0.01000000    0.01000000
   17.57694626  132.08299255    0.01000000    0.01000000
   17.58027840  147.86700439    0.01000000    0.01000000
   17.58361244  137.57099915    0.01000000    0.01000000
   17.58944511  137.57099915    0.01000000    0.01000000
   17.59361267  136.35200500    0.01000000    0.01000000
   17.59666824  131.05999756    0.01000000    0.01000000
   17.60000038  138.84100342    0.01000000    0.01000000
   17.60277748  137.77499390    0.01000000    0.01000000
   17.60361099  131.87800598    0.01000000    0.01000000
   17.60694504  133.32299805    0.03000000    0.01000000
   17.61000061  132.05099487    1.41999996    2.71000004
   17.61333466  128.88999939    1.39999998    2.71000004
   17.61666679  137.12899780    1.36000001    2.71000004
   17.61972237  133.14700317    1.36000001    2.71000004
   17.62305641  137.34199524    1.34000003    2.71000004
   17.62611198  132.04100037    1.33000004    2.71000004
   17.63222313  132.04100037    1.28999996    2.71000004
   17.63638878  135.48100281    1.26999998    2.71000004
   17.63972282  134.01600647    1.23000002    2.73000002
   17.64277840  132.43800354    1.19000006    2.73000002
   17.64611053  134.44500732    1.19000006    2.73000002
   17.64944458  143.42700195    1.14999998    2.73000002
   17.65250015  138.79899597    1.13000000    2.73000002
   17.65583229  137.39300537    1.13000000    2.73000002
   17.65888786  141.30099487    1.09000003    2.75000000
   17.66222191  138.10699463    1.09000003    2.73000002
   17.66555595  139.34399414    1.09000003    2.73000002
   17.66860962  137.50500488    1.09000003    2.73000002
   17.66944313  136.43699646    1.09000003    2.75000000
   17.67499924  136.43699646    1.09000003    2.73000002
   17.67916679  142.32200623    1.07000005    2.73000002
   17.68249893  136.56500244    1.07000005    2.73000002
   17.68583298  135.37600708    1.09000003    2.73000002
   17.68888855  138.25500488    1.07000005    2.75000000
   17.69222069  140.63999939    1.07000005    2.75000000
   17.69527626  137.66999817    1.07000005    2.75000000
   17.69861031  130.88000488    1.07000005    2.75000000
   17.70194435  134.42799377    1.07000005    2.75000000
   17.70305634  143.47099304    1.07000005    2.73000002
   17.70527840  142.57099915    1.07000005    2.75000000
   17.70861244  139.40699768    1.05999994    2.73000002
   17.71166801  140.27900696    1.01999998    2.73000002
   17.71805573  140.27900696    1.00000000    2.75000000
   17.72222328  140.16400146    1.00000000    2.75000000
   17.72527885  137.95599365    0.98000002    2.75000000
   17.72861099  135.52499390    0.98000002    2.75000000
   17.73166656  133.80000305    1.00000000    2.75000000
   17.73500061  141.07400513    1.00000000    2.75000000
   17.73611069  134.34399414    1.01999998    2.75000000
   17.73861122  143.37300110    1.00000000    2.75000000
   17.74194527  142.17999268    1.00000000    2.73000002
   17.74500084  138.61599731    1.00000000    2.75000000
   17.74833298  143.87800598    1.01999998    2.75000000
   17.75166702  140.75700378    1.03999996    2.75000000
   17.75472260  146.02200317    1.01999998    2.75000000
   17.76083374  146.02200317    1.01999998    2.75000000
   17.76499939  146.93200684    1.03999996    2.75000000
   17.76805496  142.85299683    1.05999994    2.75000000
   17.76944351  136.61799622    1.03999996    2.73000002
   17.77166557  141.53199768    1.03999996    2.75000000
   17.77499962  140.92500305    1.03999996    2.75000000
   17.77805519  134.74099731    1.03999996    2.75000000
   17.78138924  135.06300354    1.03999996    2.75000000
   17.78472137  146.02900696    1.07000005    2.75000000
   17.78777695  136.89100647    1.07000005    2.75000000
   17.79111099  139.13900757    1.11000001    2.75000000
   17.79416656  141.31799316    1.11000001    2.75000000
   17.79749870  137.43899536    1.09000003    2.75000000
   17.80360985  137.43899536    1.09000003    2.75000000
   17.80777740  139.55000305    1.07000005    2.75000000
   17.81110954  134.88800049    1.03999996    2.75000000
   17.81416512  141.71099854    1.05999994    2.73000002
   17.81750107  131.38400269    1.07000005    2.75000000
   17.82083511  136.32600403    1.09000003    2.75000000
   17.82389069  143.63200378    1.16999996    2.75000000
   17.82722282  140.30299377    1.23000002    2.75000000
   17.83055687  140.29499817    1.28999996    2.75000000
   17.83361244  148.62699890    1.30999994    2.75000000
   17.83638954  135.81500244    1.34000003    2.73000002
   17.83722305  144.29499817    1.36000001    2.73000002
   17.84055710  139.29499817    1.34000003    2.73000002
   17.84638977  139.29499817    1.44000006    2.73000002
   17.85055542  138.38499451    1.46000004    2.73000002
   17.85388947  142.50700378    1.48000002    2.71000004
   17.85722351  138.72700500    1.51999998    2.73000002
   17.86027908  141.00999451    1.60000002    2.73000002
   17.86361122  132.83399963    1.64999998    2.73000002
   17.86666679  138.41000366    1.61000001    2.73000002
   17.86972237  136.84500122    1.61000001    2.71000004
   17.87027740  137.85000610    1.61000001    2.71000004
   17.87361145  132.78900146    1.60000002    2.73000002
   17.87666702  131.05200195    1.58000004    2.73000002
   17.88000107  134.03700256    1.50000000    2.73000002
   17.88333321  141.94200134    1.41999996    2.73000002
   17.88944435  141.94200134    1.33000004    2.73000002
   17.89361191  137.15299988    1.23000002    2.75000000
   17.89666748  138.31599426    1.16999996    2.75000000
   17.89999962  138.33000183    1.14999998    2.75000000
   17.90305519  140.91099548    1.11000001    2.73000002
   17.90361023  137.35200500    1.11000001    2.73000002
   17.90694427  137.31599426    1.13000000    2.75000000
   17.90999985  139.87800598    1.21000004    2.75000000
   17.91333389  139.31199646    1.23000002    2.73000002
   17.91666603  144.13499451    1.23000002    2.73000002
   17.91972160  138.36900330    1.25000000    2.73000002
   17.92305565  137.75300598    1.26999998    2.73000002
   17.92638779  136.93499756    1.28999996    2.75000000
   17.93222237  136.93499756    1.26999998    2.73000002
   17.93638802  139.65499878    1.26999998    2.75000000
   17.93944359  138.75999451    1.25000000    2.75000000
   17.94277763  138.71800232    1.25000000    2.73000002
   17.94610977  134.01600647    1.25000000    2.73000002
   17.94916534  134.49400330    1.25000000    2.75000000
   17.95250130  142.90199280    1.30999994    2.73000002
   17.95583344  137.18400574    1.34000003    2.75000000
   17.95888901  142.78300476    1.41999996    2.75000000
   17.96222305  148.08999634    1.38000000    2.75000000
   17.96527863  138.20399475    1.34000003    2.73000002
   17.96861076  140.26699829    1.33000004    2.73000002
   17.96972275  140.01699829    1.34000003    2.75000000
   17.97500038  140.01699829    1.33000004    2.75000000
   17.97916794  147.02900696    1.30999994    2.73000002
   17.98250008  140.44099426    1.33000004    2.75000000
   17.98555565  141.69799805    1.33000004    2.75000000
   17.98888969  143.28799438    1.33000004    2.73000002
   17.99222183  138.25300598    1.30999994    2.73000002
   17.99527740  141.96000671    1.33000004    2.73000002
   17.99861145  138.61700439    1.39999998    2.73000002
   18.00194359  137.95500183    1.38000000    2.75000000
   18.00305557  141.58900452    1.36000001    2.75000000
   18.00527763  150.00799561    1.36000001    2.73000002
   18.00861168  142.78799438    1.34000003    2.73000002
   18.01166725  135.37899780    1.34000003    2.73000002
   18.01777840  135.37899780    1.33000004    2.73000002
   18.02194405  142.36900330    1.34000003    2.73000002
   18.02527809  146.32499695    1.34000003    2.73000002
   18.02861023  138.67300415    1.34000003    2.73000002
   18.03166580  143.16700745    1.34000003    2.75000000
   18.03499985  140.54800415    1.34000003    2.75000000
   18.03638840  143.78399658    1.34000003    2.73000002
   18.03833199  139.91099548    1.36000001    2.73000002
   18.04166603  141.87100220    1.33000004    2.73000002
   18.04472160  138.17700195    1.30999994    2.73000002
   18.04805565  141.76400757    1.28999996    2.73000002
   18.05138779  139.54299927    1.26999998    2.73000002
   18.05444336  144.20599365    1.25000000    2.75000000
   18.06083298  144.20599365    1.25000000    2.73000002
   18.06499863  144.71699524    1.23000002    2.73000002
   18.06805611  140.70100403    1.25000000    2.73000002
   18.06972313  147.51899719    1.26999998    2.73000002
   18.07166672  142.48399353    1.28999996    2.73000002
   18.07500076  137.02299500    1.30999994    2.73000002
   18.07805634  141.47799683    1.36000001    2.73000002
   18.08139038  140.50100708    1.39999998    2.73000002
   18.08472252  136.84199524    1.41999996    2.73000002
   18.08777809  145.79699707    1.46000004    2.75000000
   18.09111214  139.04699707    1.44000006    2.73000002
   18.09500122  141.66999817    1.48000002    2.73000002
   18.09833336  142.35600281    1.48000002    2.73000002
   18.10361099  142.35600281    1.51999998    2.73000002
   18.10777855  143.61099243    1.55999994    2.73000002
   18.11083412  144.53799438    1.53999996    2.71000004
   18.11416626  135.51400757    1.53999996    2.71000004
   18.11750031  136.86300659    1.50000000    2.73000002
   18.12055588  141.47599792    1.44000006    2.71000004
   18.12388992  141.62500000    1.44000006    2.73000002
   18.12722206  137.99800110    1.48000002    2.73000002
   18.13027763  139.67199707    1.51999998    2.73000002
   18.13361168  137.18099976    1.53999996    2.71000004
   18.13638878  135.68699646    1.53999996    2.73000002
   18.13694382  139.06599426    1.53999996    2.73000002
   18.14027786  139.69999695    1.53999996    2.71000004
   18.14638901  139.69999695    1.55999994    2.71000004
   18.15055466  138.46299744    1.55999994    2.75000000
   18.15388870  139.52799988    1.55999994    2.71000004
   18.15722275  139.86099243    1.53999996    2.71000004
   18.16027832  144.03700256    1.53999996    2.73000002
   18.16361046  155.44999695    1.51999998    2.73000002
   18.16666603  146.86000061    1.50000000    2.73000002
   18.16972160  138.87800598    1.55999994    2.73000002
   18.17027664  143.44400024    1.55999994    2.73000002
   18.17361069  137.75999451    1.63000000    2.73000002
   18.17694473  145.00999451    1.60000002    2.73000002
   18.18000031  140.02900696    1.60000002    2.73000002
   18.18333244  145.27099609    1.58000004    2.71000004
   18.18916512  145.27099609    1.55999994    2.73000002
   18.19333267  137.97700500    1.48000002    2.73000002
   18.19666672  140.88900757    1.46000004    2.71000004
   18.20000076  144.90100098    1.39999998    2.73000002
   18.20305634  139.28100586    1.38000000    2.73000002
   18.20333481  142.11799622    1.38000000    2.73000002
   18.20666695  143.89500427    1.36000001    2.73000002
   18.21000099  144.78599548    1.34000003    2.73000002
   18.21305656  147.99899292    1.33000004    2.73000002
   18.21638870  143.14199829    1.33000004    2.73000002
   18.21944427  144.63000488    1.33000004    2.73000002
   18.22277832  141.89399719    1.34000003    2.73000002
   18.22611237  137.16299438    1.36000001    2.73000002
   18.23222351  137.16299438    1.39999998    2.73000002
   18.23638916  146.63999939    1.51999998    2.71000004
   18.23666763  143.42500305    1.51999998    2.71000004
   18.23999977  141.29600525    1.51999998    2.71000004
   18.24333382  145.77699280    1.53999996    2.73000002
   18.24638939  137.11900330    1.50000000    2.73000002
   18.24972153  146.47099304    1.53999996    2.71000004
   18.25305557  141.60699463    1.55999994    2.71000004
   18.25611115  146.24699402    1.58000004    2.69000006
   18.25944519  139.50100708    1.53999996    2.71000004
   18.26250076  147.08299255    1.48000002    2.73000002
   18.26583290  141.22999573    1.48000002    2.71000004
   18.26916695  142.33000183    1.48000002    2.69000006
   18.26972198  144.62199402    1.48000002    2.69000006
   18.27499962  144.62199402    1.51999998    2.71000004
   18.27916718  144.89599609    1.53999996    2.71000004
   18.28222275  136.63299561    1.58000004    2.71000004
   18.28555489  139.77000427    1.61000001    2.71000004
   18.28888893  141.80000305    1.63000000    2.71000004
   18.29194450  140.00000000    1.64999998    2.71000004
   18.29527664  138.09800720    1.61000001    2.71000004
   18.29861069  143.60200500    1.63000000    2.71000004
   18.30166626  134.96400452    1.61000001    2.71000004
   18.30305481  138.74400330    1.61000001    2.71000004
   18.30527687  141.99299622    1.60000002    2.71000004
   18.30861092  137.78799438    1.58000004    2.73000002
   18.31194305  140.36000061    1.55999994    2.71000004
   18.31777954  140.36000061    1.53999996    2.71000004
   18.32194519  142.74299622    1.50000000    2.71000004
   18.32527924  140.66200256    1.48000002    2.71000004
   18.32861137  143.09800720    1.44000006    2.71000004
   18.33166695  140.04200745    1.41999996    2.71000004
   18.33500099  140.72500610    1.41999996    2.73000002
   18.33638954  143.98599243    1.44000006    2.71000004
   18.33833313  141.31199646    1.41999996    2.73000002
   18.34166718  138.77799988    1.38000000    2.73000002
   18.34500122  143.10899353    1.38000000    2.71000004
   18.34805679  139.19599915    1.46000004    2.71000004
   18.35138893  143.86199951    1.44000006    2.73000002
   18.35472298  143.96499634    1.44000006    2.71000004
   18.36055565  143.96499634    1.48000002    2.71000004
   18.36472321  145.71600342    1.48000002    2.71000004
   18.36805534  138.31399536    1.46000004    2.71000004
   18.36972237  147.38200378    1.46000004    2.71000004
   18.37138939  136.01899719    1.44000006    2.71000004
   18.37472153  138.73399353    1.44000006    2.71000004
   18.37805557  143.16099548    1.51999998    2.71000004
   18.38111115  141.63699341    1.60000002    2.71000004
   18.38444519  142.35099792    1.64999998    2.71000004
   18.38777733  143.24200439    1.71000004    2.71000004
   18.39083290  145.43600464    1.75000000    2.71000004
   18.39416695  145.52499390    1.80999994    2.71000004
   18.39722252  141.94599915    1.85000002    2.71000004
   18.42000008  148.64300537    1.85000002    2.71000004
   18.42055511  145.18400574    1.85000002    2.71000004
   18.42361069  143.85899353    1.83000004    2.71000004
   18.42694473  138.99600220    1.76999998    2.71000004
   18.43027687  141.27600098    1.75000000    2.69000006
   18.43333244  146.46000671    1.76999998    2.71000004
   18.43638802  143.04499817    1.75000000    2.71000004
   18.43694305  140.52000427    1.73000002    2.71000004
   18.44027710  139.85299683    1.71000004    2.71000004
   18.44638824  139.85299683    1.69000006    2.71000004
   18.45055580  142.70399475    1.66999996    2.71000004
   18.45388985  141.39399719    1.66999996    2.71000004
   18.45694542  142.85099792    1.64999998    2.71000004
   18.46027946  141.19799805    1.64999998    2.71000004
   18.46333504  147.41799927    1.63000000    2.71000004
   18.46666718  139.13200378    1.64999998    2.71000004
   18.46972275  141.46499634    1.63000000    2.71000004
   18.47027779  135.81900024    1.63000000    2.71000004
   18.47361183  143.33099365    1.60000002    2.73000002
   18.47694588  143.44700623    1.60000002    2.71000004
   18.48000145  141.14799500    1.60000002    2.71000004
   18.48333359  145.14599609    1.61000001    2.69000006
   18.48916626  145.14599609    1.63000000    2.71000004
   18.49333382  143.51400757    1.64999998    2.71000004
   18.49666786  143.74200439    1.66999996    2.69000006
   18.49972153  150.38600159    1.69000006    2.71000004
   18.50305557  144.71800232    1.69000006    2.71000004
   18.50333405  145.09300232    1.69000006    2.71000004
   18.50666618  147.57800293    1.66999996    2.71000004
   18.51000023  144.58000183    1.69000006    2.71000004
   18.51333427  147.36099243    1.66999996    2.69000006
   18.51638794  141.47500610    1.64999998    2.69000006
   18.51972198  142.05900574    1.66999996    2.71000004
   18.52277756  137.82499695    1.66999996    2.69000006
   18.52611160  146.82600403    1.63000000    2.71000004
   18.53222275  146.82600403    1.61000001    2.71000004
   18.53610992  144.63800049    1.63000000    2.71000004
   18.53666687  143.56500244    1.63000000    2.71000004
   18.53999901  141.73300171    1.66999996    2.71000004
   18.54305458  144.19799805    1.64999998    2.69000006
   18.54638863  146.13200378    1.66999996    2.71000004
   18.54972076  148.69400024    1.71000004    2.71000004
   18.55277634  141.49299622    1.69000006    2.71000004
   18.55611038  147.03500366    1.71000004    2.69000006
   18.55944443  149.60400391    1.69000006    2.69000006
   18.56250000  142.38000488    1.71000004    2.71000004
   18.56583214  147.47900391    1.71000004    2.71000004
   18.56888962  144.57699585    1.73000002    2.69000006
   18.57000160  144.72399902    1.73000002    2.69000006
   18.57500076  144.72399902    1.73000002    2.69000006
   18.57916832  140.08599854    1.71000004    2.69000006
   18.58222389  144.85000610    1.73000002    2.69000006
   18.58555603  142.27900696    1.73000002    2.69000006
   18.58889008  140.98899841    1.66999996    2.69000006
   18.59194565  140.27299500    1.66999996    2.69000006
   18.59527779  146.38200378    1.69000006    2.71000004
   18.59861183  142.81300354    1.64999998    2.71000004
   18.60166740  143.26800537    1.64999998    2.69000006
   18.60333443  147.73899841    1.64999998    2.71000004
   18.60527802  138.97000122    1.64999998    2.71000004
   18.60861206  140.25399780    1.66999996    2.71000004
   18.61166763  143.86300659    1.69000006    2.69000006
   18.61777878  143.86300659    1.66999996    2.69000006
   18.62194443  143.59500122    1.64999998    2.69000006
   18.62527847  141.37899780    1.64999998    2.69000006
   18.62833405  144.10400391    1.63000000    2.69000006
   18.63166618  141.65400696    1.63000000    2.69000006
   18.63472176  148.16400146    1.61000001    2.69000006
   18.63666725  143.81199646    1.63000000    2.71000004
   18.63861084  139.86999512    1.60000002    2.69000006
   18.64194489  139.55200195    1.60000002    2.69000006
   18.64500046  141.79899597    1.58000004    2.69000006
   18.64833260  144.75999451    1.60000002    2.71000004
   18.65138817  142.07800293    1.60000002    2.69000006
   18.65472221  146.10400391    1.60000002    2.69000006
   18.66055489  146.10400391    1.58000004    2.71000004
   18.66472244  139.67900085    1.60000002    2.69000006
   18.66805458  143.67399597    1.58000004    2.69000006
   18.67000008  139.48199463    1.60000002    2.71000004
   18.67166519  137.11099243    1.58000004    2.71000004
   18.67499924  140.47200012    1.60000002    2.69000006
   18.67805481  142.85200500    1.58000004    2.69000006
   18.68138885  142.37800598    1.55999994    2.69000006
   18.68472099  147.54299927    1.53999996    2.69000006
   18.68777657  141.09399414    1.53999996    2.69000006
   18.69111061  145.82800293    1.51999998    2.69000006
   18.69416618  141.26400757    1.50000000    2.71000004
   18.69749832  138.31799316    1.46000004    2.69000006
   18.70361137  138.31799316    1.46000004    2.71000004
   18.70750046  140.15100098    1.44000006    2.71000004
   18.71083450  136.02200317    1.46000004    2.71000004
   18.71416664  141.25799561    1.50000000    2.69000006
   18.71722221  142.90499878    1.53999996    2.69000006
   18.72055626  141.63800049    1.53999996    2.69000006
   18.72389030  138.05700684    1.60000002    2.69000006
   18.72694588  143.34100342    1.61000001    2.69000006
   18.73027802  149.68699646    1.64999998    2.69000006
   18.73333359  144.30299377    1.69000006    2.69000006
   18.73666763  138.17799377    1.71000004    2.69000006
   18.73722267  146.65100098    1.71000004    2.69000006
   18.74027824  137.72200012    1.73000002    2.69000006
   18.74638939  137.72200012    1.75000000    2.69000006
   18.75055504  145.01899719    1.76999998    2.69000006
   18.75361061  144.26699829    1.76999998    2.69000006
   18.75694466  138.78300476    1.80999994    2.69000006
   18.76027870  139.01300049    1.83000004    2.69000006
   18.76333427  138.82099915    1.83000004    2.69000006
   18.76666641  143.76100159    1.83000004    2.67000008
   18.76972198  138.20799255    1.83000004    2.69000006
   18.77055550  135.08999634    1.83000004    2.69000006
   18.77333260  142.08200073    1.83000004    2.69000006
   18.77666664  138.79499817    1.91999996    2.67000008
   18.78000069  144.44799805    1.89999998    2.69000006
   18.78305435  144.24400330    1.89999998    2.69000006
   18.78916550  144.24400330    1.94000006    2.67000008
   18.79333305  141.62399292    1.96000004    2.67000008
   18.79666710  143.08599854    1.91999996    2.67000008
   18.79972076  143.92700195    2.00000000    2.67000008
   18.80305481  140.42900085    2.03999996    2.67000008
   18.80388832  140.05200195    2.03999996    2.67000008
   18.80666542  145.23800659    2.05999994    2.67000008
   18.80972099  159.73800659    2.05999994    2.67000008
   18.81305504  154.04499817    2.07999992    2.66000009
   18.81611061  156.33099365    2.07999992    2.67000008
   18.81944466  161.32499695    2.05999994    2.67000008
   18.82277870  157.71800232    2.11999989    2.67000008
   18.82583427  163.00599670    2.09999990    2.66000009
   18.83194542  163.00599670    2.05999994    2.66000009
   18.83611107  153.05299377    2.05999994    2.67000008
   18.83722305  174.74800110    2.05999994    2.67000008
   18.83972359  165.10899353    2.01999998    2.69000006
   18.84305573  162.49699402    2.01999998    2.67000008
   18.84638977  165.07299805    2.01999998    2.67000008
   18.84944534  162.08500671    1.98000002    2.67000008
   18.85277748  160.46499634    2.00000000    2.67000008
   18.85611153  161.90400696    1.96000004    2.67000008
   18.85916710  189.49299622    1.98000002    2.67000008
   18.86250114  163.21099854    1.96000004    2.67000008
   18.86555672  182.45399475    1.94000006    2.67000008
   18.86888885  173.34100342    1.91999996    2.67000008
   18.87055588  175.87300110    1.94000006    2.67000008
   18.87500000  175.87300110    1.96000004    2.67000008
   18.87888908  176.29699707    2.01999998    2.66000009
   18.88222313  186.14199829    2.03999996    2.67000008
   18.88555527  174.34700012    2.03999996    2.66000009
   18.88861084  181.59899902    2.00000000    2.67000008
   18.89194489  178.49899292    2.01999998    2.67000008
   18.89527702  183.84399414    2.01999998    2.67000008
   18.89833260  174.24800110    2.03999996    2.67000008
   18.90166664  184.19599915    2.05999994    2.67000008
   18.90388870  167.61500549    2.09999990    2.67000008
   18.90527725  169.44700623    2.09999990    2.67000008
   18.90833282  173.26199341    2.15000010    2.67000008
   18.91166687  165.80799866    2.11999989    2.66000009
   18.91777802  165.80799866    2.03999996    2.67000008
   18.92194366  193.75199890    2.01999998    2.66000009
   18.92499924  193.43099976    2.03999996    2.66000009
   18.92833328  187.49200439    2.03999996    2.67000008
   18.93166542  201.17700195    2.09999990    2.66000009
   18.93361092  201.23899841    2.17000008    2.67000008
   18.93472099  185.08299255    2.17000008    2.67000008
   18.93610954  200.06599426    2.15000010    2.67000008
   18.93750000  195.61000061    2.23000002    2.67000008
   18.93888855  202.56700134    2.25000000    2.66000009
   18.94027710  196.62500000    2.23000002    2.67000008
   18.94166565  195.92999268    2.23000002    2.66000009
   18.94305420  207.33599854    2.23000002    2.66000009
   18.94444275  204.28999329    2.23000002    2.67000008
   18.94583321  211.00700378    2.25000000    2.66000009
   18.94722176  194.58200073    2.28999996    2.66000009
   18.94861031  201.77799988    2.26999998    2.66000009
   18.95000076  214.05900574    2.25000000    2.66000009
   18.95138931  204.30700684    2.25000000    2.66000009
   18.95277786  201.71600342    2.25000000    2.66000009
   18.95416832  200.07499695    2.25000000    2.66000009
   18.95555687  188.44299316    2.26999998    2.66000009
   18.95694542  194.82699585    2.28999996    2.66000009
   18.95833397  202.89100647    2.30999994    2.66000009
   18.95972252  187.47200012    2.30999994    2.66000009
   18.96111107  187.58900452    2.32999992    2.66000009
   18.96250153  182.61900330    2.28999996    2.66000009
   18.96389008  195.45700073    2.28999996    2.66000009
   18.96527863  196.49400330    2.30999994    2.66000009
   18.96666718  187.69900513    2.30999994    2.64000010
   18.96805573  190.16700745    2.30999994    2.66000009
   18.96944427  187.21299744    2.30999994    2.66000009
   18.97083473  179.23599243    2.30999994    2.64000010
   18.97222328  178.27000427    2.30999994    2.66000009
   18.97361183  188.24099731    2.30999994    2.66000009
   18.97500038  183.19900513    2.28999996    2.66000009
   18.97638893  191.09399414    2.28999996    2.66000009
   18.97777748  177.33399963    2.28999996    2.66000009
   18.97916794  186.22300720    2.26999998    2.66000009
   18.98055649  184.20300293    2.28999996    2.64000010
   18.98194504  182.38800049    2.26999998    2.66000009
   18.98333359  180.59100342    2.23000002    2.66000009
   18.98472214  193.17900085    2.23000002    2.66000009
   18.98611069  171.59300232    2.23000002    2.66000009
   18.98750114  185.13299561    2.21000004    2.66000009
   18.98888969  177.41499329    2.21000004    2.66000009
   18.99027824  181.59800720    2.19000006    2.67000008
   18.99166679  176.06599426    2.17000008    2.66000009
   18.99305534  177.69799805    2.17000008    2.66000009
   18.99444389  174.55599976    2.17000008    2.66000009
   18.99583435  181.34100342    2.13000011    2.66000009
   18.99722290  174.59500122    2.15000010    2.66000009
   18.99861145  186.01400757    2.15000010    2.66000009
   19.00000000  179.14700317    2.19000006    2.66000009
   19.00138855  182.82200623    2.19000006    2.66000009
   19.00277710  183.31799316    2.19000006    2.66000009
   19.00416756  175.66700745    2.17000008    2.66000009
   19.00555611  178.79699707    2.17000008    2.66000009
   19.00694466  174.45700073    2.13000011    2.66000009
   19.00833321  174.75999451    2.13000011    2.67000008
   19.00972176  185.81100464    2.13000011    2.67000008
   19.01111031  175.87500000    2.13000011    2.67000008
   19.01250076  184.94999695    2.11999989    2.66000009
   19.01388931  178.89399719    2.11999989    2.66000009
   19.01527786  175.06799316    2.11999989    2.66000009
   19.01666641  182.25000000    2.07999992    2.66000009
   19.01805496  178.52000427    2.07999992    2.66000009
   19.01944351  195.83599854    2.07999992    2.66000009
   19.02083397  187.20100403    2.05999994    2.66000009
   19.02222252  175.46800232    2.05999994    2.67000008
   19.02361107  190.67599487    2.03999996    2.66000009
   19.02499962  172.01600647    2.01999998    2.67000008
   19.02638817  169.95199585    2.01999998    2.66000009
   19.02666664  173.26199341    2.15000010    2.67000008
   19.02666664  165.80799866    2.11999989    2.66000009
   19.02666664  193.75199890    2.01999998    2.66000009
   19.02666664  193.43099976    2.03999996    2.66000009
   19.02666664  187.49200439    2.03999996    2.67000008
   19.02694511  201.17700195    2.09999990    2.66000009
   19.02694511  174.24800110    2.03999996    2.67000008
   19.02694511  184.19599915    2.05999994    2.67000008
   19.02722168  169.44700623    2.09999990    2.67000008
   19.02777672  181.07699585    2.01999998    2.66000009
   19.03083229  168.32699585    1.98000002    2.66000009
   19.03416634  192.50000000    1.96000004    2.66000009
   19.03722191  168.34800720    1.96000004    2.66000009
   19.04055595  175.38099670    1.94000006    2.67000008
   19.04722214  175.38099670    1.94000006    2.66000009
   19.05138779  172.73899841    1.94000006    2.66000009
   19.05472183  169.78399658    1.89999998    2.66000009
   19.05777740  173.40100098    1.89999998    2.67000008
   19.06027794  178.83700562    1.88000000    2.67000008
   19.06138802  163.61300659    1.88000000    2.67000008
   19.06444359  179.59700012    1.88000000    2.66000009
   19.06777954  180.65800476    1.86000001    2.66000009
   19.07111168  166.15199280    1.85000002    2.67000008
   19.07416725  169.25100708    1.86000001    2.66000009
   19.07750130  173.32800293    1.86000001    2.67000008
   19.08083344  170.45300293    1.88000000    2.67000008
   19.08388901  182.50999451    1.91999996    2.66000009
   19.09000015  182.50999451    1.96000004    2.66000009
   19.09416771  156.95399475    1.94000006    2.66000009
   19.09749985  159.82099915    1.94000006    2.66000009
   19.10083389  154.78500366    1.94000006    2.67000008
   19.10388947  159.84199524    1.94000006    2.66000009
   19.10833359  168.23899841    1.98000002    2.66000009
   19.11138916  175.83099365    1.98000002    2.66000009
   19.11472321  157.17300415    1.98000002    2.66000009
   19.11805534  163.46000671    1.98000002    2.66000009
   19.12111092  161.07600403    1.96000004    2.66000009
   19.12444496  159.64900208    1.96000004    2.66000009
   19.12694550  164.21899414    1.94000006    2.66000009
   19.12805557  153.17399597    1.96000004    2.66000009
   19.13305473  153.17399597    1.98000002    2.66000009
   19.13722229  164.65600586    1.98000002    2.66000009
   19.14027786  167.35699463    1.98000002    2.66000009
   19.14361191  156.33700562    1.98000002    2.67000008
   19.14666748  172.16000366    2.00000000    2.67000008
   19.14999962  167.35800171    2.03999996    2.66000009
   19.15333366  158.96400452    2.07999992    2.66000009
   19.15638924  163.91600037    2.09999990    2.66000009
   19.15972137  167.42799377    2.09999990    2.66000009
   19.16027832  162.63400269    2.09999990    2.66000009
   19.16333389  167.55000305    2.11999989    2.66000009
   19.16666603  158.32000732    2.07999992    2.66000009
   19.16972160  164.65199280    2.09999990    2.66000009
   19.17583275  164.65199280    2.07999992    2.66000009
   19.18000031  160.42399597    2.09999990    2.66000009
   19.18305397  152.31799316    2.09999990    2.66000009
   19.18638802  159.97799683    2.09999990    2.66000009
   19.18972206  152.46299744    2.13000011    2.66000009
   19.19277763  156.54100037    2.13000011    2.66000009
   19.19361115  166.75000000    2.15000010    2.66000009
   19.19638824  167.90199280    2.17000008    2.66000009
   19.19972038  157.86700439    2.25000000    2.64000010
   19.20277786  154.00599670    2.26999998    2.66000009
   19.20611191  148.01499939    2.39000010    2.64000010
   19.20916748  160.66200256    2.39000010    2.66000009
   19.21250153  150.19400024    2.34999990    2.64000010
   19.21861076  150.19400024    2.39000010    2.64000010
   19.22277832  156.18899536    2.36999989    2.64000010
   19.22611237  147.79800415    2.28999996    2.64000010
   19.22694588  151.08099365    2.25000000    2.64000010
   19.22972298  147.28900146    2.21000004    2.64000010
   19.23305511  156.89999390    2.23000002    2.64000010
   19.23611069  158.96400452    2.21000004    2.64000010
   19.23944473  148.63299561    2.19000006    2.64000010
   19.24250031  152.56199646    2.21000004    2.64000010
   19.24583435  154.74699402    2.23000002    2.64000010
   19.24916649  164.66400146    2.23000002    2.64000010
   19.25222206  158.98599243    2.25000000    2.64000010
   19.25555611  160.44400024    2.25000000    2.64000010
   19.26138878  160.44400024    2.25000000    2.64000010
   19.26555634  152.98399353    2.25000000    2.64000010
   19.26888847  159.00599670    2.25000000    2.64000010
   19.27194405  154.51100159    2.25000000    2.64000010
   19.27527809  160.89300537    2.25000000    2.64000010
   19.27861023  155.19900513    2.23000002    2.64000010
   19.28166580  151.38200378    2.23000002    2.64000010
   19.28499985  147.78799438    2.21000004    2.64000010
   19.28833199  152.11099243    2.21000004    2.64000010
   19.29138756  154.67399597    2.21000004    2.64000010
   19.29361153  146.47799683    2.21000004    2.64000010
   19.29500008  149.81399536    2.21000004    2.64000010
   19.29833221  148.72000122    2.23000002    2.64000010
   19.30444336  148.72000122    2.21000004    2.64000010
   19.30861092  149.55400085    2.26999998    2.64000010
   19.31166649  154.00500488    2.30999994    2.64000010
   19.31499863  146.69999695    2.32999992    2.64000010
   19.31805611  150.28199768    2.39000010    2.64000010
   19.32139015  146.49200439    2.42000008    2.61999989
   19.32472229  152.27699280    2.46000004    2.61999989
   19.32694626  148.23399353    2.51999998    2.61999989
   19.32833481  152.36599731    2.53999996    2.61999989
   19.33166695  156.47099304    2.57999992    2.61999989
   19.33472252  153.62100220    2.61999989    2.61999989
   19.33805656  153.76600647    2.64000010    2.61999989
   19.34111214  150.64799500    2.69000006    2.61999989
   19.34722328  150.64799500    2.67000008    2.61999989
   19.35138893  150.33500671    2.71000004    2.61999989
   19.35444450  141.33200073    2.69000006    2.59999990
   19.35777855  148.54200745    2.69000006    2.61999989
   19.36027908  146.09199524    2.67000008    2.61999989
   19.36138916  146.93600464    2.71000004    2.61999989
   19.36472321  148.13200378    2.71000004    2.59999990
   19.36777878  145.21899414    2.69000006    2.61999989
   19.37111092  158.27699280    2.69000006    2.61999989
   19.37416649  148.27799988    2.66000009    2.61999989
   19.37750053  146.82800293    2.66000009    2.61999989
   19.38083267  146.11099243    2.64000010    2.61999989
   19.38388824  149.83000183    2.59999990    2.61999989
   19.38999939  149.83000183    2.59999990    2.61999989
   19.39416695  150.27900696    2.61999989    2.61999989
   19.39749908  150.84100342    2.64000010    2.59999990
   19.40055466  145.50000000    2.66000009    2.59999990
   19.40388870  146.54200745    2.69000006    2.59999990
   19.40694427  147.16299438    2.66000009    2.59999990
   19.41027832  147.78399658    2.66000009    2.59999990
   19.41361046  149.81700134    2.64000010    2.61999989
   19.41666603  150.53100586    2.61999989    2.61999989
   19.42000008  147.47000122    2.64000010    2.59999990
   19.43722153  152.60200500    2.48000002    2.61999989
   19.44138718  152.60200500    2.44000006    2.61999989
   19.44555473  145.14700317    2.40000010    2.61999989
   19.44888878  143.15499878    2.39000010    2.61999989
   19.45194435  145.53700256    2.40000010    2.61999989
   19.45527840  148.86500549    2.44000006    2.61999989
   19.45861244  149.82699585    2.48000002    2.61999989
   19.46166801  139.77699280    2.50000000    2.61999989
   19.46500015  147.73800659    2.44000006    2.59999990
   19.46833420  144.42799377    2.44000006    2.61999989
   19.47055626  144.86000061    2.48000002    2.61999989
   19.47194481  155.91700745    2.48000002    2.61999989
   19.47500038  142.52400208    2.50000000    2.61999989
   19.47833443  141.35800171    2.48000002    2.59999990
   19.48416710  141.35800171    2.42000008    2.61999989
   19.48833275  145.71099854    2.39000010    2.59999990
   19.49166679  143.63000488    2.40000010    2.61999989
   19.49472237  150.83799744    2.39000010    2.59999990
   19.49805641  149.53199768    2.36999989    2.61999989
   19.50138855  149.09700012    2.36999989    2.61999989
   19.50388908  147.55299377    2.36999989    2.61999989
   19.50499916  145.64799500    2.36999989    2.61999989
   19.50805473  149.54299927    2.39000010    2.61999989
   19.51138878  147.96000671    2.36999989    2.61999989
   19.51444435  151.85299683    2.40000010    2.61999989
   19.51777840  145.45100403    2.40000010    2.59999990
   19.52111053  146.12600708    2.42000008    2.61999989
   19.52694511  146.12600708    2.42000008    2.59999990
   19.53111076  145.11900330    2.48000002    2.61999989
   19.53444481  141.35400391    2.51999998    2.59999990
   19.53722191  143.16400146    2.51999998    2.61999989
   19.53805542  146.69000244    2.51999998    2.61999989
   19.54138756  150.05499268    2.51999998    2.61999989
   19.54444313  146.52999878    2.59999990    2.61999989
   19.54777718  149.42999268    2.57999992    2.61999989
   19.55083275  144.54400635    2.69000006    2.61999989
   19.55416679  141.12899780    2.71000004    2.61999989
   19.55749893  147.22999573    3.01999998    2.59999990
   19.56055450  141.59800720    2.80999994    2.61999989
   19.56388855  145.36700439    2.53999996    2.61999989
   19.57000160  145.36700439    2.30999994    2.59999990
   19.57416725  142.52299500    2.28999996    2.61999989
   19.57722282  137.39900208    2.25000000    2.61999989
   19.58055687  142.77799988    2.19000006    2.61999989
   19.58361244  145.05200195    2.13000011    2.64000010
   19.58694458  145.34899902    2.11999989    2.61999989
   19.59027863  144.98199463    2.11999989    2.64000010
   19.59333420  145.43600464    2.13000011    2.61999989
   19.59666824  145.62100220    2.15000010    2.61999989
   19.60000038  143.30000305    2.17000008    2.61999989
   19.60305595  144.02699280    2.19000006    2.61999989
   19.60499954  144.19700623    2.21000004    2.61999989
   19.60666656  142.10299683    2.23000002    2.61999989
   19.61277771  142.10299683    2.30999994    2.61999989
   19.61694527  143.50900269    2.30999994    2.61999989
   19.62000084  144.17100525    2.32999992    2.61999989
   19.62333298  146.37699890    2.36999989    2.59999990
   19.62666702  143.75999451    2.39000010    2.61999989
   19.62972260  145.94299316    2.39000010    2.61999989
   19.63305473  143.80700684    2.39000010    2.59999990
   19.63638878  142.83299255    2.36999989    2.61999989
   19.63833237  145.58299255    2.39000010    2.61999989
   19.63972282  147.91200256    2.39000010    2.59999990
   19.64305496  144.85899353    2.36999989    2.59999990
   19.64638901  145.18200684    2.40000010    2.61999989
   19.64944458  145.01400757    2.39000010    2.61999989
   19.65555573  145.01400757    2.40000010    2.59999990
   19.65972137  150.61399841    2.36999989    2.59999990
   19.66305542  147.78700256    2.39000010    2.61999989
   19.66611099  147.34500122    2.36999989    2.59999990
   19.66944313  146.76499939    2.36999989    2.59999990
   19.67194366  150.06300354    2.39000010    2.59999990
   19.67305565  142.30900574    2.40000010    2.59999990
   19.67638779  150.33200073    2.42000008    2.59999990
   19.67944336  147.90699768    2.44000006    2.59999990
   19.68277740  147.53900146    2.46000004    2.59999990
   19.68610954  148.69799805    2.50000000    2.59999990
   19.68916512  151.15499878    2.50000000    2.59999990
   19.69249916  153.44400024    2.53999996    2.61999989
   19.69861031  153.44400024    2.57999992    2.59999990
   19.70250130  150.61900330    2.57999992    2.59999990
   19.70527840  150.94200134    2.59999990    2.59999990
   19.70639038  150.10400391    2.59999990    2.59999990
   19.70944595  146.92799377    2.59999990    2.59999990
   19.71277809  146.05200195    2.59999990    2.59999990
   19.71583366  144.63499451    2.55999994    2.59999990
   19.71916771  142.81700134    2.59999990    2.59999990
   19.72249985  151.59500122    2.57999992    2.59999990
   19.72555542  143.55400085    2.55999994    2.59999990
   19.72888947  142.48699951    2.55999994    2.59999990
   19.73222351  141.63900757    2.55999994    2.59999990
   19.73527718  142.81199646    2.53999996    2.57999992
   19.74138832  142.81199646    2.57999992    2.59999990
   19.74555588  147.05999756    2.57999992    2.59999990
   19.74861145  148.03799438    2.55999994    2.59999990
   19.75194359  144.89700317    2.55999994    2.59999990
   19.75527763  142.04499817    2.55999994    2.59999990
   19.75833321  145.37300110    2.55999994    2.59999990
   19.76166725  141.89599609    2.55999994    2.59999990
   19.76472282  145.31399536    2.51999998    2.59999990
   19.76805496  143.78599548    2.51999998    2.59999990
   19.77138901  139.86000061    2.48000002    2.59999990
   19.77222252  140.37800598    2.48000002    2.59999990
   19.77499962  139.36700439    2.48000002    2.57999992
   19.77805519  141.16999817    2.51999998    2.61999989
   19.78416634  141.16999817    2.51999998    2.59999990
   19.78833199  148.40299988    2.53999996    2.59999990
   19.79166603  147.19299316    2.51999998    2.59999990
   19.79472160  148.56399536    2.53999996    2.57999992
   19.79805565  148.17100525    2.55999994    2.59999990
   19.80111122  142.61000061    2.55999994    2.57999992
   19.80444336  148.50799561    2.53999996    2.59999990
   19.80555534  153.28199768    2.57999992    2.57999992
   19.80805397  143.03100586    2.57999992    2.59999990
   19.81110954  149.23300171    2.57999992    2.57999992
   19.81444359  143.12899780    2.61999989    2.59999990
   19.81777954  146.32899475    2.59999990    2.59999990
   19.82083511  143.01699829    2.57999992    2.59999990
   19.82694626  143.01699829    2.59999990    2.59999990
   19.83111191  144.12300110    2.59999990    2.55999994
   19.83444595  142.35600281    2.66000009    2.57999992
   19.83750153  148.29699707    2.67000008    2.57999992
   19.83916664  145.05299377    2.67000008    2.57999992
   19.84111214  142.19799805    2.67000008    2.57999992
   19.84444427  143.64500427    2.69000006    2.55999994
   19.84777832  148.12800598    2.73000002    2.57999992
   19.85083389  143.26400757    2.76999998    2.57999992
   19.85416794  146.24400330    2.82999992    2.57999992
   19.85750008  145.15199280    2.82999992    2.57999992
   19.86055565  142.89599609    2.84999990    2.59999990
   19.86388969  148.16900635    2.86999989    2.57999992
   19.86972237  148.16900635    2.89000010    2.55999994
   19.87388992  155.59500122    2.89000010    2.57999992
   19.87722206  144.76499939    2.91000009    2.57999992
   19.88055611  142.53199768    2.91000009    2.55999994
   19.88361168  145.88000488    2.94000006    2.55999994
   19.88694382  142.17500305    2.94000006    2.55999994
   19.89027786  147.69599915    2.94000006    2.57999992
   19.89333344  143.58999634    2.94000006    2.55999994
   19.89666748  144.58700562    2.94000006    2.55999994
   19.89972115  147.99400330    2.93000007    2.55999994
   19.90305519  145.68600464    2.94000006    2.55999994
   19.90583229  142.65299988    2.93000007    2.57999992
   19.90666580  140.36799622    2.91000009    2.55999994
   19.91277695  140.36799622    2.91000009    2.55999994
   19.91694450  150.45399475    2.89000010    2.55999994
   19.92000008  149.38600159    2.89000010    2.55999994
   19.92333221  144.66299438    2.93000007    2.55999994
   19.92666626  149.18299866    2.91000009    2.55999994
   19.92972183  148.78399658    2.89000010    2.55999994
   19.93305397  145.97399902    2.86999989    2.55999994
   19.93610954  155.54899597    2.89000010    2.55999994
   19.93916512  150.18699646    2.86999989    2.55999994
   19.93972206  152.58200073    2.86999989    2.55999994
   19.94305420  151.90600586    2.86999989    2.55999994
   19.94638824  145.86399841    2.86999989    2.55999994
   19.94944382  144.13000488    2.89000010    2.55999994
   19.95555687  144.13000488    2.89000010    2.55999994
   19.95972252  146.40600586    2.91000009    2.55999994
   19.96277809  155.67700195    2.91000009    2.55999994
   19.96611214  147.32400513    2.89000010    2.55999994
   19.96944427  150.09300232    2.91000009    2.53999996
   19.97249985  144.64399719    2.91000009    2.55999994
   19.97277832  147.41299438    2.91000009    2.55999994
   19.97611237  144.73399353    2.91000009    2.55999994
   19.97944450  142.32699585    2.91000009    2.55999994
   19.98250008  147.53100586    2.93000007    2.55999994
   19.98583412  147.78300476    2.93000007    2.55999994
   19.98888969  149.75000000    2.89000010    2.55999994
   19.99222183  144.36099243    2.91000009    2.55999994
   19.99833298  144.36099243    2.93000007    2.53999996
   20.00250053  152.42999268    2.91000009    2.53999996
   20.00583267  145.27099609    2.86999989    2.53999996
   20.00611115  144.81500244    2.86999989    2.53999996
   20.00944519  145.79299927    2.91000009    2.55999994
   20.01277733  148.72900391    2.93000007    2.55999994
   20.01583290  153.64500427    2.89000010    2.55999994
   20.01916695  149.25900269    2.89000010    2.55999994
   20.02222252  151.29100037    2.93000007    2.55999994
   20.02555466  146.47099304    2.89000010    2.53999996
   20.02888870  148.40499878    2.89000010    2.53999996
   20.03194427  143.40600586    2.86999989    2.53999996
   20.03527641  149.57499695    2.89000010    2.53999996
   20.04111099  149.57499695    2.86999989    2.53999996
   20.04527664  142.91700745    2.84999990    2.53999996
   20.04861069  150.78799438    2.82999992    2.53999996
   20.05194283  152.55799866    2.86999989    2.53999996
   20.05499840  147.36700439    2.84999990    2.55999994
   20.05833244  153.17199707    2.86999989    2.55999994
   20.06138802  147.48800659    2.84999990    2.53999996
   20.06472206  148.24899292    2.82999992    2.53999996
   20.06805611  146.80999756    2.76999998    2.55999994
   20.07111168  150.94400024    2.75000000    2.53999996
   20.07250023  145.05200195    2.76999998    2.55999994
   20.07500076  144.78500366    2.76999998    2.53999996
   20.07805634  149.78199768    2.75000000    2.53999996
   20.08416748  149.78199768    2.71000004    2.55999994
   20.08833313  150.36500549    2.67000008    2.55999994
   20.09138870  151.65800476    2.64000010    2.55999994
   20.09472275  146.75999451    2.64000010    2.55999994
   20.09805679  152.25700378    2.57999992    2.53999996
   20.10111237  150.58999634    2.57999992    2.55999994
   20.10444450  149.55499268    2.55999994    2.55999994
   20.10583305  144.57299805    2.55999994    2.53999996
   20.10805511  148.23599243    2.55999994    2.55999994
   20.11111069  148.36599731    2.53999996    2.53999996
   20.11444473  150.26199341    2.53999996    2.55999994
   20.11750031  148.03900146    2.55999994    2.53999996
   20.12083435  157.57099915    2.55999994    2.55999994
   20.12694550  157.57099915    2.61999989    2.55999994
   20.13111115  151.16000366    2.61999989    2.53999996
   20.13416672  156.55799866    2.66000009    2.53999996
   20.13750076  152.10899353    2.67000008    2.53999996
   20.13944435  154.43899536    2.69000006    2.53999996
   20.14111137  152.56799316    2.67000008    2.53999996
   20.14444351  157.21200562    2.69000006    2.53999996
   20.14777756  154.86599731    2.67000008    2.55999994
   20.15083313  147.59800720    2.67000008    2.53999996
   20.15416718  151.89399719    2.67000008    2.53999996
   20.15722275  148.94200134    2.69000006    2.53999996
   20.16055489  146.83399963    2.71000004    2.55999994
   20.16388893  152.87399292    2.71000004    2.53999996
   20.16972160  152.87399292    2.71000004    2.53999996
   20.17388916  151.98500061    2.75000000    2.53999996
   20.17722130  147.69900513    2.75000000    2.53999996
   20.18027687  152.00999451    2.75000000    2.53999996
   20.18361092  149.46299744    2.76999998    2.53999996
   20.18694305  157.42300415    2.75000000    2.53999996
   20.18999863  153.77099609    2.76999998    2.53999996
   20.19333267  152.30900574    2.75000000    2.53999996
   20.19666672  155.51699829    2.75000000    2.51999998
   20.19972038  152.19999695    2.71000004    2.53999996
   20.20305634  153.94200134    2.73000002    2.53999996
   20.20611191  152.18899536    2.73000002    2.51999998
   20.20639038  148.92199707    2.73000002    2.51999998
   20.21250153  148.92199707    2.80999994    2.53999996
   20.21666718  147.28900146    2.76999998    2.53999996
   20.22000122  155.36099243    2.78999996    2.53999996
   20.22333336  152.46600342    2.82999992    2.51999998
   20.22638893  150.88900757    2.82999992    2.51999998
   20.22972298  154.53900146    2.80999994    2.51999998
   20.23277855  147.74000549    2.82999992    2.51999998
   20.23611069  151.45799255    2.82999992    2.51999998
   20.23944473  153.99400330    2.82999992    2.51999998
   20.23972321  151.05900574    2.82999992    2.51999998
   20.24305534  153.33099365    2.86999989    2.51999998
   20.24638939  154.89700317    2.86999989    2.51999998
   20.24944496  152.83000183    2.91000009    2.51999998
   20.25555611  152.83000183    2.93000007    2.51999998
   20.25972176  151.42999268    2.94000006    2.51999998
   20.26277733  152.05200195    2.94000006    2.50000000
   20.26611137  156.02200317    2.98000002    2.50000000
   20.26916695  154.74200439    2.98000002    2.50000000
   20.27249908  154.72099304    3.03999996    2.51999998
   20.27305603  154.16799927    3.03999996    2.51999998
   20.27611160  152.10899353    3.03999996    2.50000000
   20.27944374  154.83799744    2.98000002    2.50000000
   20.28277779  160.65100098    2.98000002    2.50000000
   20.28583336  154.66000366    2.96000004    2.50000000
   20.28916550  149.06199646    2.94000006    2.51999998
   20.29249954  152.69700623    2.96000004    2.51999998
   20.29833221  152.69700623    2.96000004    2.50000000
   20.30249977  151.98500061    2.96000004    2.50000000
   20.30555534  151.74899292    2.93000007    2.50000000
   20.30638885  153.11300659    2.93000007    2.50000000
   20.30944443  148.91299438    2.93000007    2.50000000
   20.31250000  148.18099976    2.93000007    2.50000000
   20.31583214  151.34800720    2.89000010    2.50000000
   20.31888962  150.45199585    2.86999989    2.51999998
   20.32222366  151.54499817    2.84999990    2.50000000
   20.32555580  153.84700012    2.82999992    2.50000000
   20.32861137  150.48199463    2.80999994    2.50000000
   20.33194542  153.48500061    2.84999990    2.50000000
   20.33500099  152.99600220    2.80999994    2.51999998
   20.34111214  152.99600220    2.82999992    2.50000000
   20.34527779  150.40899658    2.82999992    2.50000000
   20.34861183  153.67700195    2.82999992    2.50000000
   20.35166740  151.12300110    2.80999994    2.50000000
   20.35499954  157.59199524    2.80999994    2.50000000
   20.35833359  155.58200073    2.80999994    2.50000000
   20.36138916  161.58299255    2.78999996    2.50000000
   20.36472321  153.09899902    2.76999998    2.51999998
   20.36777878  158.05499268    2.76999998    2.50000000
   20.37111092  155.24600220    2.75000000    2.50000000
   20.37305641  155.02400208    2.75000000    2.50000000
   20.37500000  157.06900024    2.75000000    2.50000000
   20.37805557  153.42100525    2.73000002    2.50000000
   20.38388824  153.42100525    2.73000002    2.50000000
   20.38805580  150.46899414    2.75000000    2.50000000
   20.39138794  156.62199402    2.78999996    2.50000000
   20.39472198  151.77499390    2.78999996    2.51999998
   20.39777756  155.24800110    2.75000000    2.48000002
   20.40111160  152.79200745    2.71000004    2.51999998
   20.40416718  156.43400574    2.69000006    2.48000002
   20.40638924  151.54899597    2.67000008    2.51999998
   20.40805435  156.16499329    2.67000008    2.51999998
   20.41110992  155.19900513    2.64000010    2.50000000
   20.41444397  159.11300659    2.66000009    2.50000000
   20.41749954  157.93600464    2.66000009    2.50000000
   20.42083359  152.10099792    2.67000008    2.50000000
   20.42694473  152.10099792    2.69000006    2.50000000
   20.43083191  161.16099548    2.71000004    2.48000002
   20.43416595  170.22500610    2.73000002    2.50000000
   20.43750000  157.97999573    2.71000004    2.50000000
   20.45472336  154.43800354    2.71000004    2.48000002
   20.45722389  152.51400757    2.73000002    2.50000000
   20.46055603  156.13900757    2.73000002    2.48000002
   20.46389008  156.84899902    2.75000000    2.48000002
   20.46972275  156.84899902    2.71000004    2.48000002
   20.47389030  152.47599792    2.75000000    2.48000002
   20.47722244  150.28199768    2.71000004    2.48000002
   20.48027802  148.54800415    2.73000002    2.48000002
   20.48361206  153.15800476    2.75000000    2.48000002
   20.48694420  157.50100708    2.75000000    2.48000002
   20.48777771  158.06799316    2.73000002    2.48000002
   20.49055672  157.38600159    2.76999998    2.48000002
   20.49388885  156.54800415    2.76999998    2.48000002
   20.49722290  164.13600159    2.78999996    2.48000002
   20.50027847  153.39399719    2.78999996    2.48000002
   20.50361061  157.27699280    2.84999990    2.48000002
   20.50666618  155.79800415    2.82999992    2.46000004
   20.51277733  155.79800415    2.86999989    2.46000004
   20.51666641  157.32000732    2.86999989    2.46000004
   20.52000046  155.55900574    2.89000010    2.46000004
   20.52111053  155.55999756    2.89000010    2.46000004
   20.52361107  159.22000122    2.89000010    2.46000004
   20.52694511  165.14199829    2.91000009    2.48000002
   20.53000069  157.05700684    2.86999989    2.48000002
   20.53333282  156.21899414    2.89000010    2.48000002
   20.53666687  149.81199646    2.89000010    2.48000002
   20.53972244  149.47200012    2.93000007    2.46000004
   20.54305458  157.27999878    2.93000007    2.46000004
   20.54611015  162.97099304    2.94000006    2.46000004
   20.54944420  160.63800049    2.91000009    2.46000004
   20.55555534  160.63800049    2.91000009    2.46000004
   20.55972099  156.70500183    2.91000009    2.46000004
   20.56277657  154.85299683    2.91000009    2.46000004
   20.56611061  153.96499634    2.91000009    2.46000004
   20.56944466  157.49200439    2.94000006    2.48000002
   20.57250023  155.67900085    2.98000002    2.46000004
   20.57583427  153.24600220    2.80999994    2.46000004
   20.57888985  154.11199951    4.90999985    2.50000000
   20.58222389  158.08500671    0.28000000    0.51999998
   20.58555603  156.09599304    0.17000000    0.28000000
   20.58805656  163.28999329    0.13000000    0.05000000
   20.58916664  157.83900452    0.13000000    0.05000000
   20.59250069  165.37399292    0.13000000    0.05000000
   20.59833336  165.37399292    0.13000000    0.05000000
   20.60250092  157.67100525    0.13000000    0.05000000
   20.60583305  160.69500732    0.13000000    0.05000000
   20.60888863  156.73800659    0.13000000    0.05000000
   20.61222267  154.32299805    0.13000000    0.05000000
   20.61527824  164.29800415    0.13000000    0.05000000
   20.61861038  161.71499634    0.13000000    0.05000000
   20.62111092  156.26699829    0.13000000    0.05000000
   20.62222290  161.15699768    0.13000000    0.05000000
   20.62555504  162.49299622    0.13000000    0.05000000
   20.62861061  161.31900024    0.13000000    0.05000000
   20.63194466  162.49000549    0.13000000    0.05000000
   20.63527679  159.96200562    0.13000000    0.05000000
   20.64111137  159.96200562    0.13000000    0.05000000
   20.64527702  164.02499390    0.13000000    0.05000000
   20.64861107  156.42900085    0.13000000    0.05000000
   20.65166664  155.12699890    0.13000000    0.05000000
   20.65472221  155.38299561    0.13000000    0.05000000
   20.65527725  158.03500366    0.13000000    0.05000000
   20.65861130  159.60099792    0.13000000    0.05000000
   20.66194344  162.52600098    0.13000000    0.05000000
   20.66499901  159.36700439    0.13000000    0.05000000
   20.66833305  158.54800415    0.13000000    0.05000000
   20.67166519  160.31700134    0.13000000    0.05000000
   20.67472076  161.94000244    0.13000000    0.05000000
   20.67805481  159.10099792    0.13000000    0.05000000
   20.68416595  159.10099792    0.13000000    0.05000000
   20.68833160  165.41999817    0.13000000    0.05000000
   20.69138718  165.11300659    0.13000000    0.05000000
   20.69472122  159.81599426    0.13000000    0.05000000
   20.69777679  162.19299316    0.13000000    0.05000000
   20.70111275  157.93800354    0.13000000    0.05000000
   20.70444489  159.23899841    0.13000000    0.05000000
   20.70750046  167.66900635    0.13000000    0.05000000
   20.71083450  156.35200500    0.13000000    0.05000000
   20.71416664  158.78300476    0.13000000    0.05000000
   20.71722221  157.10099792    0.13000000    0.05000000
   20.72055626  156.43299866    0.13000000    0.05000000
   20.72138977  157.78399658    0.13000000    0.05000000
   20.72694588  157.78399658    0.13000000    0.05000000
   20.73111153  160.41999817    0.13000000    0.05000000
   20.73416710  155.93200684    0.13000000    0.05000000
   20.73750114  156.54600525    0.13000000    0.05000000
   20.74083328  161.10200500    0.13000000    0.05000000
   20.74388885  155.89399719    0.13000000    0.05000000
   20.74722290  160.07299805    0.13000000    0.05000000
   20.75027847  173.30799866    0.13000000    0.05000000
   20.75361061  183.60200500    0.13000000    0.05000000
   20.75472260  192.09399414    0.13000000    0.05000000
   20.75722313  199.02299500    0.13000000    0.05000000
   20.76055527  216.32499695    0.13000000    0.05000000
   20.76250076  241.75000000    0.13000000    0.05000000
   20.76388931  243.30900574    0.13000000    0.05000000
   20.76527786  260.29800415    0.13000000    0.05000000
   20.76666641  276.16598511    0.13000000    0.05000000
   20.76805496  289.83499146    0.13000000    0.05000000
   20.76944351  338.19900513    0.13000000    0.05000000
   20.77083397  343.30398560    0.13000000    0.05000000
   20.77222252  333.77200317    0.13000000    0.05000000
   20.77361107  235.13900757    0.13000000    0.05000000
   20.77499962  161.25000000    0.13000000    0.05000000
   20.77499962  160.07299805    0.13000000    0.05000000
   20.77499962  173.30799866    0.13000000    0.05000000
   20.77499962  183.60200500    0.13000000    0.05000000
   20.77499962  199.02299500    0.13000000    0.05000000
   20.77527809  216.32499695    0.13000000    0.05000000
   20.77527809  155.93200684    0.13000000    0.05000000
   20.77527809  156.54600525    0.13000000    0.05000000
   20.77527809  161.10200500    0.13000000    0.05000000
   20.77527809  155.89399719    0.13000000    0.05000000
   20.77611160  125.82299805    0.13000000    0.05000000
   20.77916718   -1.00000000    0.13000000    0.05000000
   20.78249931   -1.00000000    0.13000000    0.05000000
   20.78555489   -1.00000000    0.13000000    0.05000000
   20.78888893   -1.00000000    0.13000000    0.05000000
   20.79972076   -1.00000000    0.13000000    0.05000000
   20.80305481   -1.00000000    0.13000000    0.05000000
   20.80611038   -1.00000000    0.13000000    0.05000000
   20.80972099   -1.00000000    0.13000000    0.05000000
   20.81277657   -1.00000000    0.13000000    0.05000000
   20.81611061   -1.00000000    0.13000000    0.05000000
   20.81944466   -1.00000000    0.13000000    0.05000000
   20.82250023   -1.00000000    0.13000000    0.05000000
   20.82583427   -1.00000000    0.13000000    0.05000000
   20.82916832   -1.00000000    0.13000000    0.05000000
   20.83222389   -1.00000000    0.13000000    0.05000000
   20.84250069   -1.00000000    0.13000000    0.05000000
   20.84583473   -1.00000000    0.13000000    0.05000000
   20.84916687   -1.00000000    0.13000000    0.05000000
   20.85222244   -1.00000000    0.13000000    0.05000000
   20.85555649   -1.00000000    0.13000000    0.05000000
   20.85861206   -1.00000000    0.13000000    0.05000000
   20.86194420   -1.00000000    0.13000000    0.05000000
   20.86527824   -1.00000000    0.13000000    0.05000000
   20.86833382   -1.00000000    0.13000000    0.05000000
   20.87166595   -1.00000000    0.13000000    0.05000000
   20.87500000   -1.00000000    0.13000000    0.05000000
   20.88555527   -1.00000000    0.13000000    0.05000000
   20.88861084   -1.00000000    0.13000000    0.05000000
   20.89194489   -1.00000000    0.13000000    0.05000000
   20.89500046   -1.00000000    0.13000000    0.05000000
   20.89833260   -1.00000000    0.13000000    0.05000000
   20.90166664   -1.00000000    0.13000000    0.05000000
   20.90472221   -1.00000000    0.13000000    0.05000000
   20.90805435   -1.00000000    0.13000000    0.05000000
   20.91166687   -1.00000000    0.13000000    0.05000000
   20.91499901   -1.00000000    0.13000000    0.05000000
   20.91805458   -1.00000000    0.13000000    0.05000000
   20.92833328   -1.00000000    0.13000000    0.05000000
   20.93166542   -1.00000000    0.13000000    0.05000000
   20.93472099   -1.00000000    0.13000000    0.05000000
   20.93805504   -1.00000000    0.13000000    0.05000000
   20.94111061   -1.00000000    0.13000000    0.05000000
   20.94472122   -1.00000000    0.13000000    0.05000000
   20.94805527   -1.00000000    0.13000000    0.05000000
   20.95111275   -1.00000000    0.13000000    0.05000000
   20.95444489   -1.00000000    0.13000000    0.05000000
   20.95750046   -1.00000000    0.13000000    0.05000000
   20.96083450   -1.00000000    0.13000000    0.05000000
   20.97111130   -1.00000000    0.13000000    0.05000000
   20.97444534   -1.00000000    0.13000000    0.05000000
   20.97805595   -1.00000000    0.13000000    0.05000000
   20.98139000   -1.00000000    0.13000000    0.05000000
   20.98444557   -1.00000000    0.13000000    0.05000000
   20.98777771   -1.00000000    0.13000000    0.05000000
   20.99166679   -1.00000000    0.00000000    0.00000000
   20.99555588   -1.00000000    0.00000000    0.00000000
   20.99916649   -1.00000000    0.00000000    0.00000000
   21.00305557   -1.00000000    0.00000000    0.00000000
   21.01527786   -1.00000000    0.00000000    0.00000000
   21.01916695   -1.00000000    0.00000000    0.00000000
   21.02305603   -1.00000000    0.00000000    0.00000000
