    HOUR (UT)   FLARE FACTOR    SKY TESTER    SUN TESTER
   12.26138878   -1.00000000   -1.00000000   -1.00000000
   12.28111076  130.83099365    0.81999999    1.75000000
   12.28694534  129.70100403    0.81999999    1.76999998
   12.29000092  162.54100037    0.83999997    1.76999998
   12.29333401  182.25399780    0.81999999    1.76999998
   12.29666710  133.19400024    0.81999999    1.76999998
   12.29972267  133.06799316    0.83999997    1.76999998
   12.30305576  180.07499695    0.83999997    1.76999998
   12.30611134  165.65499878    0.81999999    1.76999998
   12.33527756  133.64399719    0.86000001    1.78999996
   12.33972168  118.12899780    0.88000000    1.78999996
   12.34277725  117.56400299    0.86000001    1.80999994
   12.34611034  120.99500275    0.86000001    1.80999994
   12.34944439  107.84500122    0.88000000    1.80999994
   12.35555553  107.84500122    0.88000000    1.80999994
   12.35972214  103.91799927    0.88000000    1.83000004
   12.36305618  117.73600006    0.88000000    1.83000004
   12.36611176  113.61399841    0.88000000    1.83000004
   12.36861134  113.97499847    0.88000000    1.83000004
   12.36972237  111.47899628    0.88000000    1.83000004
   12.37277794  117.89199829    0.88000000    1.83000004
   12.37611103  111.80599976    0.86000001    1.83000004
   12.37944412  109.52999878    0.86000001    1.85000002
   12.38249969  116.96199799    0.86000001    1.85000002
   12.38583279  133.71899414    0.86000001    1.85000002
   12.38888836  113.21299744    0.86000001    1.85000002
   12.39249992  112.80200195    0.86000001    1.85000002
   12.39833355  112.80200195    0.86000001    1.85000002
   12.40249920  123.61299896    0.86000001    1.86000001
   12.40583324  120.18199921    0.86000001    1.86000001
   12.40916634  112.60099792    0.86000001    1.86000001
   12.41222191  109.40200043    0.86000001    1.86000001
   12.41555500  105.19200134    0.86000001    1.86000001
   12.41861153  110.18099976    0.86000001    1.86000001
   12.42194462  117.41500092    0.86000001    1.86000001
   12.42527771   99.16089630    0.86000001    1.86000001
   12.42833328  117.73799896    0.86000001    1.88000000
   12.43166733  109.22799683    0.86000001    1.88000000
   12.43472195  106.94300079    0.86000001    1.88000000
   12.43527794  125.28099823    0.86000001    1.88000000
   12.44111156  125.28099823    0.86000001    1.88000000
   12.44527817  108.48500061    0.86000001    1.88000000
   12.44861126  108.43499756    0.86000001    1.88000000
   12.45166683  123.26699829    0.86000001    1.88000000
   12.45499992  112.42600250    0.86000001    1.89999998
   12.45833302  114.24299622    0.86000001    1.89999998
   12.46138859  110.68699646    0.86000001    1.89999998
   12.46472168  111.90399933    0.86000001    1.91999996
   12.46805477  112.35900116    0.86000001    1.91999996
   12.46861076  106.16500092    0.86000001    1.91999996
   12.47166634  117.29499817    0.86000001    1.89999998
   12.47472191  130.74899292    0.86000001    1.89999998
   12.47805500  116.80200195    0.86000001    1.91999996
   12.48416710  116.80200195    0.86000001    1.94000006
   12.48805618  116.56600189    0.86000001    1.91999996
   12.49138927  114.78399658    0.86000001    1.91999996
   12.49472237  110.07499695    0.86000001    1.91999996
   12.49777794  109.47499847    0.86000001    1.91999996
   12.50111103  108.53500366    0.86000001    1.94000006
   12.50194454  105.32700348    0.86000001    1.94000006
   12.50472260  106.61399841    0.86000001    1.94000006
   12.50777817  108.04199982    0.86000001    1.94000006
   12.51111126  110.56199646    0.86000001    1.94000006
   12.51444435  101.47699738    0.86000001    1.94000006
   12.51749992  117.32499695    0.86000001    1.94000006
   12.52083302  108.48400116    0.83999997    1.94000006
   12.52694416  108.48400116    0.83999997    1.96000004
   12.53111076  116.20899963    0.83999997    1.96000004
   12.53444481  116.50199890    0.83999997    1.96000004
   12.53527832  124.21099854    0.83999997    1.96000004
   12.53805637  109.95800018    0.83999997    1.96000004
   12.54138947  114.90899658    0.83999997    1.96000004
   12.54444504  112.96600342    0.81999999    1.96000004
   12.54777813  110.60299683    0.81999999    1.96000004
   12.55083370  113.02400208    0.83999997    1.98000002
   12.55416679  114.10099792    0.81999999    1.98000002
   12.55749989  121.08899689    0.81999999    1.98000002
   12.56055546  114.79900360    0.81999999    1.98000002
   12.56388950  113.86699677    0.81999999    1.98000002
   12.56972218  113.86699677    0.81999999    1.98000002
   12.57388878  108.03800201    0.81999999    1.98000002
   12.57722187  120.01200104    0.80000001    1.98000002
   12.58083344  107.91600037    0.80000001    2.00000000
   12.58388901  108.50599670    0.79000002    2.00000000
   12.58722210  121.94100189    0.79000002    2.00000000
   12.59083271  119.12400055    0.80000001    2.00000000
   12.59416676  126.62100220    0.79000002    2.00000000
   12.59749985  119.81800079    0.79000002    2.00000000
   12.60055637  115.57399750    0.79000002    2.00000000
   12.60194492  126.55699921    0.79000002    2.00000000
   12.60416698  109.32599640    0.79000002    2.00000000
   12.60750008  109.65599823    0.79000002    2.00000000
   12.61277771  109.65599823    0.76999998    2.00000000
   12.61694431  112.62000275    0.76999998    2.01999998
   12.61999989  110.57900238    0.76999998    2.01999998
   12.62333393  102.72299957    0.76999998    2.01999998
   12.62666702  109.00900269    0.76999998    2.01999998
   12.62972260  109.50700378    0.76999998    2.01999998
   12.63305569  114.79699707    0.76999998    2.01999998
   12.63527775  115.92099762    0.76999998    2.01999998
   12.63666630  124.83499908    0.76999998    2.01999998
   12.64000034  115.94100189    0.76999998    2.01999998
   12.64305496  119.00099945    0.76999998    2.03999996
   12.64638901  106.80699921    0.79000002    2.03999996
   12.64972210  107.30000305    0.76999998    2.03999996
   12.65555477  107.30000305    0.76999998    2.03999996
   12.65972137  122.96299744    0.79000002    2.05999994
   12.66277695  131.05099487    0.79000002    2.03999996
   12.66611099  135.54100037    0.79000002    2.03999996
   12.66861153  123.86299896    0.79000002    2.03999996
   12.66972256  131.85499573    0.79000002    2.03999996
   12.67305565  124.22799683    0.79000002    2.03999996
   12.67611122  134.81300354    0.79000002    2.03999996
   12.67944431  132.61700439    0.79000002    2.05999994
   12.68277836  119.48600006    0.79000002    2.05999994
   12.68583298  112.12200165    0.79000002    2.05999994
   12.68916702  116.09100342    0.79000002    2.05999994
   12.69250011  122.97499847    0.79000002    2.05999994
   12.69833374  122.97499847    0.79000002    2.05999994
   12.70249939  109.76100159    0.79000002    2.05999994
   12.70583344  104.91100311    0.79000002    2.05999994
   12.70888901  119.86199951    0.79000002    2.05999994
   12.71222210  106.18299866    0.79000002    2.05999994
   12.71555519  110.53399658    0.79000002    2.05999994
   12.71861076  105.75499725    0.79000002    2.07999992
   12.72194386  106.21299744    0.79000002    2.07999992
   12.72499943  108.50900269    0.79000002    2.07999992
   12.72833252  113.25800323    0.79000002    2.07999992
   12.73166656  112.58499908    0.79000002    2.07999992
   12.73472214  115.36100006    0.79000002    2.07999992
   12.73527813  120.97100067    0.79000002    2.07999992
   12.74111176  120.97100067    0.76999998    2.07999992
   12.74527836  127.74700165    0.76999998    2.09999990
   12.74861145  120.76399994    0.76999998    2.09999990
   12.75194454  123.52600098    0.76999998    2.09999990
   12.75500011  115.53199768    0.76999998    2.09999990
   12.85138893   -1.00000000   -1.00000000   -1.00000000
   12.94833374   -1.00000000   -1.00000000   -1.00000000
   13.04972267   -1.00000000   -1.00000000   -1.00000000
   13.07527733   73.35289764    0.67000002    2.23000002
   13.07833290  118.63300323    0.64999998    2.25000000
   13.08166695  114.23600006    0.67000002    2.23000002
   13.08472157  118.17500305    0.64999998    2.23000002
   13.08805561  114.67700195    0.64999998    2.25000000
   13.09138870  107.13700104    0.64999998    2.23000002
   13.09527779  107.13700104    0.64999998    2.23000002
   13.09944439  110.50000000    0.64999998    2.23000002
   13.10277843  109.72899628    0.64999998    2.23000002
   13.10611153  108.12200165    0.63000000    2.23000002
   13.10833359  126.13400269    0.64999998    2.25000000
   13.10972214  114.74700165    0.64999998    2.25000000
   13.11277771  118.41100311    0.63000000    2.25000000
   13.11611176  123.49199677    0.63000000    2.25000000
   13.11944485  120.58599854    0.63000000    2.25000000
   13.12250042  118.03900146    0.63000000    2.25000000
   13.12583351  119.12999725    0.63000000    2.25000000
   13.12916660  116.51499939    0.63000000    2.25000000
   13.13222218  113.25000000    0.63000000    2.25000000
   13.13833332  113.25000000    0.64999998    2.25000000
   13.14249992  113.36199951    0.64999998    2.25000000
   13.14555550  102.33499908    0.64999998    2.25000000
   13.14888859  103.00299835    0.64999998    2.25000000
   13.15194416  101.42299652    0.64999998    2.25000000
   13.15527725  105.75000000    0.64999998    2.25000000
   13.15861034  102.99099731    0.63000000    2.25000000
   13.16166592  105.35399628    0.63000000    2.25000000
   13.16499996  108.19899750    0.63000000    2.26999998
   13.16833401  108.27400208    0.61000001    2.25000000
   13.17138958  102.86000061    0.61000001    2.25000000
   13.17472267  107.07299805    0.61000001    2.26999998
   13.17527771  111.56999969    0.61000001    2.26999998
   13.18111134  111.56999969    0.61000001    2.26999998
   13.18527794  109.30599976    0.58999997    2.26999998
   13.18833351  117.53700256    0.58999997    2.26999998
   13.19166660  124.94499969    0.61000001    2.25000000
   13.19499969  125.91000366    0.58999997    2.26999998
   13.19805527  107.23899841    0.61000001    2.26999998
   13.20138836  111.55500031    0.61000001    2.26999998
   13.20472240  111.15000153    0.61000001    2.28999996
   13.20777798  106.70300293    0.61000001    2.26999998
   13.20861053  108.98000336    0.61000001    2.26999998
   13.21138859  106.45099640    0.61000001    2.26999998
   13.21472168  107.11199951    0.61000001    2.26999998
   13.21777725  117.41100311    0.63000000    2.26999998
   13.22388840  117.41100311    0.63000000    2.26999998
   13.22805500  107.94699860    0.61000001    2.28999996
   13.23138809  108.59999847    0.63000000    2.28999996
   13.23444462  104.23300171    0.61000001    2.28999996
   13.23777771  103.85500336    0.61000001    2.28999996
   13.24111176  109.20099640    0.61000001    2.28999996
   13.24194431  109.84500122    0.61000001    2.28999996
   13.24444485  108.40499878    0.63000000    2.28999996
   13.24777794  107.89700317    0.63000000    2.28999996
   13.25111103  110.74900055    0.63000000    2.28999996
   13.25416660  115.59700012    0.63000000    2.28999996
   13.25749969  103.83899689    0.63000000    2.28999996
   13.26083374  108.18699646    0.63000000    2.28999996
   13.26666641  108.18699646    0.63000000    2.28999996
   13.27083302   98.87740326    0.61000001    2.28999996
   13.27416611  103.32099915    0.61000001    2.28999996
   13.27527714  107.04299927    0.61000001    2.28999996
   13.27777767  110.54100037    0.61000001    2.28999996
   13.28111076  105.88899994    0.58999997    2.28999996
   13.28444481  110.54499817    0.58999997    2.28999996
   13.28750038  107.31500244    0.58999997    2.28999996
   13.29083347  109.79100037    0.61000001    2.30999994
   13.29388905  106.75800323    0.58999997    2.30999994
   13.29722309  113.44000244    0.58999997    2.30999994
   13.30055618  103.08699799    0.61000001    2.28999996
   13.30361176  100.03600311    0.61000001    2.30999994
   13.30972195  100.03600311    0.56999999    2.30999994
   13.31388950  107.63700104    0.56999999    2.30999994
   13.31722260  109.18699646    0.56999999    2.30999994
   13.32027817  104.10500336    0.56999999    2.30999994
   13.32361126  106.75299835    0.56999999    2.30999994
   13.32694435  104.49299622    0.55000001    2.30999994
   13.32999992  102.11499786    0.55000001    2.32999992
   13.33333302  102.81900024    0.56999999    2.30999994
   13.33666611  112.49099731    0.55000001    2.30999994
   13.33972168  102.14499664    0.55000001    2.30999994
   13.34194374  106.38500214    0.55000001    2.30999994
   13.34333324  103.82199860    0.55000001    2.30999994
   13.34666634  105.34400177    0.55000001    2.30999994
   13.35249996  105.34400177    0.56999999    2.30999994
   13.35666752   97.40249634    0.56999999    2.32999992
   13.35972214  107.81500244    0.56999999    2.30999994
   13.36305618  103.32499695    0.56999999    2.30999994
   13.36638927  102.37300110    0.55000001    2.32999992
   13.36944485  102.15499878    0.55000001    2.30999994
   13.37277794  110.17600250    0.55000001    2.32999992
   13.37527752  106.76599884    0.55000001    2.32999992
   13.37638855  104.83399963    0.55000001    2.32999992
   13.37972260  109.86199951    0.55000001    2.32999992
   13.38305569  105.41400146    0.55000001    2.32999992
   13.38611126  108.38899994    0.55000001    2.32999992
   13.38944435  109.34999847    0.55000001    2.32999992
   13.39527798  109.34999847    0.56999999    2.30999994
   13.39944458  106.25599670    0.56999999    2.32999992
   13.40277767  104.50599670    0.56999999    2.32999992
   13.40583324  107.83000183    0.56999999    2.32999992
   13.40861034  108.27999878    0.56999999    2.32999992
   13.40944386   99.82499695    0.56999999    2.32999992
   13.41277695  112.53299713    0.58999997    2.32999992
   13.41611099   99.94899750    0.58999997    2.32999992
   13.41916656  106.63300323    0.61000001    2.32999992
   13.42250061  113.93900299    0.58999997    2.32999992
   13.42583370  103.33399963    0.58999997    2.32999992
   13.42916679  103.39499664    0.56999999    2.34999990
   13.43249989  101.00399780    0.58999997    2.32999992
   13.43805599  101.00399780    0.56999999    2.34999990
   13.44222260   99.72029877    0.55000001    2.34999990
   13.44555569  100.37000275    0.55000001    2.32999992
   13.44888878   99.52790070    0.55000001    2.34999990
   13.45194435  100.05599976    0.55000001    2.34999990
   13.45527744  101.78399658    0.55000001    2.34999990
   13.45833302  105.32599640    0.55000001    2.34999990
   13.46166611  110.27100372    0.55000001    2.34999990
   13.46500015  108.40200043    0.56999999    2.34999990
   13.46805477  103.03800201    0.56999999    2.34999990
   13.47138882  105.21900177    0.55000001    2.34999990
   13.47472191  101.23799896    0.56999999    2.34999990
   13.47527695  103.82399750    0.56999999    2.34999990
   13.48111057  103.82399750    0.56999999    2.34999990
   13.48527813  100.29799652    0.56999999    2.34999990
   13.48833370  107.59600067    0.56999999    2.36999989
   13.49166679  105.37599945    0.56999999    2.34999990
   13.49499989  109.58300018    0.56999999    2.34999990
   13.49805546  100.48600006    0.56999999    2.34999990
   13.50138855  108.87000275    0.56999999    2.36999989
   13.50444412  104.36799622    0.58999997    2.34999990
   13.50777817  106.53500366    0.58999997    2.34999990
   13.50861073   99.87039948    0.58999997    2.36999989
   13.51138878  106.07099915    0.58999997    2.36999989
   13.51472187  101.86799622    0.58999997    2.34999990
   13.51805496  105.48899841    0.56999999    2.36999989
   13.52388859  105.48899841    0.58999997    2.36999989
   13.52805519  108.23600006    0.58999997    2.36999989
   13.53111076  105.98100281    0.58999997    2.36999989
   13.53444481  105.49299622    0.58999997    2.36999989
   13.53777790   99.85800171    0.61000001    2.36999989
   13.54083347  102.25599670    0.61000001    2.36999989
   13.54194450  110.55000305    0.63000000    2.36999989
   13.54444504  109.04599762    0.63000000    2.36999989
   13.54777813  102.21199799    0.61000001    2.36999989
   13.55111122  109.94599915    0.63000000    2.36999989
   13.55416679  102.62799835    0.61000001    2.36999989
   13.55749989  103.92800140    0.63000000    2.36999989
   13.56083393  104.64199829    0.63000000    2.36999989
   13.56666660  104.64199829    0.63000000    2.36999989
   13.57083321   99.56279755    0.63000000    2.36999989
   13.57416630   99.29239655    0.61000001    2.36999989
   13.57527733   99.63030243    0.61000001    2.36999989
   13.57750034   99.05599976    0.61000001    2.36999989
   13.58083344   91.43699646    0.61000001    2.39000010
   13.58416653  100.73300171    0.61000001    2.39000010
   13.58722210   99.22029877    0.58999997    2.39000010
   13.59055519  101.75199890    0.61000001    2.39000010
   13.59388828  102.33599854    0.61000001    2.36999989
   13.59694386  102.25199890    0.61000001    2.39000010
   13.60027790  100.96299744    0.61000001    2.36999989
   13.60361195   97.09320068    0.61000001    2.39000010
   13.60944462   97.09320068    0.61000001    2.39000010
   13.61361122  108.60099792    0.61000001    2.39000010
   13.61694431  105.06199646    0.63000000    2.39000010
   13.62027836  109.75399780    0.63000000    2.39000010
   13.62333393  105.40599823    0.63000000    2.40000010
   13.62666702  105.17400360    0.63000000    2.40000010
   13.62972260  100.38500214    0.63000000    2.39000010
   13.63305569  102.58200073    0.61000001    2.36999989
   13.63638878  105.39399719    0.61000001    2.39000010
   13.63944435  108.84100342    0.61000001    2.39000010
   13.64194393  100.97299957    0.61000001    2.39000010
   13.64305496   98.37509918    0.61000001    2.39000010
   13.64638901  109.78099823    0.61000001    2.39000010
   13.65249920  109.78099823    0.58999997    2.39000010
   13.65666676  104.80000305    0.58999997    2.40000010
   13.65972137  102.96299744    0.58999997    2.40000010
   13.66305542  101.84100342    0.61000001    2.39000010
   13.66611099  102.21099854    0.61000001    2.39000010
   13.66944504  104.75499725    0.61000001    2.39000010
   13.67277813  105.15499878    0.58999997    2.39000010
   13.67527771  101.44999695    0.58999997    2.39000010
   13.67611122  104.32900238    0.58999997    2.39000010
   13.67944431  107.17700195    0.58999997    2.39000010
   13.68277836  105.83699799    0.61000001    2.39000010
   13.68583298   98.61350250    0.58999997    2.40000010
   13.68916702  106.90000153    0.58999997    2.39000010
   13.69527817  106.90000153    0.58999997    2.40000010
   13.69944477  102.60600281    0.58999997    2.40000010
   13.70249939   97.29489899    0.58999997    2.39000010
   13.70583344  102.13899994    0.58999997    2.39000010
   13.70861053  102.71800232    0.58999997    2.39000010
   13.70944405  103.93699646    0.58999997    2.39000010
   13.71277714  103.76799774    0.58999997    2.39000010
   13.71611118  100.17199707    0.56999999    2.39000010
   13.71916580  104.25299835    0.58999997    2.40000010
   13.72249985   98.66179657    0.56999999    2.40000010
   13.72583294   99.64199829    0.56999999    2.40000010
   13.72888851   95.38240051    0.55000001    2.39000010
   13.73222160   97.92279816    0.55000001    2.40000010
   13.73805618   97.92279816    0.52999997    2.40000010
   13.74222279  103.86000061    0.52999997    2.40000010
   13.74555588   99.86229706    0.55000001    2.40000010
   13.74861145  102.81800079    0.58999997    2.40000010
   13.75194454  100.29900360    0.64999998    2.42000008
   13.75527763  102.16500092    0.63000000    2.40000010
   13.75833321  102.44499969    0.61000001    2.40000010
   13.76166630  105.28800201    0.58999997    2.40000010
   13.76500034  104.52500153    0.58999997    2.40000010
   13.76805496  105.98400116    0.58999997    2.40000010
   13.77138901  105.51399994    0.56999999    2.40000010
   13.77444458  103.16999817    0.56999999    2.42000008
   13.77527714  108.88099670    0.56999999    2.42000008
   13.78083324  108.88099670    0.56999999    2.40000010
   13.78500080  110.31500244    0.56999999    2.40000010
   13.78833389  103.56500244    0.56999999    2.40000010
   13.79166698  106.08100128    0.56999999    2.40000010
   13.79472256  101.08599854    0.56999999    2.40000010
   13.79805565  107.99700165    0.56999999    2.40000010
   13.80111122  105.48799896    0.55000001    2.42000008
   13.80444431  101.10299683    0.55000001    2.42000008
   13.80777836  110.40100098    0.55000001    2.40000010
   13.80861092  100.56099701    0.55000001    2.40000010
   13.81138897  104.00599670    0.55000001    2.42000008
   13.81444454   98.99440002    0.55000001    2.42000008
   13.81777763  101.89099884    0.55000001    2.42000008
   13.82388878  101.89099884    0.55000001    2.42000008
   13.82805538  104.61699677    0.52999997    2.40000010
   13.83111095  110.54799652    0.52999997    2.40000010
   13.83444405  108.51300049    0.51999998    2.42000008
   13.83749962  110.33000183    0.52999997    2.44000006
   13.84083271  105.19200134    0.51999998    2.42000008
   13.84194374  110.39099884    0.51999998    2.42000008
   13.84444427  115.40699768    0.51999998    2.42000008
   13.84749985  106.08399963    0.51999998    2.42000008
   13.85083389  108.54799652    0.51999998    2.42000008
   13.85388947  111.38899994    0.50000000    2.44000006
   13.85722256  105.39099884    0.51999998    2.44000006
   13.86055565  104.11599731    0.52999997    2.44000006
   13.86666679  104.11599731    0.51999998    2.42000008
   13.87083340  114.26599884    0.51999998    2.42000008
   13.87388897  107.48400116    0.51999998    2.42000008
   13.87527752  105.25099945    0.51999998    2.42000008
   13.87777805  105.11100006    0.51999998    2.42000008
   13.88083363  103.47200012    0.52999997    2.42000008
   13.88416672   98.83339691    0.52999997    2.42000008
   13.88722229  103.37599945    0.51999998    2.42000008
   13.89055538  102.50099945    0.52999997    2.42000008
   13.89388847  101.55300140    0.52999997    2.42000008
   13.89694405  103.36499786    0.52999997    2.44000006
   13.90027714  107.98799896    0.55000001    2.44000006
   13.90361118  102.04900360    0.55000001    2.44000006
   13.90944386  102.04900360    0.56999999    2.44000006
   13.91361046  109.35500336    0.56999999    2.44000006
   13.91694450  110.01999664    0.58999997    2.42000008
   13.92000008  106.49299622    0.58999997    2.44000006
   13.92333412   98.33950043    0.56999999    2.44000006
   13.92638874  106.19400024    0.55000001    2.44000006
   13.92972279  106.81099701    0.55000001    2.44000006
   13.93305588   97.03910065    0.56999999    2.42000008
   13.93611145  106.41000366    0.55000001    2.42000008
   13.93944454  105.83699799    0.56999999    2.44000006
   13.94222260  109.58499908    0.55000001    2.44000006
   13.94305515  105.49199677    0.55000001    2.44000006
   13.94638920  108.08699799    0.55000001    2.44000006
   13.95222187  108.08699799    0.56999999    2.44000006
   13.95638847  108.25399780    0.56999999    2.44000006
   13.95972157   99.72689819    0.56999999    2.44000006
   13.96305561   99.66359711    0.58999997    2.46000004
   13.96611118   97.68759918    0.58999997    2.44000006
   13.96944427   96.68340302    0.58999997    2.44000006
   13.97249985  104.61399841    0.58999997    2.44000006
   13.97527695  100.24600220    0.58999997    2.44000006
   13.97638798  105.18099976    0.58999997    2.44000006
   13.97944355  102.88099670    0.58999997    2.44000006
   13.98277760  105.89299774    0.58999997    2.46000004
   13.98611164  112.39900208    0.58999997    2.44000006
   13.98916721  107.92299652    0.61000001    2.44000006
   13.99527836  107.92299652    0.61000001    2.46000004
   13.99944496  100.04599762    0.58999997    2.46000004
   14.00249958  106.64700317    0.61000001    2.44000006
   14.00583363  105.47599792    0.58999997    2.46000004
   14.00861073  103.68900299    0.58999997    2.46000004
   14.00944424  104.62799835    0.61000001    2.44000006
   14.01277733  106.80799866    0.61000001    2.46000004
   14.01583290  104.05100250    0.61000001    2.46000004
   14.01916599  100.41200256    0.58999997    2.46000004
   14.02250004  101.52799988    0.61000001    2.46000004
   14.02555561   99.92209625    0.61000001    2.46000004
   14.02888870  104.28900146    0.58999997    2.44000006
   14.03222179  101.60700226    0.58999997    2.46000004
   14.03805637  101.60700226    0.56999999    2.46000004
   14.04222298  100.89399719    0.56999999    2.46000004
   14.04527855  106.80799866    0.56999999    2.46000004
   14.04861164  111.05699921    0.56999999    2.46000004
   14.05194473  103.39600372    0.56999999    2.46000004
   14.05500031   99.51490021    0.56999999    2.46000004
   14.05833340  104.23799896    0.55000001    2.46000004
   14.06166649  100.93699646    0.55000001    2.46000004
   14.06472206  102.26399994    0.55000001    2.46000004
   14.06805515  101.98300171    0.55000001    2.46000004
   14.07111073  102.57399750    0.55000001    2.46000004
   14.07444477  106.50199890    0.55000001    2.46000004
   14.07527733  101.46099854    0.55000001    2.46000004
   14.09583282  101.46099854    0.56999999    2.46000004
   14.10000038  101.08300018    0.56999999    2.46000004
   14.10333347  105.26200104    0.56999999    2.46000004
   14.10638905   97.13349915    0.56999999    2.46000004
   14.10861111   98.77940369    0.56999999    2.46000004
   14.11027813  108.46099854    0.56999999    2.46000004
   14.11361122   98.69499969    0.56999999    2.46000004
   14.11666679  106.31099701    0.56999999    2.46000004
   14.11999989  110.31700134    0.63000000    2.46000004
   14.12305546  106.79499817    0.63000000    2.46000004
   14.12638855  107.48799896    0.63000000    2.46000004
   14.12972260  110.71099854    0.63000000    2.46000004
   14.13277817  108.62000275    0.63000000    2.46000004
   14.13861084  108.62000275    0.61000001    2.46000004
   14.14277744  102.64199829    0.58999997    2.46000004
   14.14611053  104.96600342    0.58999997    2.46000004
   14.14916611  105.72699738    0.61000001    2.48000002
   14.15249920  103.96199799    0.61000001    2.48000002
   14.15583324  102.42800140    0.61000001    2.48000002
   14.15888882  105.58699799    0.58999997    2.48000002
   14.16222191  103.07099915    0.58999997    2.48000002
   14.16555500  102.81400299    0.58999997    2.48000002
   14.16861153   94.23539734    0.58999997    2.46000004
   14.17194462   99.50599670    0.58999997    2.46000004
   14.17500019  102.15299988    0.58999997    2.48000002
   14.17555618  101.44499969    0.58999997    2.48000002
   14.18138885  101.44499969    0.58999997    2.48000002
   14.18555546   99.16899872    0.58999997    2.46000004
   14.18888855  103.52899933    0.58999997    2.46000004
   14.19222260   98.58270264    0.58999997    2.48000002
   14.19527817  106.19599915    0.58999997    2.48000002
   14.19861126  103.29599762    0.58999997    2.48000002
   14.20194435  102.88899994    0.58999997    2.48000002
   14.20499992  107.67400360    0.58999997    2.48000002
   14.20833302  107.52200317    0.58999997    2.48000002
   14.20888901  106.52799988    0.58999997    2.48000002
   14.21194458  108.40599823    0.61000001    2.48000002
   14.21527767  111.20500183    0.61000001    2.48000002
   14.21833324  102.32099915    0.63000000    2.48000002
   14.22444439  102.32099915    0.63000000    2.48000002
   14.22861099  107.34899902    0.61000001    2.48000002
   14.23166656  145.85899353    0.61000001    2.48000002
   14.23500061  141.15800476    0.58999997    2.46000004
   14.23833370  149.83799744    0.58999997    2.48000002
   14.24138927  141.12100220    0.58999997    2.48000002
   14.24222279  136.29299927    0.58999997    2.48000002
   14.24499989  142.18299866    0.58999997    2.48000002
   14.24833393  168.31700134    0.58999997    2.48000002
   14.25138855  105.17299652    0.58999997    2.48000002
   14.25472260  133.86599731    0.55000001    2.46000004
   14.25777817  149.71000671    0.55000001    2.48000002
   14.26111126  100.10399628    0.55000001    2.48000002
   14.26722240  100.10399628    0.55000001    2.48000002
   14.27138901  144.49600220    0.55000001    2.48000002
   14.27472210  122.08599854    0.55000001    2.48000002
   14.27555561  131.70199585    0.55000001    2.48000002
   14.27833271  130.17500305    0.55000001    2.48000002
   14.28166676  119.58200073    0.56999999    2.48000002
   14.28472233  110.97799683    0.56999999    2.48000002
   14.28805637  109.46600342    0.56999999    2.48000002
   14.29111195  128.37699890    0.56999999    2.48000002
   14.29444504  101.10299683    0.56999999    2.48000002
   14.29777813  114.57499695    0.56999999    2.48000002
   14.30083370  104.32700348    0.58999997    2.50000000
   14.30416679  110.13099670    0.58999997    2.48000002
   14.31000042  110.13099670    0.56999999    2.48000002
   14.31416702  109.54000092    0.56999999    2.48000002
   14.31750011  105.41300201    0.56999999    2.50000000
   14.32083321  100.93599701    0.56999999    2.48000002
   14.32388878  107.19699860    0.55000001    2.48000002
   14.32722187  110.04699707    0.55000001    2.50000000
   14.33027744  103.05300140    0.55000001    2.50000000
   14.33361053  104.48500061    0.55000001    2.50000000
   14.33694458  108.13400269    0.55000001    2.48000002
   14.34000015  107.33499908    0.55000001    2.48000002
   14.34222221  107.22000122    0.55000001    2.48000002
   14.34361076  108.75299835    0.55000001    2.48000002
   14.34694386  107.90699768    0.55000001    2.48000002
   14.35305595  107.90699768    0.55000001    2.48000002
   14.35722256  106.20400238    0.55000001    2.50000000
   14.36027813  106.33000183    0.55000001    2.50000000
   14.36361122  109.47799683    0.52999997    2.50000000
   14.36666679  103.82900238    0.52999997    2.50000000
   14.36999989  103.75199890    0.52999997    2.50000000
   14.37333393  105.97699738    0.52999997    2.50000000
   14.37555599  108.20600128    0.52999997    2.50000000
   14.37694454  103.05999756    0.52999997    2.50000000
   14.38027763  110.43900299    0.52999997    2.50000000
   14.38333321  104.32599640    0.52999997    2.50000000
   14.38666630  107.09899902    0.55000001    2.50000000
   14.39000034  109.81800079    0.55000001    2.50000000
   14.39583302  109.81800079    0.55000001    2.51999998
   14.39999962  106.58100128    0.55000001    2.50000000
   14.40305519  104.17099762    0.55000001    2.50000000
   14.40638828  108.76999664    0.55000001    2.50000000
   14.40888882  106.64099884    0.55000001    2.50000000
   14.40999985  110.39099884    0.56999999    2.50000000
   14.41333294  100.06900024    0.56999999    2.50000000
   14.41638851  100.76000214    0.56999999    2.50000000
   14.41972256  103.98899841    0.55000001    2.50000000
   14.42277813  104.11599731    0.55000001    2.50000000
   14.42611122  101.76000214    0.55000001    2.50000000
   14.42944431   99.19120026    0.55000001    2.50000000
   14.43249989  108.61599731    0.55000001    2.51999998
   14.43861103  108.61599731    0.55000001    2.50000000
   14.44277763  110.74199677    0.55000001    2.51999998
   14.44611073  102.47000122    0.55000001    2.51999998
   14.44916630  102.75800323    0.55000001    2.50000000
   14.45249939  103.59600067    0.55000001    2.50000000
   14.45583344  103.54399872    0.52999997    2.51999998
   14.45888901  101.28399658    0.52999997    2.51999998
   14.46222210  103.78900146    0.52999997    2.50000000
   14.46527767  109.63300323    0.52999997    2.50000000
   14.46861076   98.62860107    0.52999997    2.50000000
   14.47194386  106.10600281    0.55000001    2.50000000
   14.47499943  108.88700104    0.55000001    2.50000000
   14.47555542  104.94599915    0.55000001    2.50000000
   14.48138809  104.94599915    0.55000001    2.50000000
   14.48555565   97.38529968    0.55000001    2.51999998
   14.48888874  102.68000031    0.55000001    2.50000000
   14.49222279  101.38300323    0.55000001    2.50000000
   14.49527836  107.82099915    0.55000001    2.50000000
   14.49861145   99.77249908    0.56999999    2.51999998
   14.50166702  103.34899902    0.55000001    2.50000000
   14.50500011  107.20099640    0.55000001    2.50000000
   14.50833321  102.54699707    0.55000001    2.50000000
   14.50888920  106.33999634    0.56999999    2.50000000
   14.51194477   97.49759674    0.56999999    2.50000000
   14.51527786  103.26499939    0.56999999    2.51999998
   14.51833344   97.93550110    0.56999999    2.51999998
   14.52444458   97.93550110    0.55000001    2.51999998
   14.52861118  107.75599670    0.55000001    2.51999998
   14.53194427  106.75299835    0.55000001    2.51999998
   14.53500080  101.11299896    0.55000001    2.51999998
   14.53833389  109.56300354    0.55000001    2.51999998
   14.54166698  107.09999847    0.55000001    2.51999998
   14.54222298  107.10900116    0.55000001    2.51999998
   14.54500008  108.26999664    0.52999997    2.51999998
   14.54833412  108.33499908    0.52999997    2.51999998
   14.55138874  109.70099640    0.52999997    2.51999998
   14.55472279  106.47399902    0.52999997    2.51999998
   14.55805588  106.26499939    0.52999997    2.51999998
   14.56111145  105.56999969    0.51999998    2.51999998
   14.56722260  105.56999969    0.51999998    2.51999998
   14.57138920  108.54599762    0.51999998    2.51999998
   14.57444477  108.29499817    0.50000000    2.51999998
   14.57555580  103.75199890    0.50000000    2.51999998
   14.57805538   99.81770325    0.51999998    2.51999998
   14.58138847  105.30200195    0.50000000    2.51999998
   14.58444405  100.88899994    0.51999998    2.51999998
   14.58777714  101.51599884    0.50000000    2.50000000
   14.59111118  105.61199951    0.50000000    2.50000000
   14.59416676   96.33339691    0.50000000    2.50000000
   14.59749985  109.16100311    0.50000000    2.51999998
   14.60055637  105.05000305    0.50000000    2.51999998
   14.60388947  107.07499695    0.51999998    2.50000000
   14.61000061  107.07499695    0.51999998    2.51999998
   14.61416721   98.16580200    0.51999998    2.51999998
   14.61750031  101.50900269    0.51999998    2.51999998
   14.62055588   99.54969788    0.52999997    2.51999998
   14.62388897   98.60489655    0.51999998    2.51999998
   14.62694454  106.13999939    0.51999998    2.51999998
   14.63027763  103.45300293    0.51999998    2.51999998
   14.63361073  102.81099701    0.51999998    2.53999996
   14.63666630  103.80500031    0.51999998    2.51999998
   14.64000034  103.61000061    0.55000001    2.51999998
   14.64222240  107.01599884    0.56999999    2.51999998
   14.64361095  104.01599884    0.56999999    2.51999998
   14.64694405   99.28589630    0.56999999    2.53999996
   14.65277767   99.28589630    0.56999999    2.51999998
   14.65694427  105.27700043    0.58999997    2.51999998
   14.66027737  108.11699677    0.58999997    2.51999998
   14.66333294  104.80599976    0.58999997    2.51999998
   14.66666698  105.28299713    0.61000001    2.51999998
   14.67000008   98.44670105    0.58999997    2.51999998
   14.67305565   96.82230377    0.56999999    2.51999998
   14.67555618  104.57700348    0.56999999    2.51999998
   14.67666721  100.94100189    0.67000002    2.51999998
   14.68000031  100.64600372    0.67000002    2.51999998
   14.68305588   94.16490173    0.80000001    2.51999998
   14.68638897  101.13400269    0.88000000    2.51999998
   14.68972206  103.45500183    0.76999998    2.51999998
   14.69583321  103.45500183    0.55000001    2.53999996
   14.69999981  101.24800110    0.55000001    2.53999996
   14.70305538  102.88200378    0.55000001    2.53999996
   14.70638847  104.31500244    0.55000001    2.51999998
   14.70916653  101.79599762    0.55000001    2.51999998
   14.71000004  100.98400116    0.55000001    2.51999998
   14.71333313  100.20500183    0.63000000    2.51999998
   14.71638870  100.58200073    0.67000002    2.51999998
   14.71972179  104.18599701    0.67000002    2.53999996
   14.72305489  103.12400055    0.67000002    2.51999998
   14.72611046  105.90599823    0.64999998    2.53999996
   14.72944355   95.37380219    0.64999998    2.53999996
   14.73277760   93.73680115    0.63000000    2.53999996
   14.73861122   93.73680115    0.61000001    2.53999996
   14.74277782   98.64800262    0.63000000    2.53999996
   14.74583340  100.40499878    0.61000001    2.53999996
   14.74916649   98.58439636    0.58999997    2.53999996
   14.75249958  101.10700226    0.56999999    2.53999996
   14.75555515   97.75440216    0.56999999    2.53999996
   14.75888920   99.73429871    0.55000001    2.51999998
   14.76222229  102.86199951    0.55000001    2.53999996
   14.76527786   98.33499908    0.55000001    2.53999996
   14.76861095  100.38300323    0.52999997    2.53999996
   14.77194405  101.72000122    0.52999997    2.53999996
   14.77499962  102.83799744    0.52999997    2.53999996
   14.77583313  104.71399689    0.51999998    2.53999996
   14.78138828  104.71399689    0.51999998    2.53999996
   14.78555584   93.35900116    0.52999997    2.53999996
   14.78888893  101.51899719    0.51999998    2.53999996
   14.79194450  104.24700165    0.52999997    2.53999996
   14.79527855  105.17199707    0.51999998    2.53999996
   14.79861164   99.83350372    0.52999997    2.55999994
   14.80166721  102.21399689    0.52999997    2.53999996
   14.80500031  102.99700165    0.52999997    2.53999996
   14.80833340  104.66100311    0.56999999    2.53999996
   14.80916691  102.93199921    0.58999997    2.53999996
   14.81166649  102.68599701    0.58999997    2.51999998
   14.81500053  100.69599915    0.56999999    2.51999998
   14.81833363  103.75199890    0.56999999    2.53999996
   14.82444477  103.75199890    0.56999999    2.53999996
   14.82833290  106.84899902    0.55000001    2.53999996
   14.83166695  102.86799622    0.52999997    2.53999996
   14.83500004  103.71199799    0.55000001    2.53999996
   14.83805561  102.47000122    0.52999997    2.53999996
   14.84138870  102.93900299    0.52999997    2.53999996
   14.84249973   94.38690186    0.52999997    2.53999996
   14.84499931  101.58499908    0.52999997    2.53999996
   14.84833336  100.26699829    0.52999997    2.53999996
   14.85138893   99.31379700    0.52999997    2.51999998
   14.85472298  105.34100342    0.52999997    2.51999998
   14.85805607  100.64199829    0.52999997    2.53999996
   14.86111164  103.32099915    0.52999997    2.53999996
   14.86722279  103.32099915    0.51999998    2.55999994
   14.87111092  108.84400177    0.51999998    2.55999994
   14.87444496  101.61499786    0.52999997    2.53999996
   14.87583351  108.35800171    0.52999997    2.53999996
   14.87805557  111.63800049    0.51999998    2.53999996
   14.88138866  107.26399994    0.51999998    2.53999996
   14.88472176  106.72799683    0.51999998    2.53999996
   14.88777733  101.23899841    0.51999998    2.53999996
   14.89111137   98.28929901    0.51999998    2.53999996
   14.89444447  105.08599854    0.51999998    2.55999994
   14.89750004  102.15899658    0.51999998    2.55999994
   14.90083313  104.12300110    0.51999998    2.53999996
   14.90388870  103.27300262    0.50000000    2.53999996
   14.90999985  103.27300262    0.47999999    2.53999996
   14.91416645  104.56300354    0.46000001    2.55999994
   14.91750050  100.66000366    0.46000001    2.53999996
   14.92055607  102.87799835    0.44000000    2.53999996
   14.92388916   98.19159698    0.44000000    2.53999996
   14.92694473  101.02899933    0.44000000    2.53999996
   14.93027782  110.99400330    0.41999999    2.53999996
   14.93361092  109.75800323    0.40000001    2.55999994
   14.93694496  105.19999695    0.40000001    2.55999994
   14.94000053  102.93900299    0.38000000    2.55999994
   14.94250011  102.30500031    0.38000000    2.55999994
   14.94388866  103.86799622    0.40000001    2.53999996
   14.94694424   98.83979797    0.40000001    2.55999994
   14.95305538   98.83979797    0.40000001    2.55999994
   14.95694447  105.30500031    0.40000001    2.53999996
   14.96027756  103.92700195    0.40000001    2.53999996
   14.96361065  101.60600281    0.41999999    2.53999996
   14.96666622  102.60500336    0.44000000    2.53999996
   14.96999931  108.42500305    0.44000000    2.53999996
   14.97333336  107.74400330    0.47999999    2.55999994
   14.97583294  102.18399811    0.47999999    2.55999994
   14.97694397  103.11599731    0.47999999    2.55999994
   14.97999954   99.08940125    0.50000000    2.53999996
   14.98333359  101.51300049    0.50000000    2.55999994
   14.98666668   93.47100067    0.50000000    2.55999994
   14.98972225   97.16989899    0.51999998    2.55999994
   14.99583340   97.16989899    0.67000002    2.55999994
   15.00000000  109.20700073    0.76999998    2.55999994
   15.00305557  103.88800049    0.80000001    2.55999994
   15.00638866  106.81500244    0.83999997    2.53999996
   15.00916672  103.30500031    0.83999997    2.53999996
   15.01000023  105.22499847    0.92000002    2.53999996
   15.01305580  110.83699799    0.92000002    2.53999996
   15.01638889  110.09100342    0.89999998    2.53999996
   15.01944447  110.26300049    0.83999997    2.53999996
   15.02277756  103.07299805    0.83999997    2.53999996
   15.02611065  106.43499756    0.80000001    2.53999996
   15.02916622  104.91999817    0.75000000    2.55999994
   15.03249931  100.94300079    0.67000002    2.55999994
   15.03861141  100.94300079    0.61000001    2.55999994
   15.04277802  100.90899658    0.56999999    2.55999994
   15.04583359   99.70189667    0.56999999    2.55999994
   15.04916668  100.35399628    0.56999999    2.55999994
   15.05249977   98.72869873    0.56999999    2.55999994
   15.05555534   96.20059967    0.55000001    2.55999994
   15.05888939  102.66300201    0.55000001    2.55999994
   15.06222248  109.51799774    0.55000001    2.55999994
   15.06527805  100.94799805    0.52999997    2.55999994
   15.06861115  108.60099792    0.51999998    2.55999994
   15.07194424  101.71099854    0.51999998    2.53999996
   15.07499981  106.23600006    0.51999998    2.53999996
   15.07583332  105.38800049    0.51999998    2.53999996
   15.08138847  105.38800049    0.52999997    2.55999994
   15.08555508  105.21900177    0.52999997    2.55999994
   15.08888817  105.37799835    0.52999997    2.55999994
   15.09194374   99.81369781    0.51999998    2.53999996
   15.10944462  106.92800140    0.52999997    2.53999996
   15.11194515  105.82299805    0.52999997    2.53999996
   15.11527824  104.08799744    0.55000001    2.55999994
   15.11833382  102.66000366    0.55000001    2.55999994
   15.12444496  102.66000366    0.55000001    2.55999994
   15.12861156  116.64399719    0.52999997    2.55999994
   15.13194466  112.01399994    0.55000001    2.53999996
   15.13500023  109.24900055    0.58999997    2.55999994
   15.13833332  108.10900116    0.58999997    2.55999994
   15.14138889  108.88700104    0.56999999    2.55999994
   15.14305496  107.30799866    0.55000001    2.55999994
   15.14527798  109.38700104    0.55000001    2.55999994
   15.14861107  104.20700073    0.52999997    2.55999994
   15.15194416  101.01599884    0.52999997    2.55999994
   15.15499973  105.24400330    0.51999998    2.55999994
   15.15833282  102.77200317    0.47999999    2.53999996
   15.16166592  107.71700287    0.50000000    2.55999994
   15.16722298  107.71700287    0.51999998    2.55999994
   15.17138958  102.12699890    0.51999998    2.55999994
   15.17472267  103.48999786    0.51999998    2.55999994
   15.17611122  107.31500244    0.51999998    2.55999994
   15.17833328  104.63600159    0.51999998    2.55999994
   15.18138885  108.85800171    0.52999997    2.55999994
   15.18472195   99.78720093    0.56999999    2.55999994
   15.18805599  100.23000336    0.64999998    2.55999994
   15.19111156  106.99700165    0.64999998    2.55999994
   15.19444466  109.00499725    0.70999998    2.55999994
   15.19777775  110.92600250    0.76999998    2.55999994
   15.20083332  107.59500122    0.76999998    2.55999994
   15.20416641  101.82299805    0.79000002    2.55999994
   15.21000004  101.82299805    0.81999999    2.55999994
   15.21416664  105.58999634    0.80000001    2.55999994
   15.21749973  103.98400116    0.81999999    2.55999994
   15.22083282  105.91999817    0.81999999    2.55999994
   15.22388840  106.27600098    0.81999999    2.55999994
   15.22722149  106.48699951    0.80000001    2.55999994
   15.23055553  104.33200073    0.80000001    2.55999994
   15.23361111  106.42900085    0.67000002    2.55999994
   15.23694515  120.93099976    0.64999998    2.55999994
   15.24000072  101.90599823    0.63000000    2.55999994
   15.24277782  109.08599854    0.61000001    2.55999994
   15.24388885  114.15399933    0.61000001    2.55999994
   15.24722290  111.97100067    0.61000001    2.57999992
   15.25305557  111.97100067    0.58999997    2.57999992
   15.25694466  102.93499756    0.56999999    2.55999994
   15.26027775  112.20899963    0.55000001    2.57999992
   15.26361084  112.91400146    0.55000001    2.57999992
   15.26666641  101.95999908    0.56999999    2.55999994
   15.26999950  103.18499756    0.61000001    2.55999994
   15.27333355  104.73999786    0.61000001    2.55999994
   15.27611065  101.35600281    0.61000001    2.55999994
   15.27694416  103.30599976    0.61000001    2.57999992
   15.28027725  101.82399750    0.61000001    2.57999992
   15.28333378  104.46600342    0.64999998    2.57999992
   15.28666687  103.66699982    0.63000000    2.55999994
   15.28972244  102.64800262    0.67000002    2.55999994
   15.29583359  102.64800262    0.69000000    2.59999990
   15.30000019  101.06199646    0.64999998    2.55999994
   15.30333328  101.01499939    0.63000000    2.57999992
   15.30638885  107.75599670    0.63000000    2.57999992
   15.30944443  101.37500000    0.63000000    2.55999994
   15.31000042  101.14900208    0.63000000    2.55999994
   15.31333351  104.26300049    0.63000000    2.55999994
   15.31666660  101.65299988    0.58999997    2.55999994
   15.31972218   96.24600220    0.58999997    2.55999994
   15.32305527   98.83100128    0.58999997    2.57999992
   15.32611084   99.30139923    0.61000001    2.55999994
   15.32944393  100.88500214    0.61000001    2.55999994
   15.33277798  101.90699768    0.63000000    2.57999992
   15.33861065  101.90699768    0.64999998    2.57999992
   15.34277725  100.37500000    0.64999998    2.55999994
   15.34333324  106.42800140    0.64999998    2.55999994
   15.34666634   99.32039642    0.67000002    2.55999994
   15.34972191   99.07559967    0.69000000    2.55999994
   15.35305595  102.34999847    0.70999998    2.57999992
   15.35638905  101.54799652    0.70999998    2.57999992
   15.35944462  100.84899902    0.70999998    2.55999994
   15.36277771  105.82700348    0.70999998    2.57999992
   15.36583328  102.29900360    0.73000002    2.55999994
   15.36916637  103.97000122    0.73000002    2.57999992
   15.37250042  106.64499664    0.75000000    2.55999994
   15.37555599  104.62300110    0.75000000    2.55999994
   15.37666702  100.05999756    0.75000000    2.55999994
   15.38166714  100.05999756    0.75000000    2.55999994
   15.38555527  102.56700134    0.75000000    2.57999992
   15.38888836  104.54699707    0.75000000    2.57999992
   15.39222240  101.37599945    0.76999998    2.57999992
   15.39527798   99.84639740    0.76999998    2.57999992
   15.39861107  105.15499878    0.79000002    2.57999992
   15.40194416   91.52490234    0.79000002    2.57999992
   15.40499973   93.54329681    0.80000001    2.57999992
   15.40833282  102.05699921    0.80000001    2.57999992
   15.40999985  103.64700317    0.81999999    2.57999992
   15.41194439   99.68209839    0.81999999    2.57999992
   15.41499996  104.57800293    0.81999999    2.57999992
   15.41833401  102.23100281    0.80000001    2.57999992
   15.42444515  102.23100281    0.80000001    2.57999992
   15.42861176  102.73300171    0.79000002    2.57999992
   15.43166733  105.10800171    0.79000002    2.57999992
   15.43500042  101.09500122    0.79000002    2.55999994
   15.43833351  101.90399933    0.76999998    2.57999992
   15.44138908  104.97399902    0.76999998    2.57999992
   15.44333363   97.62699890    0.76999998    2.57999992
   15.44499969  102.95099640    0.79000002    2.57999992
   15.44805527   98.19450378    0.79000002    2.55999994
   15.45138836   98.23819733    0.79000002    2.55999994
   15.45472240   97.26110077    0.79000002    2.57999992
   15.45777798   98.92939758    0.80000001    2.59999990
   15.46111107   98.34750366    0.80000001    2.59999990
   15.46722221   98.34750366    0.81999999    2.55999994
   15.47138882  104.03199768    0.81999999    2.57999992
   15.47472191   99.60330200    0.80000001    2.57999992
   15.47666645   98.99690247    0.81999999    2.57999992
   15.47833252   99.29889679    0.81999999    2.57999992
   15.48138809  101.32700348    0.80000001    2.57999992
   15.48472214  103.43699646    0.79000002    2.57999992
   15.48805618  102.12500000    0.79000002    2.59999990
   15.49111176  102.97599792    0.79000002    2.59999990
   15.49444485   94.90229797    0.79000002    2.55999994
   15.49777794  100.60800171    0.76999998    2.57999992
   15.50083351  105.10399628    0.75000000    2.57999992
   15.50416660  111.87599945    0.73000002    2.57999992
   15.51000023  111.87599945    0.69000000    2.57999992
   15.51416683   98.08070374    0.67000002    2.57999992
   15.51749992   99.27690125    0.67000002    2.57999992
   15.52055550  100.50700378    0.64999998    2.57999992
   15.52388859   99.22489929    0.64999998    2.57999992
   15.52722168  100.77300262    0.63000000    2.57999992
   15.53027725   98.61689758    0.61000001    2.57999992
   15.53361130   97.55960083    0.56999999    2.57999992
   15.53694534  105.80799866    0.55000001    2.57999992
   15.54000092   96.18060303    0.55000001    2.59999990
   15.54333401  104.61599731    0.55000001    2.59999990
   15.54361153   99.96669769    0.52999997    2.57999992
   15.54694462   99.89820099    0.52999997    2.57999992
   15.55305576   99.89820099    0.52999997    2.57999992
   15.55694485  108.20999908    0.52999997    2.57999992
   15.56027794  100.28299713    0.52999997    2.57999992
   15.56361103   98.73739624    0.55000001    2.57999992
   15.56666660  102.26100159    0.55000001    2.57999992
   15.56999969  103.35600281    0.55000001    2.57999992
   15.57333374  102.87300110    0.55000001    2.57999992
   15.57638836  104.98500061    0.55000001    2.59999990
   15.57722187  102.42700195    0.55000001    2.59999990
   15.57999992   95.91819763    0.56999999    2.57999992
   15.58333302   92.44599915    0.56999999    2.57999992
   15.58638859  101.64700317    0.56999999    2.57999992
   15.58972168  101.54399872    0.58999997    2.59999990
   15.59583282  101.54399872    0.58999997    2.59999990
   15.60000038  101.20700073    0.58999997    2.59999990
   15.60305595  101.36100006    0.61000001    2.59999990
   15.60638905  106.24900055    0.58999997    2.57999992
   15.60972214  107.01200104    0.58999997    2.57999992
   15.61055565  107.58599854    0.58999997    2.57999992
   15.61305618  108.00199890    0.56999999    2.59999990
   15.61638927  105.42500305    0.56999999    2.57999992
   15.61972237  104.39900208    0.56999999    2.57999992
   15.62277794  111.35700226    0.63000000    2.57999992
   15.62611103  101.46499634    0.67000002    2.57999992
   15.62916660  108.66600037    0.64999998    2.57999992
   15.63249969  104.98899841    0.64999998    2.57999992
   15.63861084  104.98899841    0.69000000    2.57999992
   15.64277744  100.03099823    0.69000000    2.59999990
   15.64388847   97.02459717    0.70999998    2.57999992
   15.64638901  101.04599762    0.67000002    2.59999990
   15.64972210   99.64360046    0.67000002    2.59999990
   15.65305519  104.63400269    0.67000002    2.57999992
   15.65611076  101.38999939    0.64999998    2.57999992
   15.65944386  100.95500183    0.63000000    2.57999992
   15.66249943   96.52610016    0.63000000    2.57999992
   15.66583252  101.83499908    0.61000001    2.59999990
   15.66916656   95.02970123    0.58999997    2.57999992
   15.67222214  107.61499786    0.58999997    2.59999990
   15.67555618  107.02600098    0.58999997    2.57999992
   15.67722225  106.01100159    0.61000001    2.57999992
   15.68138885  106.01100159    0.58999997    2.59999990
   15.68555546  108.73300171    0.58999997    2.59999990
   15.68888855  104.70500183    0.55000001    2.59999990
   15.69222260  106.21600342    0.52999997    2.59999990
   15.69527817  109.01499939    0.52999997    2.57999992
   15.69861126  101.65000153    0.55000001    2.57999992
   15.70166683  104.08799744    0.52999997    2.59999990
   15.70499992  100.79499817    0.51999998    2.59999990
   15.70833302  108.21600342    0.50000000    2.59999990
   15.71055508  100.99600220    0.50000000    2.59999990
   15.71166611  101.13300323    0.47999999    2.59999990
   15.71500015  105.32499695    0.47999999    2.59999990
   15.71833324  103.08200073    0.47999999    2.59999990
   15.72444439  103.08200073    0.46000001    2.59999990
   15.72833252  101.68900299    0.46000001    2.57999992
   15.73166656   96.92050171    0.47999999    2.59999990
   15.73500061  109.12799835    0.47999999    2.57999992
   15.73805618  107.64700317    0.47999999    2.59999990
   15.74138927  105.49800110    0.46000001    2.59999990
   15.74388885  102.87200165    0.46000001    2.59999990
   15.74499989  109.32599640    0.46000001    2.59999990
   15.74833393   99.22100067    0.46000001    2.59999990
   15.75166702  102.58999634    0.47999999    2.55999994
   15.75472260  107.05699921    0.47999999    2.59999990
   15.75805569  105.88500214    0.47999999    2.59999990
   15.76111126  102.38099670    0.50000000    2.57999992
   15.76722240  102.38099670    0.51999998    2.57999992
   15.77138901  102.19200134    0.51999998    2.57999992
   15.77444458  105.71800232    0.51999998    2.57999992
   15.77722168  101.72499847    0.51999998    2.59999990
   15.77805519  102.60399628    0.51999998    2.59999990
   15.78138828  100.20700073    0.50000000    2.57999992
   15.78444481  101.79299927    0.50000000    2.59999990
   15.78777790  101.73300171    0.51999998    2.59999990
   15.79111195  104.97799683    0.50000000    2.59999990
   15.79416752   97.44200134    0.50000000    2.59999990
   15.79750061  106.49700165    0.50000000    2.59999990
   15.80083370  107.84100342    0.50000000    2.59999990
   15.80388927  106.12200165    0.50000000    2.59999990
   15.81000042  106.12200165    0.50000000    2.59999990
   15.81416702  103.37000275    0.51999998    2.59999990
   15.81750011  105.12599945    0.67000002    2.59999990
   15.82055569  104.79000092    0.69000000    2.59999990
   15.82388878  104.30000305    0.69000000    2.59999990
   15.82694435  106.75499725    0.75000000    2.59999990
   15.83027744  104.86900330    0.76999998    2.59999990
   15.83361053  102.54100037    0.83999997    2.57999992
   15.83666611  105.73000336    0.86000001    2.59999990
   15.84000015  104.77600098    0.86000001    2.59999990
   15.84305477  100.77700043    0.88000000    2.59999990
   15.84499931  104.17299652    0.88000000    2.59999990
   15.84694386   99.73500061    0.86000001    2.57999992
   15.85277843   99.73500061    0.86000001    2.59999990
   15.85694504   96.28309631    0.83999997    2.59999990
   15.86027813  103.64299774    0.81999999    2.59999990
   15.86333370   96.22989655    0.81999999    2.59999990
   15.86666679  100.62200165    0.81999999    2.57999992
   15.86999989  108.13700104    0.79000002    2.59999990
   15.87305546  102.51300049    0.76999998    2.59999990
   15.87638855  109.43299866    0.75000000    2.59999990
   15.87833309  104.16400146    0.75000000    2.59999990
   15.88000011  105.02899933    0.67000002    2.57999992
   15.88305569  106.38300323    0.64999998    2.59999990
   15.88638878  101.48999786    0.64999998    2.59999990
   15.88972187  104.26999664    0.63000000    2.59999990
   15.89555550  104.26999664    0.58999997    2.59999990
   15.89972210  108.91000366    0.55000001    2.59999990
   15.90305519  102.87200165    0.51999998    2.59999990
   15.90638828  108.74700165    0.51999998    2.59999990
   15.90944386  104.17800140    0.50000000    2.59999990
   15.91194439  105.89399719    0.50000000    2.59999990
   15.91305542   99.31510162    0.51999998    2.59999990
   15.91638851  102.78399658    0.51999998    2.59999990
   15.91972256  107.12400055    0.58999997    2.59999990
   15.92277813   99.01409912    0.67000002    2.59999990
   15.92611122  112.88200378    0.73000002    2.61999989
   15.92944431  101.87300110    0.70999998    2.61999989
   15.93249989  106.62000275    0.75000000    2.59999990
   15.93861103  106.62000275    0.79000002    2.57999992
   15.94277763  104.87699890    0.83999997    2.59999990
   15.94527817  106.76599884    0.86000001    2.59999990
   15.94611073  106.79299927    0.86000001    2.59999990
   15.94944477  102.44599915    0.86000001    2.59999990
   15.95277786  100.76599884    0.83999997    2.59999990
   15.95583344  101.48200226    0.81999999    2.59999990
   15.95916653  101.01899719    0.86000001    2.59999990
   15.96249962  101.14299774    0.86000001    2.59999990
   15.96555519  100.48000336    0.83999997    2.57999992
   15.96888828  105.91000366    0.81999999    2.59999990
   15.97194386  100.91100311    0.76999998    2.59999990
   15.97527695  101.95800018    0.80000001    2.59999990
   15.98138809  101.95800018    0.79000002    2.57999992
   15.98555565  111.45300293    0.79000002    2.57999992
   15.98888874  106.82800293    0.75000000    2.59999990
   15.99194431  105.59600067    0.76999998    2.59999990
   15.99527836  106.84799957    0.80000001    2.57999992
   15.99861145  106.54499817    0.80000001    2.57999992
   16.00166702  104.40000153    0.79000002    2.57999992
   16.00499916  103.38800049    0.79000002    2.59999990
   16.00833321  102.49500275    0.79000002    2.59999990
   16.01138878  104.67199707    0.80000001    2.59999990
   16.01222229   99.39489746    0.79000002    2.59999990
   16.01499939  100.62500000    0.79000002    2.59999990
   16.01833344  108.89900208    0.75000000    2.59999990
   16.02416611  108.89900208    0.75000000    2.59999990
   16.02833366  101.99600220    0.75000000    2.59999990
   16.03166580  104.63300323    0.75000000    2.57999992
   16.03472137  102.92400360    0.75000000    2.57999992
   16.03805542   97.17140198    0.70999998    2.59999990
   16.04138756  104.10700226    0.69000000    2.59999990
   16.04444313   99.68009949    0.69000000    2.61999989
   16.04555511   99.05639648    0.69000000    2.61999989
   16.04805565  105.12200165    0.69000000    2.59999990
   16.05138779  107.11000061    0.70999998    2.59999990
   16.05444336  108.40100098    0.67000002    2.59999990
   16.05777740  106.34400177    0.64999998    2.59999990
   16.06110954  106.14399719    0.64999998    2.59999990
   16.06722260  106.14399719    0.58999997    2.59999990
   16.07111168  104.58399963    0.55000001    2.59999990
   16.07444572  102.13899994    0.52999997    2.59999990
   16.07777786   99.19960022    0.52999997    2.59999990
   16.07916832  100.83000183    0.52999997    2.59999990
   16.08139038  107.87799835    0.51999998    2.59999990
   16.08472252  104.63600159    0.51999998    2.61999989
   16.08777809   99.23169708    0.51999998    2.59999990
   16.09111214  102.49199677    0.51999998    2.59999990
   16.09416771  103.98699951    0.51999998    2.59999990
   16.09749985  103.20500183    0.51999998    2.59999990
   16.10083389  103.70099640    0.50000000    2.59999990
   16.10388947  104.34300232    0.50000000    2.59999990
   16.11000061  104.34300232    0.50000000    2.59999990
   16.12833405  100.70899963    0.63000000    2.57999992
   16.13166618  102.38300323    0.64999998    2.59999990
   16.13472176  103.77100372    0.64999998    2.59999990
   16.13805580  104.52700043    0.64999998    2.59999990
   16.14111137  105.14800262    0.61000001    2.61999989
   16.14444351  107.74700165    0.63000000    2.61999989
   16.14777756   97.52989960    0.64999998    2.59999990
   16.15305519   97.52989960    0.73000002    2.59999990
   16.15722275  106.77600098    0.79000002    2.59999990
   16.16027832  120.35800171    0.86000001    2.59999990
   16.16138840  114.92099762    0.86000001    2.59999990
   16.16416550  114.78199768    0.89999998    2.59999990
   16.16722107  120.46099854    0.94000000    2.59999990
   16.17055511  125.02600098    0.94000000    2.59999990
   16.17361069  137.85299683    1.01999998    2.57999992
   16.17694473  127.23600006    1.01999998    2.59999990
   16.18027687  141.23100281    1.01999998    2.59999990
   16.18333244  140.73100281    0.98000002    2.59999990
   16.18666649  122.11499786    0.92000002    2.59999990
   16.18999863  122.02899933    0.92000002    2.59999990
   16.19583321  122.02899933    0.83999997    2.59999990
   16.20000076  111.82599640    0.80000001    2.59999990
   16.20333481  107.41400146    0.79000002    2.59999990
   16.20639038  105.27100372    0.75000000    2.59999990
   16.20972252  120.09500122    0.70999998    2.61999989
   16.21277809  111.70099640    0.70999998    2.61999989
   16.21611214  127.66999817    0.64999998    2.59999990
   16.21944427  140.48500061    0.61000001    2.59999990
   16.22249985  148.41700745    0.55000001    2.59999990
   16.22583389  158.91600037    0.52999997    2.59999990
   16.22805595  180.66099548    0.52999997    2.59999990
   16.22944450  177.28500366    0.52999997    2.61999989
   16.23277855  172.21099854    0.52999997    2.61999989
   16.23861122  172.21099854    0.52999997    2.59999990
   16.24277878  133.50599670    0.51999998    2.59999990
   16.24611092  151.60800171    0.51999998    2.61999989
   16.24916649  135.25000000    0.50000000    2.61999989
   16.25250053  157.54400635    0.50000000    2.61999989
   16.25583267  164.50799561    0.50000000    2.59999990
   16.25888824  142.36300659    0.52999997    2.61999989
   16.26138878  132.88600159    0.55000001    2.59999990
   16.26277733  144.90299988    0.55000001    2.59999990
   16.26583290  130.72099304    0.63000000    2.59999990
   16.26916695  138.32299805    0.69000000    2.59999990
   16.27222252  136.23899841    0.69000000    2.59999990
   16.27555466  128.79600525    0.75000000    2.59999990
   16.28138924  128.79600525    0.86000001    2.59999990
   16.28555489  122.33000183    0.88000000    2.64000010
   16.28888893  113.86299896    0.88000000    2.59999990
   16.29222107  125.52600098    0.89999998    2.61999989
   16.29472160  130.47399902    0.89999998    2.61999989
   16.29555511  131.56799316    0.89999998    2.61999989
   16.29888916  123.89800262    0.89999998    2.59999990
   16.30222130  120.02799988    0.89999998    2.59999990
   16.30527687  126.40299988    0.89999998    2.59999990
   16.30861092  136.65699768    0.88000000    2.59999990
   16.31194305  134.32000732    0.75000000    2.59999990
   16.31499863  135.33700562    0.70999998    2.59999990
   16.31833458  140.56300354    0.69000000    2.61999989
   16.32444572  140.56300354    0.69000000    2.61999989
   16.32861137  119.05599976    0.69000000    2.59999990
   16.33166695  120.55500031    0.67000002    2.59999990
   16.33500099  122.13999939    0.67000002    2.59999990
   16.33805656  119.62999725    0.67000002    2.59999990
   16.34138870  123.60500336    0.67000002    2.59999990
   16.34472275  128.38600159    0.63000000    2.59999990
   16.34777832  116.51300049    0.63000000    2.61999989
   16.35111237  111.41400146    0.61000001    2.59999990
   16.35444450  130.24499512    0.61000001    2.61999989
   16.35750008  126.79100037    0.61000001    2.61999989
   16.36083412  124.63500214    0.61000001    2.61999989
   16.36138916  123.60099792    0.56999999    2.59999990
   16.36722183  123.60099792    0.55000001    2.61999989
   16.37138939  119.34200287    0.55000001    2.59999990
   16.37444496  119.05000305    0.56999999    2.59999990
   16.37777710  125.12100220    0.61000001    2.61999989
   16.38111115  120.65599823    0.58999997    2.61999989
   16.38416672  128.77600098    0.58999997    2.61999989
   16.38750076  119.39800262    0.63000000    2.61999989
   16.39083290  126.58000183    0.69000000    2.59999990
   16.39388847  117.30200195    0.69000000    2.59999990
   16.39472198  134.27499390    0.69000000    2.59999990
   16.39749908  122.67400360    0.69000000    2.61999989
   16.40055466  122.60399628    0.69000000    2.61999989
   16.40388870  118.93800354    0.67000002    2.59999990
   16.40999985  118.93800354    0.67000002    2.59999990
   16.41416550  111.89800262    0.69000000    2.61999989
   16.41749954  116.59999847    0.69000000    2.61999989
   16.42055511  112.00000000    0.69000000    2.61999989
   16.42388916  104.55100250    0.69000000    2.59999990
   16.42722130  110.86399841    0.67000002    2.59999990
   16.42805481  113.61299896    0.67000002    2.59999990
   16.43083191  110.25099945    0.64999998    2.59999990
   16.43388748  108.09700012    0.64999998    2.59999990
   16.43722153  110.73100281    0.61000001    2.59999990
   16.44055557  114.10700226    0.61000001    2.59999990
   16.44361115  115.10800171    0.61000001    2.61999989
   16.44694328  112.26999664    0.58999997    2.59999990
   16.45277786  112.26999664    0.58999997    2.61999989
   16.45694542  108.26100159    0.61000001    2.61999989
   16.46027946  113.31400299    0.63000000    2.59999990
   16.46138954  109.43199921    0.63000000    2.59999990
   16.46389008  105.11299896    0.63000000    2.59999990
   16.46694565  118.05300140    0.64999998    2.61999989
   16.47027779  118.60500336    0.64999998    2.61999989
   16.47361183  108.04499817    0.70999998    2.59999990
   16.47666740  110.22499847    0.69000000    2.61999989
   16.48000145  113.86799622    0.67000002    2.59999990
   16.48333359  107.75199890    0.67000002    2.59999990
   16.48638916  114.65899658    0.67000002    2.59999990
   16.48972321  109.96399689    0.75000000    2.61999989
   16.49583435  109.96399689    0.73000002    2.59999990
   16.50000000  104.95300293    0.73000002    2.61999989
   16.50305557  105.92199707    0.70999998    2.61999989
   16.50638962  109.42299652    0.69000000    2.61999989
   16.50944519  117.40499878    0.69000000    2.61999989
   16.51277733  117.18399811    0.67000002    2.59999990
   16.51611137  108.64600372    0.67000002    2.59999990
   16.51944351  104.36399841    0.64999998    2.61999989
   16.52249908  107.48500061    0.64999998    2.61999989
   16.52583313  108.71399689    0.63000000    2.61999989
   16.52805519  112.71700287    0.63000000    2.61999989
   16.52944374  114.98999786    0.63000000    2.61999989
   16.53277779  111.20600128    0.63000000    2.61999989
   16.53861046  111.20600128    0.63000000    2.61999989
   16.54277802  101.39600372    0.63000000    2.59999990
   16.54583359  111.73400116    0.61000001    2.59999990
   16.54944420  107.58899689    0.61000001    2.61999989
   16.55249977  108.27500153    0.58999997    2.61999989
   16.55583191  108.93800354    0.61000001    2.61999989
   16.55916595  114.22499847    0.61000001    2.61999989
   16.56138802  116.10399628    0.58999997    2.61999989
   16.56277657  116.75299835    0.58999997    2.61999989
   16.56583214  110.68599701    0.58999997    2.61999989
   16.56916809  110.18299866    0.61000001    2.59999990
   16.57250023  105.28099823    0.58999997    2.59999990
   16.57555580  103.58100128    0.58999997    2.59999990
   16.58139038  103.58100128    0.56999999    2.59999990
   16.58555603  106.73400116    0.56999999    2.64000010
   16.58889008  107.72100067    0.56999999    2.64000010
   16.59194565  112.11599731    0.56999999    2.61999989
   16.59472275  105.38800049    0.56999999    2.61999989
   16.59555626  113.81400299    0.58999997    2.59999990
   16.59861183  105.17299652    0.58999997    2.59999990
   16.60194397  107.95700073    0.58999997    2.59999990
   16.60527802  108.73000336    0.56999999    2.59999990
   16.60833359  102.45600128    0.56999999    2.59999990
   16.61166763  110.25800323    0.55000001    2.59999990
   16.61472321  103.97499847    0.55000001    2.61999989
   16.61805534  111.75700378    0.55000001    2.59999990
   16.62416649  111.75700378    0.55000001    2.59999990
   16.62833405  108.88200378    0.52999997    2.59999990
   16.63166618  105.50499725    0.52999997    2.59999990
   16.63472176  120.74299622    0.52999997    2.59999990
   16.63805580  103.40000153    0.52999997    2.61999989
   16.64138794  106.69599915    0.51999998    2.61999989
   16.64444351  117.17299652    0.51999998    2.61999989
   16.64777756  107.42099762    0.51999998    2.61999989
   16.65111160  108.47699738    0.50000000    2.59999990
   16.65416718  103.07900238    0.50000000    2.61999989
   16.65749931  110.80200195    0.50000000    2.61999989
   16.66055489  114.87200165    0.51999998    2.61999989
   16.66138840  110.08899689    0.51999998    2.61999989
   16.66722107  110.08899689    0.50000000    2.59999990
   16.67111015  109.81500244    0.51999998    2.59999990
   16.67444420  115.86599731    0.51999998    2.59999990
   16.67777634  117.13099670    0.50000000    2.59999990
   16.68083191  106.42099762    0.47999999    2.59999990
   16.68416595  106.83499908    0.47999999    2.59999990
   16.68750000  107.37200165    0.47999999    2.59999990
   16.69055557  113.58399963    0.47999999    2.61999989
   16.69388771  110.74500275    0.47999999    2.59999990
   16.69472122  102.68299866    0.47999999    2.59999990
   16.69749832  111.47200012    0.47999999    2.59999990
   16.70055580  113.99199677    0.47999999    2.59999990
   16.70388985  109.87599945    0.50000000    2.61999989
   16.71000099  109.87599945    0.50000000    2.59999990
   16.71416664  110.47100067    0.50000000    2.61999989
   16.71722221  111.76699829    0.51999998    2.61999989
   16.72055626  112.83200073    0.51999998    2.61999989
   16.72389030  101.17299652    0.51999998    2.61999989
   16.72694588  110.57299805    0.51999998    2.61999989
   16.72805595  116.61499786    0.51999998    2.61999989
   16.73055649  112.65399933    0.55000001    2.59999990
   16.73361206  115.36499786    0.55000001    2.59999990
   16.73694420  105.29799652    0.55000001    2.61999989
   16.74027824  111.83200073    0.55000001    2.59999990
   16.74333382  107.25099945    0.55000001    2.61999989
   16.74666786  111.72699738    0.51999998    2.61999989
   16.75277710  111.72699738    0.51999998    2.59999990
   16.75694466  107.19899750    0.51999998    2.64000010
   16.76027870  107.99299622    0.51999998    2.61999989
   16.76138878  108.03900146    0.50000000    2.61999989
   16.76388931  109.25900269    0.50000000    2.61999989
   16.76722145  110.13400269    0.50000000    2.59999990
   16.77027702  108.79399872    0.50000000    2.59999990
   16.77361107  108.22599792    0.50000000    2.61999989
   16.77694511  109.36199951    0.50000000    2.61999989
   16.78000069  107.83799744    0.50000000    2.61999989
   16.78333282  113.78500366    0.50000000    2.61999989
   16.78638840  111.17700195    0.50000000    2.59999990
   16.78972244  106.58499908    0.50000000    2.59999990
   16.79555511  106.58499908    0.50000000    2.59999990
   16.79972076  103.96900177    0.50000000    2.61999989
   16.80305481  113.72499847    0.47999999    2.61999989
   16.80638885  118.14499664    0.47999999    2.61999989
   16.80944443  109.79100037    0.47999999    2.61999989
   16.81277657  117.17500305    0.47999999    2.61999989
   16.81583214  116.63899994    0.50000000    2.59999990
   16.81916809  119.06300354    0.50000000    2.59999990
   16.82250023  117.87400055    0.51999998    2.59999990
   16.82555580  115.06999969    0.51999998    2.61999989
   16.82805634  120.28299713    0.51999998    2.59999990
   16.82916832  125.97000122    0.51999998    2.59999990
   16.83250046  101.16699982    0.51999998    2.61999989
   16.83861160  101.16699982    0.50000000    2.59999990
   16.84250069  114.91200256    0.50000000    2.61999989
   16.84583473  116.41699982    0.50000000    2.59999990
   16.84916687  113.75900269    0.50000000    2.59999990
   16.85250092  118.52100372    0.51999998    2.59999990
   16.85555649  119.15899658    0.50000000    2.61999989
   16.85888863  105.61199951    0.50000000    2.61999989
   16.86138916  109.02999878    0.50000000    2.61999989
   16.86250114  121.37699890    0.50000000    2.61999989
   16.86555672  111.18900299    0.50000000    2.61999989
   16.86888885  109.24299622    0.51999998    2.59999990
   16.87222290  109.31300354    0.51999998    2.61999989
   16.87527847  119.60800171    0.51999998    2.61999989
   16.88138962  119.60800171    0.51999998    2.59999990
   16.88555527  108.01599884    0.51999998    2.61999989
   16.88861084  120.11699677    0.50000000    2.61999989
   16.89194489  117.42600250    0.50000000    2.61999989
   16.89472198  113.00700378    0.50000000    2.61999989
   16.89555550  110.99800110    0.50000000    2.61999989
   16.89888954  110.38099670    0.50000000    2.59999990
   16.90194321  113.72399902    0.50000000    2.59999990
   16.90527725  119.37699890    0.50000000    2.59999990
   16.90861130  112.63999939    0.50000000    2.61999989
   16.91166687  116.27799988    0.50000000    2.61999989
   16.91499901  119.34600067    0.50000000    2.61999989
   16.91805458  111.44699860    0.51999998    2.61999989
   16.92416573  111.44699860    0.51999998    2.59999990
   16.92833328  108.41799927    0.51999998    2.61999989
   16.93138885  109.73699951    0.51999998    2.61999989
   16.93472099  118.96800232    0.52999997    2.59999990
   16.93805504  110.63600159    0.52999997    2.59999990
   16.94111061  111.97399902    0.52999997    2.59999990
   16.94444275  114.22000122    0.55000001    2.59999990
   16.94777679  112.74199677    0.55000001    2.61999989
   16.95083427  110.13200378    0.52999997    2.61999989
   16.95416832  115.40899658    0.55000001    2.59999990
   16.95722389  119.41799927    0.55000001    2.61999989
   16.96055603  118.82299805    0.55000001    2.61999989
   16.96138954  118.50000000    0.55000001    2.61999989
   16.96694565  118.50000000    0.55000001    2.61999989
   16.97111130  107.86100006    0.55000001    2.61999989
   16.97444534  118.33300018    0.55000001    2.59999990
   16.97750092  113.40000153    0.55000001    2.61999989
   16.98083305  118.03700256    0.55000001    2.61999989
   16.98416710  112.00800323    0.55000001    2.59999990
   16.98750114  117.34400177    0.55000001    2.61999989
   16.99083328  108.70500183    0.55000001    2.61999989
   16.99388885  118.23600006    0.55000001    2.61999989
   16.99472237  111.83100128    0.55000001    2.59999990
   16.99749947  115.27400208    0.55000001    2.59999990
   17.00083351  116.54699707    0.52999997    2.59999990
   17.00388908  115.14900208    0.51999998    2.61999989
   17.01000023  115.14900208    0.50000000    2.61999989
   17.01416588  122.13400269    0.50000000    2.59999990
   17.01722145  112.25199890    0.51999998    2.61999989
   17.02055550  117.58300018    0.51999998    2.59999990
   17.02388954  119.85299683    0.51999998    2.59999990
   17.02694511  112.50700378    0.51999998    2.59999990
   17.02805519  116.92800140    0.51999998    2.59999990
   17.03055573  112.23000336    0.51999998    2.59999990
   17.03388786  113.52400208    0.51999998    2.61999989
   17.03694344  112.29199982    0.51999998    2.61999989
   17.04027748  108.61900330    0.52999997    2.59999990
   17.04361153  108.79399872    0.52999997    2.59999990
   17.04666710  110.87699890    0.52999997    2.61999989
   17.05277634  110.87699890    0.52999997    2.59999990
   17.05694389  106.37200165    0.55000001    2.59999990
   17.05999947  106.76200104    0.55000001    2.61999989
   17.06138802  115.12500000    0.55000001    2.61999989
   17.06361008  108.75700378    0.52999997    2.61999989
   17.06694603  112.78199768    0.52999997    2.59999990
   17.07000160  108.84400177    0.52999997    2.61999989
   17.07333374  116.98899841    0.52999997    2.61999989
   17.07666779  112.40599823    0.51999998    2.59999990
   17.07972336  110.22399902    0.51999998    2.59999990
   17.08305550  118.44000244    0.51999998    2.61999989
   17.08611107  105.79000092    0.51999998    2.59999990
   17.08944511  107.70899963    0.52999997    2.61999989
   17.09555626  107.70899963    0.52999997    2.61999989
   17.09972191  107.04100037    0.51999998    2.59999990
   17.10305595  107.11699677    0.51999998    2.61999989
   17.10611153  109.77799988    0.51999998    2.61999989
   17.10944557  113.75499725    0.50000000    2.61999989
   17.11250114  104.97499847    0.50000000    2.59999990
   17.11583328  114.02400208    0.51999998    2.61999989
   17.11916733  109.24299622    0.51999998    2.59999990
   17.12222290  106.62200165    0.51999998    2.61999989
   17.12555504  106.94400024    0.51999998    2.61999989
   17.12805557  108.09100342    0.52999997    2.59999990
   17.14888954  108.09100342    0.52999997    2.59999990
   17.15277672  105.86299896    0.52999997    2.59999990
   17.15611076  111.75499725    0.52999997    2.61999989
   17.15944481  110.18199921    0.55000001    2.61999989
   17.16138840  113.98400116    0.55000001    2.61999989
   17.16305542  106.13300323    0.52999997    2.61999989
   17.16638756  108.57900238    0.51999998    2.61999989
   17.16944313  104.61799622    0.51999998    2.61999989
   17.17277718  110.14700317    0.51999998    2.61999989
   17.17611122  110.68199921    0.51999998    2.59999990
   17.17916679  108.06500244    0.51999998    2.59999990
   17.18249893  105.31900024    0.51999998    2.61999989
   17.18555450  105.79499817    0.51999998    2.61999989
   17.19138718  105.79499817    0.51999998    2.61999989
   17.19555473  110.60800171    0.51999998    2.61999989
   17.19888878  110.42800140    0.51999998    2.61999989
   17.20194435  109.79100037    0.52999997    2.59999990
   17.20527840  105.07499695    0.51999998    2.59999990
   17.20861244   83.88050079    0.52999997    2.59999990
   17.21166801  112.54399872    0.51999998    2.59999990
   17.21500015  111.09999847    0.51999998    2.61999989
   17.21833420  108.70300293    0.51999998    2.59999990
   17.22138977  110.20700073    0.51999998    2.61999989
   17.22472191  112.19999695    0.51999998    2.61999989
   17.22777748  107.95999908    0.51999998    2.59999990
   17.22833443  113.24700165    0.51999998    2.59999990
   17.23444557  113.24700165    0.50000000    2.61999989
   17.23833275  107.41899872    0.51999998    2.59999990
   17.24166679  112.72699738    0.51999998    2.59999990
   17.24500084  110.59600067    0.51999998    2.59999990
   17.24805641  106.63700104    0.50000000    2.61999989
   17.25166702  109.17600250    0.50000000    2.61999989
   17.25472260  110.64299774    0.50000000    2.61999989
   17.25805473  106.94999695    0.50000000    2.61999989
   17.26111031  108.21099854    0.50000000    2.61999989
   17.26166725  113.73600006    0.50000000    2.59999990
   17.26472282  114.01599884    0.50000000    2.59999990
   17.26777840  106.03299713    0.50000000    2.61999989
   17.27111053  106.02799988    0.50000000    2.61999989
   17.27722168  106.02799988    0.50000000    2.61999989
   17.28138924  102.54100037    0.51999998    2.61999989
   17.28472137  111.50599670    0.51999998    2.59999990
   17.28777695  114.43099976    0.52999997    2.61999989
   17.29111099  111.06500244    0.52999997    2.61999989
   17.29416656  106.41999817    0.52999997    2.61999989
   17.29500008  111.11499786    0.52999997    2.61999989
   17.29777718  108.39199829    0.51999998    2.59999990
   17.30083275  102.87100220    0.52999997    2.61999989
   17.30416679  111.04799652    0.51999998    2.61999989
   17.30749893  112.09600067    0.51999998    2.59999990
   17.31055450  108.42700195    0.51999998    2.61999989
   17.31388855  107.08000183    0.50000000    2.59999990
   17.32000160  107.08000183    0.50000000    2.59999990
   17.32416725  106.26499939    0.50000000    2.59999990
   17.32750130  103.78299713    0.50000000    2.59999990
   17.32833481  108.89299774    0.50000000    2.59999990
   17.33111191  104.88200378    0.50000000    2.61999989
   17.33444595  104.22399902    0.47999999    2.59999990
   17.33750153  107.54299927    0.47999999    2.61999989
   17.34083366  101.69599915    0.47999999    2.59999990
   17.34388924   98.70300293    0.47999999    2.59999990
   17.34722328  106.37699890    0.47999999    2.59999990
   17.35055542  109.02700043    0.47999999    2.59999990
   17.35361099  110.08499908    0.50000000    2.59999990
   17.35694504  106.76300049    0.50000000    2.59999990
   17.36277771  106.76300049    0.50000000    2.61999989
   17.36694527  101.86100006    0.47999999    2.59999990
   17.37027740  106.82499695    0.47999999    2.61999989
   17.37333298  107.58200073    0.50000000    2.61999989
   17.37666702  106.98500061    0.50000000    2.61999989
   17.38000107  108.78500366    0.50000000    2.61999989
   17.38305473  109.80000305    0.50000000    2.61999989
   17.38638878  111.86199951    0.50000000    2.61999989
   17.38972282  107.22000122    0.51999998    2.59999990
   17.39277840  104.36699677    0.50000000    2.61999989
   17.39500046  110.18399811    0.50000000    2.59999990
   17.39638901  108.52899933    0.50000000    2.59999990
   17.39972115  101.96800232    0.50000000    2.59999990
   17.40583229  101.96800232    0.51999998    2.61999989
   17.40999985  114.30699921    0.50000000    2.59999990
   17.41305542  107.96700287    0.50000000    2.59999990
   17.41638756  109.08100128    0.47999999    2.59999990
   17.41944313  104.43599701    0.47999999    2.59999990
   17.42277718  108.04299927    0.47999999    2.59999990
   17.42611122  102.47100067    0.50000000    2.59999990
   17.42833328  103.54399872    0.47999999    2.61999989
   17.42972183  110.00900269    0.47999999    2.61999989
   17.43305397  107.93000031    0.50000000    2.61999989
   17.43610954  110.29199982    0.47999999    2.59999990
   17.43944359  105.40699768    0.46000001    2.61999989
   17.44277763  109.24600220    0.46000001    2.59999990
   17.44861031  109.24600220    0.46000001    2.59999990
   17.45277786  107.56400299    0.46000001    2.59999990
   17.45583344  113.73300171    0.46000001    2.59999990
   17.45916748  109.88500214    0.46000001    2.61999989
   17.46166801  108.86299896    0.46000001    2.59999990
   17.46277809  108.12599945    0.46000001    2.59999990
   17.46611214  101.85700226    0.46000001    2.61999989
   17.46944427  105.05999756    0.47999999    2.59999990
   17.47249985  105.32399750    0.47999999    2.59999990
   17.47583389  107.29699707    0.50000000    2.59999990
   17.47888947  112.64499664    0.50000000    2.59999990
   17.48222351  111.15100098    0.50000000    2.59999990
   17.48555565  109.80000305    0.50000000    2.59999990
   17.49138832  109.80000305    0.50000000    2.61999989
   17.49555588  108.16300201    0.50000000    2.59999990
   17.49888992  112.26699829    0.51999998    2.59999990
   17.50194359  105.83899689    0.51999998    2.59999990
   17.50527763  106.65000153    0.51999998    2.61999989
   17.50861168  108.05699921    0.51999998    2.61999989
   17.51166725  102.97200012    0.50000000    2.59999990
   17.51499939  105.40399933    0.50000000    2.59999990
   17.51805496  109.66400146    0.50000000    2.61999989
   17.52138901  108.37699890    0.51999998    2.61999989
   17.52472115  107.48699951    0.51999998    2.61999989
   17.52777672  105.19100189    0.51999998    2.59999990
   17.52833366  110.87400055    0.50000000    2.59999990
   17.53416634  110.87400055    0.55000001    2.61999989
   17.53833199  104.84300232    0.58999997    2.59999990
   17.54166603  106.35500336    0.55000001    2.59999990
   17.54472160  102.34200287    0.58999997    2.61999989
   17.54805565  109.60399628    0.58999997    2.57999992
   17.55138779  107.36900330    0.55000001    2.59999990
   17.55472183  114.44000244    0.51999998    2.59999990
   17.55777740  110.27200317    0.51999998    2.59999990
   17.56110954  106.83799744    0.50000000    2.59999990
   17.56166649  105.93299866    0.50000000    2.59999990
   17.56472206  112.08300018    0.50000000    2.61999989
   17.56805611  109.16899872    0.47999999    2.61999989
   17.57111168  110.23899841    0.50000000    2.59999990
   17.57722282  110.23899841    0.51999998    2.59999990
   17.58139038  108.85800171    0.51999998    2.59999990
   17.58444595  107.22200012    0.51999998    2.59999990
   17.58777809  110.92299652    0.55000001    2.59999990
   17.59111214  102.95800018    0.55000001    2.59999990
   17.59416771  104.02100372    0.55000001    2.59999990
   17.59500122  102.62200165    0.55000001    2.59999990
   17.59777832  110.79299927    0.56999999    2.59999990
   17.60111237  108.70500183    0.63000000    2.57999992
   17.60416794  107.76399994    0.70999998    2.59999990
   17.60750008  105.39800262    0.73000002    2.57999992
   17.61083412  112.58200073    0.75000000    2.57999992
   17.61388969  116.89499664    0.73000002    2.59999990
   17.62000084  116.89499664    0.67000002    2.59999990
   17.62416649  113.98200226    0.67000002    2.59999990
   17.62722206  111.82800293    0.69000000    2.59999990
   17.62833405  104.26699829    0.69000000    2.59999990
   17.63083267  105.04900360    0.69000000    2.59999990
   17.63416672  103.73799896    0.67000002    2.59999990
   17.63722229  108.00399780    0.64999998    2.57999992
   17.64055634  107.80999756    0.63000000    2.59999990
   17.64388847  108.96199799    0.64999998    2.59999990
   17.64694405  107.47599792    0.63000000    2.57999992
   17.65027809  109.29199982    0.64999998    2.59999990
   17.65333366  113.09799957    0.64999998    2.59999990
   17.65666580  111.25499725    0.64999998    2.59999990
   17.66277695  111.25499725    0.64999998    2.57999992
   17.66694450  108.73000336    0.63000000    2.59999990
   17.67027664  107.94799805    0.63000000    2.59999990
   17.67333221  104.45700073    0.63000000    2.57999992
   17.67666626  105.29599762    0.63000000    2.57999992
   17.67972183  106.23899841    0.63000000    2.57999992
   17.68305397  107.49400330    0.63000000    2.59999990
   17.68638802  110.95400238    0.64999998    2.57999992
   17.68944359  110.03099823    0.64999998    2.59999990
   17.69277763  114.57700348    0.67000002    2.59999990
   17.69499969  106.19499969    0.67000002    2.59999990
   17.69638824  103.51899719    0.67000002    2.59999990
   17.69972038  108.37200165    0.67000002    2.59999990
   17.70555687  108.37200165    0.69000000    2.59999990
   17.70972252  106.74299622    0.69000000    2.57999992
   17.71305656  106.07099915    0.69000000    2.57999992
   17.71611214  100.79900360    0.69000000    2.57999992
   17.71944427  108.17500305    0.69000000    2.57999992
   17.72277832  110.18800354    0.67000002    2.59999990
   17.72583389  103.78299713    0.64999998    2.59999990
   17.72861099  107.09700012    0.63000000    2.59999990
   17.72944450  108.84799957    0.63000000    2.59999990
   17.73277855  106.56199646    0.63000000    2.59999990
   17.73583412  111.21700287    0.63000000    2.59999990
   17.73916626  105.15499878    0.63000000    2.59999990
   17.74250031  102.75199890    0.61000001    2.57999992
   17.74861145  102.75199890    0.63000000    2.57999992
   17.75250053  109.88200378    0.67000002    2.57999992
   17.75583267  111.48799896    0.67000002    2.57999992
   17.75916672  105.70099640    0.64999998    2.59999990
   17.76166725  107.96399689    0.70999998    2.57999992
   17.76277733  103.26699829    0.70999998    2.57999992
   17.76611137  107.21800232    0.69000000    2.59999990
   17.76916695  109.09999847    0.75000000    2.59999990
   17.77249908  108.45800018    0.76999998    2.59999990
   17.77583313  110.92199707    0.83999997    2.57999992
   17.77888870  108.26999664    0.83999997    2.57999992
   17.78222275  104.27799988    0.81999999    2.59999990
   17.78527641  109.68000031    0.75000000    2.57999992
   17.79138756  109.68000031    0.69000000    2.57999992
   17.79555511  104.47899628    0.69000000    2.57999992
   17.79888916  109.38400269    0.75000000    2.59999990
   17.80194283  108.56999969    0.75000000    2.57999992
   17.80527687  103.35299683    0.73000002    2.59999990
   17.80833244  104.63899994    0.73000002    2.59999990
   17.81166649  106.52400208    0.70999998    2.57999992
   17.81499863  105.27700043    0.70999998    2.57999992
   17.81805611  112.62699890    0.69000000    2.57999992
   17.82139015  111.93199921    0.67000002    2.59999990
   17.82472229  112.54100037    0.67000002    2.59999990
   17.82777786  109.61000061    0.64999998    2.57999992
   17.82861137  111.73699951    0.64999998    2.57999992
   17.83416748  111.73699951    0.63000000    2.57999992
   17.83833313  113.16899872    0.61000001    2.57999992
   17.84166718  111.68000031    0.63000000    2.57999992
   17.84472275  104.47599792    0.64999998    2.57999992
   17.84805679  106.39099884    0.67000002    2.59999990
   17.85111237  112.03399658    0.67000002    2.57999992
   17.85444450  105.85099792    0.70999998    2.57999992
   17.85777855  106.87799835    0.70999998    2.59999990
   17.86083412  110.23300171    0.70999998    2.59999990
   17.86194420  107.56199646    0.70999998    2.57999992
   17.86444473  104.11599731    0.70999998    2.57999992
   17.86777878  109.86100006    0.70999998    2.57999992
   17.87083435  102.83100128    0.73000002    2.57999992
   17.87694550  102.83100128    0.76999998    2.59999990
   17.88111115  108.41000366    0.79000002    2.59999990
   17.88444519  114.96499634    0.79000002    2.57999992
   17.88750076  106.59200287    0.79000002    2.57999992
   17.89083290  107.98699951    0.80000001    2.59999990
   17.89416695  109.88200378    0.79000002    2.57999992
   17.89500046  107.02400208    0.79000002    2.57999992
   17.89749908  112.93399811    0.79000002    2.57999992
   17.90083313  109.04100037    0.79000002    2.57999992
   17.90388870  106.80300140    0.79000002    2.57999992
   17.90722275  111.74600220    0.79000002    2.57999992
   17.91055489  106.70600128    0.76999998    2.59999990
   17.91361046  103.35299683    0.75000000    2.57999992
   17.92000008  103.35299683    0.70999998    2.57999992
   17.92388916  109.48500061    0.70999998    2.57999992
   17.92722130  106.20099640    0.67000002    2.57999992
   17.92833328  119.50700378    0.67000002    2.57999992
   17.93083191  111.40100098    0.67000002    2.57999992
   17.93388748  110.43099976    0.67000002    2.57999992
   17.93722153  111.33000183    0.67000002    2.57999992
   17.94055557  106.37999725    0.64999998    2.57999992
   17.94361115  107.04399872    0.63000000    2.59999990
   17.94694328  108.15000153    0.64999998    2.57999992
   17.95027924  108.17400360    0.67000002    2.57999992
   17.95333481  110.51699829    0.67000002    2.57999992
   17.95666695  105.90200043    0.67000002    2.57999992
   17.96250153  105.90200043    0.73000002    2.57999992
   17.96666718  116.27600098    0.70999998    2.57999992
   17.97000122  113.65799713    0.70999998    2.57999992
   17.97333336  116.80100250    0.73000002    2.59999990
   17.97638893  112.43000031    0.76999998    2.57999992
   17.97972298  110.59100342    0.76999998    2.57999992
   17.98277855  115.38700104    0.75000000    2.57999992
   17.98611069  112.19799805    0.75000000    2.57999992
   17.98944473  107.64399719    0.79000002    2.57999992
   17.99250031  110.53500366    0.76999998    2.57999992
   17.99500084  107.36499786    0.79000002    2.57999992
   17.99611092  110.86000061    0.79000002    2.57999992
   17.99916649  108.11900330    0.75000000    2.57999992
   18.00555611  108.11900330    0.73000002    2.59999990
   18.00972176  103.35600281    0.70999998    2.59999990
   18.01305580  114.27500153    0.70999998    2.57999992
   18.01611137  113.68900299    0.70999998    2.57999992
   18.01944351  107.87599945    0.70999998    2.57999992
   18.02277756  111.70400238    0.69000000    2.57999992
   18.02583313  111.50499725    0.69000000    2.57999992
   18.02861023  107.03299713    0.69000000    2.57999992
   18.02944374  111.48600006    0.69000000    2.57999992
   18.03277779  112.81300354    0.70999998    2.59999990
   18.03610992  109.04799652    0.67000002    2.57999992
   18.03916550  103.46099854    0.67000002    2.57999992
   18.04249954  109.57599640    0.73000002    2.59999990
   18.04833221  109.57599640    0.79000002    2.57999992
   18.05249977  111.36299896    0.80000001    2.55999994
   18.05583191  106.04100037    0.80000001    2.55999994
   18.05888748  106.35900116    0.81999999    2.57999992
   18.06194305  107.62599945    0.83999997    2.57999992
   18.06250000  117.16200256    0.83999997    2.57999992
   18.06583214  112.15499878    0.86000001    2.55999994
   18.06888962  111.07099915    0.92000002    2.55999994
   18.07222366  104.91400146    1.05999994    2.57999992
   18.07555580  107.01599884    1.13000000    2.55999994
   18.07861137  115.43000031    1.26999998    2.57999992
   18.08194542  113.55100250    1.26999998    2.57999992
   18.08527756  110.11000061    1.34000003    2.57999992
   18.09111214  110.11000061    1.23000002    2.55999994
   18.09527779  107.95200348    1.23000002    2.55999994
   18.09861183  106.93299866    1.23000002    2.55999994
   18.10194397  105.66300201    1.21000004    2.57999992
   18.10499954  113.07199860    1.21000004    2.57999992
   18.10833359  110.68499756    1.19000006    2.57999992
   18.11138916  114.65399933    1.14999998    2.57999992
   18.11472321  109.08699799    1.11000001    2.55999994
   18.11805534  111.48699951    1.11000001    2.55999994
   18.12111092  110.78500366    1.07000005    2.57999992
   18.12444496  108.10900116    1.05999994    2.57999992
   18.12777710  110.56400299    1.01999998    2.57999992
   18.12861061  112.57199860    1.01999998    2.57999992
   18.13416672  112.57199860    1.01999998    2.57999992
   18.13833237  109.73600006    1.05999994    2.57999992
   18.14138794  109.92900085    1.03999996    2.57999992
   18.14472198  111.77899933    1.07000005    2.57999992
   18.16250038  109.73600006    1.21000004    2.57999992
   18.16472244  107.88600159    1.21000004    2.57999992
   18.16805458  109.91699982    1.23000002    2.55999994
   18.17138863  112.53199768    1.25000000    2.55999994
   18.17694473  112.53199768    1.23000002    2.57999992
   18.18111038  109.73799896    1.16999996    2.55999994
   18.18444443  111.33899689    1.14999998    2.55999994
   18.18777657  117.43199921    1.14999998    2.55999994
   18.19083214  107.36900330    1.11000001    2.55999994
   18.19416618  112.43599701    1.11000001    2.55999994
   18.19555473  108.73000336    1.11000001    2.55999994
   18.19777679  110.40799713    1.11000001    2.55999994
   18.20083427  107.94499969    1.07000005    2.55999994
   18.20416832  111.05799866    1.07000005    2.55999994
   18.20722389  112.32499695    1.07000005    2.57999992
   18.21055603  110.82099915    1.09000003    2.55999994
   18.21389008  117.10500336    1.07000005    2.57999992
   18.22000122  117.10500336    1.09000003    2.57999992
   18.22416687  111.12300110    1.07000005    2.55999994
   18.22722244  103.31199646    1.09000003    2.55999994
   18.22888947  104.49900055    1.09000003    2.55999994
   18.23083305  109.75499725    1.09000003    2.55999994
   18.23416710  103.79000092    1.09000003    2.55999994
   18.23750114  100.69300079    1.11000001    2.55999994
   18.24055672  108.81800079    1.11000001    2.55999994
   18.24388885  108.23300171    1.09000003    2.57999992
   18.24722290  109.03700256    1.03999996    2.55999994
   18.25027847  108.81099701    1.03999996    2.55999994
   18.25361061  107.01799774    1.05999994    2.55999994
   18.25694466  115.14199829    1.05999994    2.55999994
   18.26277733  115.14199829    0.94000000    2.55999994
   18.26694489  113.62300110    0.92000002    2.55999994
   18.27000046  107.28800201    0.92000002    2.57999992
   18.27333260  116.03399658    0.88000000    2.57999992
   18.27666664  112.32299805    0.89999998    2.57999992
   18.27972221  115.33599854    0.94000000    2.57999992
   18.28305435  108.88800049    0.94000000    2.55999994
   18.28638840  116.46600342    0.94000000    2.55999994
   18.28944397  104.44100189    0.95999998    2.57999992
   18.29277802  107.15899658    0.95999998    2.57999992
   18.29555511  105.76599884    0.95999998    2.57999992
   18.29638863  106.44699860    1.01999998    2.55999994
   18.29944420  112.78399658    1.03999996    2.55999994
   18.30555534  112.78399658    1.05999994    2.55999994
   18.30972099  104.55699921    1.07000005    2.53999996
   18.31305504  113.68699646    1.09000003    2.55999994
   18.31611061  112.65299988    1.07000005    2.55999994
   18.31944466  110.74600220    1.09000003    2.55999994
   18.32277870  109.16500092    1.03999996    2.53999996
   18.32583427  110.90299988    1.00000000    2.55999994
   18.32888985  107.91799927    1.00000000    2.55999994
   18.32944489  112.07900238    1.00000000    2.55999994
   18.33277893  113.94699860    0.95999998    2.53999996
   18.33611107  113.22200012    0.89999998    2.55999994
   18.33916664  116.11499786    0.81999999    2.55999994
   18.34250069  111.23899841    0.75000000    2.55999994
   18.34833336  111.23899841    0.69000000    2.57999992
   18.35250092  113.32599640    0.67000002    2.55999994
   18.35583305  111.71600342    0.64999998    2.55999994
   18.35888863  112.39900208    0.63000000    2.57999992
   18.36222267  107.54699707    0.63000000    2.57999992
   18.36250114  113.50199890    0.63000000    2.57999992
   18.36583328  111.91000366    0.64999998    2.57999992
   18.36916733  109.23899841    0.63000000    2.57999992
   18.37222290  111.89099884    0.64999998    2.55999994
   18.37555504  111.22000122    0.67000002    2.55999994
   18.37861061  114.49500275    0.69000000    2.55999994
   18.38194466  113.96800232    0.69000000    2.55999994
   18.38527679  107.65899658    0.69000000    2.55999994
   18.39138794  107.65899658    0.83999997    2.55999994
   18.39527702  108.51399994    0.86000001    2.55999994
   18.39583397  108.28800201    0.86000001    2.55999994
   18.39916611  107.82199860    0.86000001    2.55999994
   18.40222168  115.26699829    0.98000002    2.55999994
   18.40555573  113.69499969    1.03999996    2.55999994
   18.40888786  120.26699829    1.03999996    2.55999994
   18.41194344  110.13200378    1.03999996    2.55999994
   18.41527748  113.93299866    1.01999998    2.55999994
   18.41860962  108.26000214    0.95999998    2.55999994
   18.42166519  112.79100037    0.92000002    2.55999994
   18.42499924  111.49800110    0.83999997    2.55999994
   18.42833328  114.54699707    0.81999999    2.55999994
   18.42916679  109.02700043    0.81999999    2.55999994
   18.43416595  109.02700043    0.79000002    2.55999994
   18.43833160  112.24099731    0.76999998    2.53999996
   18.44138718  111.93000031    0.76999998    2.55999994
   18.44472122  110.74500275    0.75000000    2.55999994
   18.44805527  117.28299713    0.75000000    2.55999994
   18.45111275  114.51699829    0.75000000    2.55999994
   18.45444489  112.90899658    0.75000000    2.55999994
   18.45750046  117.29599762    0.75000000    2.55999994
   18.46083450  118.52799988    0.73000002    2.53999996
   18.46250153  115.16300201    0.75000000    2.55999994
   18.46444511  107.64600372    0.75000000    2.55999994
   18.46777916  116.22599792    0.75000000    2.53999996
   18.47083473  112.98999786    0.75000000    2.55999994
   18.47694588  112.98999786    0.75000000    2.55999994
   18.48111153  113.12200165    0.73000002    2.53999996
   18.48444557  113.16699982    0.70999998    2.55999994
   18.48750114  117.87100220    0.70999998    2.53999996
   18.49083328  116.48400116    0.70999998    2.55999994
   18.49416733  118.80799866    0.73000002    2.55999994
   18.49583435  118.74199677    0.73000002    2.55999994
   18.49777794  118.57399750    0.80000001    2.55999994
   18.50111198  120.72000122    0.86000001    2.55999994
   18.50416756  116.02700043    0.92000002    2.53999996
   18.50749969  113.47499847    0.92000002    2.53999996
   18.51055527  115.04000092    1.03999996    2.53999996
   18.51388931  113.51499939    1.14999998    2.55999994
   18.51972198  113.51499939    1.28999996    2.55999994
   18.52388954  113.01899719    1.09000003    2.55999994
   18.52722168  109.59300232    1.03999996    2.53999996
   18.52916718  111.82900238    1.03999996    2.53999996
   18.53083229  111.98200226    1.00000000    2.53999996
   18.53388786  111.58300018    1.00000000    2.53999996
   18.53722191  115.65599823    1.01999998    2.53999996
   18.54055595  109.83499908    0.98000002    2.53999996
   18.54361153  112.16899872    0.95999998    2.53999996
   18.54694366  111.05400085    0.94000000    2.55999994
   18.55027771  109.96099854    0.89999998    2.55999994
   18.55333328  112.04900360    0.89999998    2.55999994
   18.55666542  112.02600098    0.89999998    2.55999994
   18.56250000  112.02600098    0.83999997    2.53999996
   18.56666756  112.63800049    0.81999999    2.53999996
   18.57000160  108.55599976    0.81999999    2.53999996
   18.57305717  119.98699951    0.83999997    2.55999994
   18.57638931  111.92199707    0.83999997    2.55999994
   18.57972336  120.73300171    0.86000001    2.55999994
   18.58305550  117.80300140    0.86000001    2.55999994
   18.58611107  114.80500031    0.88000000    2.53999996
   18.58944511  120.70400238    0.88000000    2.53999996
   18.59250069  117.25399780    0.89999998    2.53999996
   18.59583473  120.69499969    0.89999998    2.53999996
   18.59638977  111.12300110    0.89999998    2.53999996
   18.59944534  114.05100250    0.94000000    2.53999996
   18.60555649  114.05100250    1.00000000    2.53999996
   18.60944557  114.06300354    0.92000002    2.53999996
   18.61277771  122.45800018    0.92000002    2.53999996
   18.61611176  113.31900024    0.92000002    2.55999994
   18.61916733  115.67700195    0.92000002    2.55999994
   18.62249947  117.38500214    0.92000002    2.55999994
   18.62583351  112.00199890    0.92000002    2.55999994
   18.62888908  112.39199829    0.94000000    2.53999996
   18.62944412  107.65899658    0.94000000    2.53999996
   18.63277817  112.69599915    0.94000000    2.53999996
   18.63583374  118.71800232    0.94000000    2.53999996
   18.63916588  112.86000061    0.98000002    2.53999996
   18.64222145  119.29499817    0.98000002    2.53999996
   18.64833260  119.29499817    0.95999998    2.53999996
   18.65250015  119.35500336    0.98000002    2.55999994
   18.65555573  122.62500000    0.98000002    2.55999994
   18.65888786  119.55799866    0.95999998    2.55999994
   18.66222191  118.21800232    1.00000000    2.53999996
   18.66277695  113.96499634    1.00000000    2.53999996
   18.66583252  119.64499664    1.01999998    2.53999996
   18.66916656  116.70999908    1.05999994    2.53999996
   18.67222214  117.44200134    1.05999994    2.53999996
   18.67555428  118.64099884    1.13000000    2.55999994
   18.67888832  121.08200073    1.25000000    2.53999996
   18.68194389  115.76000214    1.25000000    2.53999996
   18.68527603  117.87799835    1.38000000    2.53999996
   18.69111061  117.87799835    1.44000006    2.53999996
   18.69527626  117.14099884    1.44000006    2.53999996
   18.69610977  115.70800018    1.44000006    2.53999996
   18.69888878  117.47299957    1.44000006    2.53999996
   18.70194435  115.33599854    1.44000006    2.53999996
   18.70527840  112.16999817    1.41999996    2.53999996
   18.70861244  115.98699951    1.41999996    2.53999996
   18.71166801  114.08999634    1.41999996    2.53999996
   18.71500015  114.95999908    1.39999998    2.53999996
   18.71833420  115.95899963    1.36000001    2.53999996
   18.72138977  120.77400208    1.33000004    2.53999996
   18.72472191  115.61799622    1.28999996    2.53999996
   18.72777748  119.27999878    1.28999996    2.53999996
   18.72944450  117.24099731    1.28999996    2.53999996
   18.73416710  117.24099731    1.23000002    2.53999996
   18.73805618  117.56300354    1.21000004    2.53999996
   18.74138832  116.34300232    1.16999996    2.53999996
   18.74472237  115.79100037    1.16999996    2.53999996
   18.74777794  119.21299744    1.13000000    2.53999996
   18.75111198  111.88099670    1.11000001    2.53999996
   18.75444412  114.52899933    1.11000001    2.53999996
   18.75749969  116.36000061    1.13000000    2.53999996
   18.76083374  115.71600342    1.13000000    2.53999996
   18.76277733  113.41000366    1.13000000    2.53999996
   18.76444435  119.58100128    1.16999996    2.53999996
   18.76777840  111.30100250    1.16999996    2.53999996
   18.77083397  112.19200134    1.21000004    2.51999998
   18.77694511  112.19200134    1.21000004    2.53999996
   18.78111076  117.34400177    1.25000000    2.53999996
   18.78416634  120.75900269    1.25000000    2.51999998
   18.78750038  116.66999817    1.26999998    2.53999996
   18.79083252  114.16200256    1.25000000    2.53999996
   18.79388809  113.72000122    1.28999996    2.51999998
   18.79611015  121.91600037    1.28999996    2.51999998
   18.79749870  119.87100220    1.25000000    2.53999996
   18.80083275  125.57399750    1.26999998    2.51999998
   18.80388832  122.19300079    1.26999998    2.51999998
   18.80722237  117.98899841    1.26999998    2.51999998
   18.81055450  111.93099976    1.28999996    2.51999998
   18.81361008  110.05000305    1.26999998    2.51999998
   18.81972313  110.05000305    1.25000000    2.51999998
   18.82389069  127.36100006    1.23000002    2.51999998
   18.82722282  106.95500183    1.23000002    2.51999998
   18.82944489  118.14099884    1.23000002    2.51999998
   18.83083344  125.08699799    1.23000002    2.51999998
   18.83416748  117.82900238    1.25000000    2.51999998
   18.83722305  116.84899902    1.23000002    2.51999998
   18.84055710  116.27200317    1.23000002    2.51999998
   18.84388924  116.34500122    1.21000004    2.51999998
   18.84694481  125.70800018    1.16999996    2.53999996
   18.85027885  116.63099670    1.14999998    2.51999998
   18.85333443  115.91799927    1.14999998    2.51999998
   18.85666656  112.68900299    1.13000000    2.53999996
   18.86250114  112.68900299    1.13000000    2.51999998
   18.86666679  117.67600250    1.03999996    2.53999996
   18.87000084  124.21600342    0.98000002    2.51999998
   18.87305641  114.46099854    0.95999998    2.51999998
   18.87638855  119.85900116    0.92000002    2.51999998
   18.87972260  122.68599701    0.92000002    2.51999998
   18.88277817  120.95099640    0.92000002    2.51999998
   18.88611031  121.52300262    0.89999998    2.51999998
   18.88916588  123.50499725    0.89999998    2.51999998
   18.89249992  119.40399933    0.88000000    2.53999996
   18.89583397  118.84999847    0.86000001    2.51999998
   18.89749908  115.07700348    0.86000001    2.51999998
   18.89944458  126.11499786    0.88000000    2.51999998
   18.90527725  126.11499786    0.89999998    2.51999998
   18.90944481  119.48999786    0.92000002    2.51999998
   18.91277695  124.14800262    0.92000002    2.51999998
   18.91611099  114.34300232    0.89999998    2.51999998
   18.91916656  122.43499756    0.89999998    2.50000000
   18.92249870  116.68900299    0.89999998    2.51999998
   18.92583275  114.73799896    0.89999998    2.51999998
   18.92888832  117.37899780    0.92000002    2.51999998
   18.93083191  118.24400330    0.92000002    2.51999998
   18.93249893  125.66899872    0.92000002    2.51999998
   18.93583298  117.37300110    0.92000002    2.51999998
   18.93888855  126.52300262    0.89999998    2.51999998
   18.94222069  121.51699829    0.89999998    2.51999998
   18.94833183  121.51699829    0.88000000    2.51999998
   18.95250130  120.28900146    0.89999998    2.51999998
   18.95555687  125.03500366    0.89999998    2.51999998
   18.95888901  120.81900024    0.88000000    2.51999998
   18.96222305  125.86799622    0.89999998    2.51999998
   18.96444511  131.80799866    0.89999998    2.51999998
   18.96583366  121.67800140    0.92000002    2.51999998
   18.96916771  110.73300171    0.89999998    2.51999998
   18.97222328  115.09100342    0.89999998    2.51999998
   18.97555542  126.99099731    0.89999998    2.51999998
   18.97861099  120.19799805    0.89999998    2.51999998
   18.98194504  123.80100250    0.92000002    2.50000000
   18.98527718  124.77700043    0.95999998    2.51999998
   18.99111176  124.77700043    0.98000002    2.51999998
   18.99527740  131.18299866    0.95999998    2.51999998
   18.99777794  111.20400238    1.00000000    2.51999998
   18.99888992  115.01399994    1.00000000    2.51999998
   19.00194359  128.41200256    1.01999998    2.50000000
   19.00527763  125.10099792    1.05999994    2.51999998
   19.00861168  123.95800018    1.05999994    2.51999998
   19.01166725  137.14100647    1.13000000    2.51999998
   19.01499939  125.34500122    1.25000000    2.50000000
   19.01833344  117.80999756    1.28999996    2.50000000
   19.02138901  129.69999695    1.26999998    2.51999998
   19.02472115  122.58799744    1.26999998    2.51999998
   19.02777672  129.14399719    1.30999994    2.50000000
   19.03388786  129.14399719    1.26999998    2.50000000
   19.03805542  115.71199799    1.21000004    2.50000000
   19.04138756  128.15299988    1.21000004    2.51999998
   19.04472160  123.78600311    1.25000000    2.50000000
   19.04805565  129.14599609    1.25000000    2.50000000
   19.05111122  124.43199921    1.25000000    2.50000000
   19.05444336  126.13800049    1.23000002    2.50000000
   19.05777740  120.11900330    1.25000000    2.50000000
   19.06083298  124.58399963    1.26999998    2.50000000
   19.06416512  135.87300110    1.28999996    2.50000000
   19.06499863  121.11100006    1.28999996    2.50000000
   19.06750107  128.81199646    1.28999996    2.50000000
   19.07083511  124.80400085    1.28999996    2.50000000
   19.07694626  124.80400085    1.23000002    2.50000000
   19.08111191  119.70999908    1.16999996    2.50000000
   19.08416748  129.00700378    1.16999996    2.50000000
   19.08750153  131.10000610    1.16999996    2.50000000
   19.09083366  130.83900452    1.21000004    2.50000000
   19.09388924  126.36699677    1.21000004    2.50000000
   19.09722328  124.08999634    1.21000004    2.50000000
   19.09805679  125.11499786    1.21000004    2.50000000
   19.10055542  127.60500336    1.21000004    2.50000000
   19.10388947  117.87400055    1.23000002    2.50000000
   19.10694504  118.11399841    1.34000003    2.50000000
   19.11027908  134.54600525    1.34000003    2.50000000
   19.11333466  131.22099304    1.36000001    2.50000000
   19.11972237  131.22099304    1.33000004    2.48000002
   19.12361145  128.07600403    1.33000004    2.50000000
   19.12694550  126.11299896    1.33000004    2.48000002
   19.13027763  126.40200043    1.33000004    2.50000000
   19.13166618  122.93599701    1.33000004    2.50000000
   19.13388824  117.82700348    1.30999994    2.48000002
   19.13694382  133.28100586    1.25000000    2.50000000
