    HOUR (UT)   FLARE FACTOR    SKY TESTER    SUN TESTER
   11.59666634   -1.00000000   -1.00000000   -1.00000000
   11.62805557  170.53300476    0.44000000    2.11999989
   11.63111115  157.66700745    0.44000000    2.11999989
   11.63444424  163.92300415    0.44000000    2.11999989
   11.63777733  169.77900696    0.41999999    2.13000011
   11.64083290  170.94799805    0.41999999    2.13000011
   11.64777756  170.94799805    0.44000000    2.13000011
   11.65194416  169.76100159    0.44000000    2.13000011
   11.65527725  165.09100342    0.44000000    2.13000011
   11.65833282  166.14900208    0.44000000    2.13000011
   11.66083336  162.65100098    0.44000000    2.13000011
   11.66194439  170.29100037    0.44000000    2.13000011
   11.66499996  159.36599731    0.46000001    2.13000011
   11.66833401  167.56799316    0.47999999    2.15000010
   11.67166710  157.57299805    0.46000001    2.13000011
   11.67472267  175.50599670    0.46000001    2.15000010
   11.67805576  173.36300659    0.46000001    2.15000010
   11.68111134  168.98399353    0.46000001    2.15000010
   11.68444443  168.64399719    0.44000000    2.15000010
   11.69055557  168.64399719    0.44000000    2.15000010
   11.69472218  162.09599304    0.41999999    2.15000010
   11.69805527  156.49400330    0.41999999    2.15000010
   11.70138836  170.00100708    0.41999999    2.15000010
   11.70444393  164.70899963    0.41999999    2.17000008
   11.70777798  162.73199463    0.41999999    2.17000008
   11.71111107  157.89799500    0.41999999    2.15000010
   11.71416664  154.83700562    0.41999999    2.17000008
   11.71749973  172.01199341    0.41999999    2.17000008
   11.72083282  162.16000366    0.41999999    2.17000008
   11.72388840  158.01499939    0.44000000    2.19000006
   11.72722149  157.11900330    0.44000000    2.17000008
   11.72777748  156.68299866    0.44000000    2.17000008
   11.73361111  156.68299866    0.44000000    2.17000008
   11.73750019  157.15699768    0.44000000    2.19000006
   11.74083328  161.15400696    0.44000000    2.21000004
   11.74416733  162.96000671    0.44000000    2.19000006
   11.74722290  152.53799438    0.44000000    2.19000006
   11.75055599  162.42199707    0.44000000    2.19000006
   11.75388908  155.26699829    0.44000000    2.19000006
   11.75694466  156.66600037    0.44000000    2.19000006
   11.76027775  148.44200134    0.44000000    2.19000006
   11.76111126  152.29299927    0.41999999    2.19000006
   11.76361084  160.16200256    0.41999999    2.19000006
   11.76694393  158.41400146    0.41999999    2.19000006
   11.77027798  150.58599854    0.41999999    2.19000006
   11.77638817  150.58599854    0.41999999    2.21000004
   11.78055573  161.67399597    0.41999999    2.21000004
   11.78361130  162.81500244    0.41999999    2.21000004
   11.78694534  156.88699341    0.41999999    2.21000004
   11.79027843  152.14599609    0.41999999    2.21000004
   11.79333401  151.52299500    0.40000001    2.21000004
   11.79444504  155.36300659    0.40000001    2.21000004
   11.79694462  154.97599792    0.40000001    2.21000004
   11.80027771  152.27400208    0.40000001    2.21000004
   11.80361176  148.64100647    0.38000000    2.23000002
   11.80666733  151.67999268    0.38000000    2.23000002
   11.81000042  159.97599792    0.36000001    2.23000002
   11.81333351  153.41299438    0.38000000    2.23000002
   11.81916618  153.41299438    0.36000001    2.23000002
   11.82333374  149.73199463    0.36000001    2.23000002
   11.82666683  152.19500732    0.36000001    2.23000002
   11.82777786  140.38499451    0.36000001    2.25000000
   11.82999992  141.98199463    0.36000001    2.25000000
   11.83333302  145.00799561    0.36000001    2.25000000
   11.83666611  150.21000671    0.34000000    2.23000002
   11.83972168  154.72900391    0.34000000    2.25000000
   11.84305477  150.45899963    0.36000001    2.25000000
   11.84638882  154.04899597    0.36000001    2.25000000
   11.84944439  148.42500305    0.36000001    2.25000000
   11.85277843  154.58299255    0.36000001    2.25000000
   11.85583401  153.15100098    0.36000001    2.25000000
   11.86194515  153.15100098    0.38000000    2.25000000
   11.86611176  158.31100464    0.38000000    2.25000000
   11.86944485  159.53100586    0.38000000    2.25000000
   11.87250042  159.86900330    0.38000000    2.25000000
   11.87583351  151.63699341    0.38000000    2.25000000
   11.87916660  158.87899780    0.38000000    2.26999998
   11.88222218  145.43699646    0.38000000    2.26999998
   11.88555527  150.36300659    0.38000000    2.26999998
   11.88888836  148.30400085    0.38000000    2.26999998
   11.89194393  154.87500000    0.36000001    2.25000000
   11.89444447  154.97099304    0.36000001    2.28999996
   11.89555550  150.59199524    0.36000001    2.28999996
   11.89888859  159.96000671    0.36000001    2.26999998
   11.90499973  159.96000671    0.36000001    2.26999998
   11.90888882  149.05299377    0.36000001    2.26999998
   11.91222191  143.48100281    0.38000000    2.26999998
   11.91555500  150.77200317    0.36000001    2.26999998
   11.91861153  148.83599854    0.36000001    2.28999996
   11.92194462  150.93299866    0.36000001    2.28999996
   11.92527771  142.92300415    0.36000001    2.28999996
   11.92777824  149.03799438    0.36000001    2.28999996
   11.92861176  142.44700623    0.36000001    2.28999996
   11.93194485  146.64799500    0.34000000    2.28999996
   11.93527794  144.68600464    0.34000000    2.28999996
   11.93833351  144.11099243    0.34000000    2.28999996
   11.94166660  152.23699951    0.34000000    2.28999996
   11.94777775  152.23699951    0.34000000    2.30999994
   11.95194435  156.07200623    0.36000001    2.30999994
   11.95499992  165.28999329    0.36000001    2.28999996
   11.95833302  154.84199524    0.38000000    2.30999994
   11.96111107  156.12199402    0.36000001    2.30999994
   11.96194458  152.08299255    0.36000001    2.30999994
   11.96527767  156.82800293    0.36000001    2.30999994
   11.96861076  162.17900085    0.36000001    2.30999994
   11.97166634  161.61500549    0.36000001    2.30999994
   11.97499943  165.29600525    0.36000001    2.30999994
   11.97833252  156.15499878    0.34000000    2.30999994
   11.98138809  155.04299927    0.34000000    2.30999994
   11.98472214  157.42900085    0.34000000    2.32999992
   11.99055576  157.42900085    0.34000000    2.32999992
   11.99472237  145.21000671    0.34000000    2.32999992
   11.99805546  145.88600159    0.34000000    2.30999994
   12.00111103  145.16900635    0.34000000    2.30999994
   12.00444412  151.24699402    0.34000000    2.30999994
   12.00749969  143.92399597    0.34000000    2.32999992
   12.01083374  145.96899414    0.34000000    2.32999992
   12.01416683  156.22799683    0.34000000    2.30999994
   12.01722240  146.33599854    0.34000000    2.32999992
   12.02055550  144.68899536    0.34000000    2.32999992
   12.02388859  152.92300415    0.34000000    2.32999992
   12.02694416  152.72000122    0.34000000    2.32999992
   12.02777767  144.80799866    0.34000000    2.32999992
   12.03333378  144.80799866    0.31999999    2.32999992
   12.03750038  146.52999878    0.34000000    2.32999992
   12.04083347  154.68400574    0.34000000    2.32999992
   12.04416752  147.00999451    0.31999999    2.32999992
   12.04722309  148.76300049    0.31999999    2.32999992
   12.05055618  154.96299744    0.31999999    2.32999992
   12.05388927  142.07400513    0.31999999    2.34999990
   12.05694485  140.39900208    0.31999999    2.34999990
   12.06027794  148.62600708    0.34000000    2.34999990
   12.06111145  149.55599976    0.34000000    2.34999990
   12.06388950  146.12399292    0.34000000    2.34999990
   12.06694412  150.23500061    0.34000000    2.34999990
   12.07027817  145.66299438    0.34000000    2.34999990
   12.07638836  145.66299438    0.34000000    2.34999990
   12.08027744  149.24299622    0.34000000    2.34999990
   12.08361053  153.33799744    0.34000000    2.34999990
   12.08694458  145.13299561    0.31999999    2.34999990
   12.09000015  147.38200378    0.31999999    2.34999990
   12.09333324  146.43600464    0.31999999    2.36999989
   12.09444427  144.31300354    0.31999999    2.36999989
   12.09666634  151.65800476    0.31999999    2.34999990
   12.10000038  140.58900452    0.31999999    2.36999989
   12.10333347  143.88200378    0.31999999    2.36999989
   12.10638905  148.51199341    0.31999999    2.36999989
   12.10972214  148.23800659    0.31999999    2.36999989
   12.11305618  147.13200378    0.31999999    2.36999989
   12.11916637  147.13200378    0.31999999    2.36999989
   12.12333393  145.11099243    0.34000000    2.36999989
   12.12638855  142.47000122    0.34000000    2.36999989
   12.12777805  148.82699585    0.34000000    2.36999989
   12.13000011  144.27099609    0.34000000    2.36999989
   12.13333321  154.72099304    0.36000001    2.39000010
   12.13666630  153.64599609    0.36000001    2.39000010
   12.14000034  142.88200378    0.34000000    2.36999989
   12.14305496  144.06199646    0.36000001    2.39000010
   12.14638901  146.47599792    0.36000001    2.39000010
   12.14972210  138.39199829    0.36000001    2.39000010
   12.15277767  135.45700073    0.38000000    2.36999989
   12.15611076  146.64999390    0.36000001    2.39000010
   12.16222191  146.64999390    0.36000001    2.39000010
   12.16638851  145.23300171    0.36000001    2.39000010
   12.16972256  146.40499878    0.40000001    2.39000010
   12.17305565  149.90899658    0.44000000    2.39000010
   12.17611122  146.22500610    0.40000001    2.39000010
   12.17944431  145.60499573    0.36000001    2.39000010
   12.18249989  153.81300354    0.36000001    2.39000010
   12.18583298  143.69599915    0.38000000    2.39000010
   12.18916702  146.24099731    0.34000000    2.39000010
   12.19222260  152.22500610    0.34000000    2.39000010
   12.19444466  137.89199829    0.31999999    2.39000010
   12.19583321  137.69799805    0.31999999    2.39000010
   12.19916630  131.87399292    0.34000000    2.39000010
   12.20527744  131.87399292    0.36000001    2.40000010
   12.20944405  144.14900208    0.34000000    2.39000010
   12.21249962  142.58399963    0.30000001    2.39000010
   12.21583271  142.19999695    0.30000001    2.39000010
   12.21888828  149.44799805    0.30000001    2.40000010
   12.22222137  142.36000061    0.28000000    2.40000010
   12.22555542  140.55400085    0.34000000    2.40000010
   12.22777748  142.20399475    0.34000000    2.40000010
   12.22916603  137.74000549    0.31999999    2.40000010
   12.23222160  147.75199890    0.34000000    2.40000010
   12.23555565  143.04899597    0.34000000    2.40000010
   12.23861122  143.96499634    0.34000000    2.40000010
   12.24194431  148.52299500    0.34000000    2.40000010
   12.24805546  148.52299500    0.40000001    2.40000010
   12.25222206  146.66799927    0.38000000    2.40000010
   12.25527763  146.91499329    0.38000000    2.40000010
   12.25861073  148.91000366    0.34000000    2.40000010
   12.26111126  149.32899475    0.34000000    2.42000008
   12.26222229  146.01699829    0.34000000    2.42000008
   12.26527786  154.93699646    0.31999999    2.40000010
   12.26861095  142.88499451    0.34000000    2.40000010
   12.27166653  148.90699768    0.34000000    2.40000010
   12.27499962  146.62699890    0.36000001    2.42000008
   12.27833271  145.42599487    0.34000000    2.42000008
   12.28138828  142.67999268    0.34000000    2.42000008
   12.28472233  149.65499878    0.30000001    2.42000008
   12.29083347  149.65499878    0.30000001    2.42000008
   12.29500008  140.80700684    0.31999999    2.42000008
   12.29833412  145.33500671    0.36000001    2.42000008
   12.30138874  145.65100098    0.34000000    2.42000008
   12.30472279  141.86799622    0.34000000    2.42000008
   12.30777836  146.51800537    0.31999999    2.42000008
   12.31111145  145.67999268    0.34000000    2.42000008
   12.31444454  147.02299500    0.34000000    2.42000008
   12.31750011  134.04899597    0.34000000    2.42000008
   12.32083321  137.72300720    0.30000001    2.42000008
   12.32388878  143.02900696    0.30000001    2.42000008
   12.32722187  149.33999634    0.30000001    2.44000006
   12.32777786  142.09399414    0.30000001    2.44000006
   12.33361053  142.09399414    0.30000001    2.44000006
   12.33777714  139.19999695    0.31999999    2.42000008
   12.34111118  141.33900452    0.31999999    2.42000008
   12.34416676  147.07699585    0.31999999    2.42000008
   12.34749985  138.07600403    0.30000001    2.44000006
   12.35083389  143.91200256    0.31999999    2.44000006
   12.35388947  144.47000122    0.28000000    2.44000006
   12.35722256  139.13699341    0.30000001    2.44000006
   12.36027813  141.67700195    0.28000000    2.44000006
   12.36111164  139.20100403    0.28000000    2.44000006
   12.36416721  148.31199646    0.28000000    2.44000006
   12.36722279  149.09300232    0.28000000    2.44000006
   12.37055588  141.15199280    0.28000000    2.44000006
   12.37666702  141.15199280    0.28000000    2.46000004
   12.38083363  129.09599304    0.28000000    2.44000006
   12.38388920  143.25900269    0.30000001    2.44000006
   12.38722229  144.30900574    0.30000001    2.46000004
   12.39027786  150.60200500    0.28000000    2.46000004
   12.39416695  144.15899658    0.28000000    2.46000004
   12.39472198  150.31900024    0.28000000    2.46000004
   12.39777756  150.06300354    0.28000000    2.46000004
   12.40083313  143.75900269    0.30000001    2.46000004
   12.40416622  143.66600037    0.30000001    2.46000004
   12.40722179  144.22500610    0.30000001    2.46000004
   12.41055489  144.92999268    0.28000000    2.46000004
   12.41388893  147.21600342    0.31999999    2.46000004
   12.41944504  147.21600342    0.28000000    2.46000004
   12.42361164  148.02099609    0.30000001    2.46000004
   12.42666721  148.12500000    0.30000001    2.46000004
   12.42805576  149.29299927    0.30000001    2.46000004
   12.43055630  147.22999573    0.30000001    2.46000004
   12.43361092  152.71099854    0.30000001    2.46000004
   12.43694496  144.31500244    0.30000001    2.46000004
   12.44000053  151.83799744    0.30000001    2.46000004
   12.44333363  137.47999573    0.28000000    2.46000004
   12.44666672  146.80700684    0.30000001    2.46000004
   12.44972229  146.59800720    0.28000000    2.46000004
   12.45305538  145.26199341    0.30000001    2.46000004
   12.45611095  146.18800354    0.30000001    2.46000004
   12.46222210  146.18800354    0.31999999    2.46000004
   12.46638870  138.86000061    0.30000001    2.46000004
   12.46972179  144.52900696    0.28000000    2.48000002
   12.47277737  147.86999512    0.30000001    2.46000004
   12.47611046  142.37300110    0.30000001    2.46000004
   12.47944355  148.57899475    0.30000001    2.46000004
   12.48249912  146.34500122    0.30000001    2.46000004
   12.48583317  145.59800720    0.31999999    2.46000004
   12.48888874  145.79899597    0.30000001    2.46000004
   12.49222279  140.54899597    0.30000001    2.46000004
   12.49472237  147.50500488    0.30000001    2.46000004
   12.49583340  149.04499817    0.30000001    2.46000004
   12.49888897  142.28100586    0.28000000    2.48000002
   12.50527763  142.28100586    0.30000001    2.46000004
   12.50916672  138.66000366    0.30000001    2.48000002
   12.51249981  138.83599854    0.30000001    2.48000002
   12.51583290  141.62699890    0.30000001    2.48000002
   12.51888847  144.81199646    0.30000001    2.48000002
   12.52222157  145.82099915    0.30000001    2.48000002
   12.52527714  149.02000427    0.30000001    2.48000002
   12.52805519  146.47200012    0.30000001    2.48000002
   12.52888870  143.41900635    0.30000001    2.48000002
   12.53194427  135.75000000    0.30000001    2.48000002
   12.53527832  141.06599426    0.30000001    2.48000002
   12.53861141  146.70300293    0.31999999    2.48000002
   12.54166698  147.25700378    0.31999999    2.48000002
   12.54805565  147.25700378    0.31999999    2.48000002
   12.55222225  153.61700439    0.30000001    2.48000002
   12.55527782  141.90299988    0.31999999    2.48000002
   12.55861092  141.34599304    0.30000001    2.48000002
   12.56138897  144.40899658    0.30000001    2.48000002
   12.56222248  136.80499268    0.30000001    2.48000002
   12.56527805  145.17999268    0.30000001    2.48000002
   12.56861115  139.85099792    0.30000001    2.48000002
   12.57194424  146.10699463    0.30000001    2.48000002
   12.57499981  141.43800354    0.31999999    2.48000002
   12.57833290  149.03599548    0.30000001    2.50000000
   12.58166695  141.38600159    0.31999999    2.50000000
   12.58472157  145.65899658    0.31999999    2.48000002
   12.59083271  145.65899658    0.30000001    2.48000002
   12.59499931  142.49299622    0.30000001    2.48000002
   12.59805489  140.45199585    0.31999999    2.50000000
   12.60138893  144.74499512    0.31999999    2.48000002
   12.60444450  140.00999451    0.31999999    2.50000000
   12.60777855  140.55999756    0.30000001    2.48000002
   12.61111164  140.96000671    0.31999999    2.50000000
   12.61444473  140.55900574    0.30000001    2.50000000
   12.61750031  148.04699707    0.30000001    2.50000000
   12.62083340  136.94700623    0.30000001    2.50000000
   12.62416649  141.10000610    0.30000001    2.50000000
   12.62722206  141.77200317    0.30000001    2.50000000
   12.64472198  144.43499756    0.30000001    2.50000000
   12.64861107  144.43499756    0.30000001    2.50000000
   12.65277767  142.23500061    0.30000001    2.50000000
   12.65611076  150.45199585    0.30000001    2.50000000
   12.65944386  143.51499939    0.30000001    2.50000000
   12.66249943  145.96299744    0.30000001    2.50000000
   12.66583252  150.14100647    0.30000001    2.50000000
   12.66888905  143.63999939    0.30000001    2.51999998
   12.67222214  138.87199402    0.30000001    2.51999998
   12.67555618  142.75000000    0.30000001    2.51999998
   12.67777824  144.14399719    0.30000001    2.50000000
   12.67916679  144.02400208    0.30000001    2.50000000
   12.68222237  143.29600525    0.30000001    2.50000000
   12.68555546  137.66499329    0.30000001    2.50000000
   12.69166660  137.66499329    0.30000001    2.51999998
   12.69583321  139.83700562    0.30000001    2.50000000
   12.69888878  145.56900024    0.30000001    2.51999998
   12.70222187  150.44200134    0.30000001    2.51999998
   12.70527744  150.61000061    0.30000001    2.51999998
   12.70861053  143.10899353    0.30000001    2.51999998
   12.71111107  145.45199585    0.30000001    2.51999998
   12.71222210  148.13999939    0.30000001    2.51999998
   12.71555519  149.17599487    0.30000001    2.51999998
   12.71888828  144.38000488    0.30000001    2.51999998
   12.72194386  147.25799561    0.30000001    2.51999998
   12.72527695  147.47500610    0.30000001    2.51999998
   12.72861099  150.75999451    0.30000001    2.51999998
   12.73444462  150.75999451    0.28000000    2.51999998
   12.73861122  149.39100647    0.30000001    2.51999998
   12.74166679  153.72500610    0.28000000    2.51999998
   12.74444485  149.83500671    0.28000000    2.51999998
   12.74527836  146.46400452    0.28000000    2.51999998
   12.74861145  143.82800293    0.28000000    2.51999998
   12.75166702  146.33799744    0.28000000    2.51999998
   12.75500011  150.05200195    0.30000001    2.51999998
   12.75805569  147.55000305    0.28000000    2.51999998
   12.76138878  141.93400574    0.28000000    2.51999998
   12.76472187  144.40299988    0.30000001    2.51999998
   12.76777744  141.82099915    0.30000001    2.51999998
   12.77111053  139.26199341    0.28000000    2.51999998
   12.77722168  139.26199341    0.30000001    2.51999998
   12.78138828  143.75599670    0.34000000    2.51999998
   12.78472233  139.06500244    0.31999999    2.51999998
   12.78777790  139.96299744    0.30000001    2.51999998
   12.79111195  135.00399780    0.30000001    2.51999998
   12.79444504  139.78500366    0.34000000    2.53999996
   12.79750061  142.74200439    0.31999999    2.53999996
   12.80083370  145.39399719    0.31999999    2.53999996
   12.80388927  145.21800232    0.31999999    2.53999996
   12.80722237  144.93200684    0.31999999    2.53999996
   12.81055546  149.04299927    0.34000000    2.53999996
   12.81222248  148.50799561    0.31999999    2.53999996
   12.81416702  139.24299622    0.31999999    2.53999996
   12.81999969  139.24299622    0.34000000    2.53999996
   12.82416630  137.44000244    0.36000001    2.53999996
   12.82750034  149.07099915    0.36000001    2.53999996
   12.83083344  144.23300171    0.36000001    2.53999996
   12.83388901  144.50100708    0.31999999    2.53999996
   12.83722210  145.63400269    0.31999999    2.53999996
   12.84027767  147.79299927    0.31999999    2.53999996
   12.84361076  145.92300415    0.31999999    2.53999996
   12.84555531  142.27400208    0.31999999    2.53999996
   12.84722233  139.38200378    0.31999999    2.53999996
   12.85055637  140.59899902    0.36000001    2.53999996
   12.85361195  147.36999512    0.36000001    2.53999996
   12.85694504  143.68899536    0.36000001    2.53999996
   12.86305618  143.68899536    0.36000001    2.53999996
   12.86694431  139.56900024    0.36000001    2.53999996
   12.87027836  144.32600403    0.36000001    2.53999996
   12.87361145  131.44000244    0.36000001    2.53999996
   12.87666702  133.88299561    0.38000000    2.55999994
   12.87916660  139.37800598    0.36000001    2.53999996
   12.88055611  141.41099548    0.36000001    2.53999996
   12.88361073  139.27299500    0.40000001    2.53999996
   12.88694477  139.15899658    0.38000000    2.53999996
   12.89000034  143.57200623    0.36000001    2.53999996
   12.89333344  141.60400391    0.38000000    2.53999996
   12.89666653  133.13900757    0.36000001    2.53999996
   12.89972210  140.13099670    0.36000001    2.53999996
   12.90583324  140.13099670    0.38000000    2.53999996
   12.90999985  136.81199646    0.38000000    2.55999994
   12.91249943  142.59100342    0.36000001    2.55999994
   12.91361046  137.56700134    0.36000001    2.55999994
   12.91666698  139.76100159    0.38000000    2.55999994
   12.92000008  136.74600220    0.38000000    2.55999994
   12.92305565  141.33500671    0.40000001    2.53999996
   12.92638874  146.30099487    0.40000001    2.53999996
   12.92972279  143.54899597    0.36000001    2.53999996
   12.93277836  136.43099976    0.41999999    2.55999994
   12.93611145  138.40100098    0.36000001    2.55999994
   12.93944454  139.96299744    0.40000001    2.55999994
   12.94250011  139.63900757    0.36000001    2.55999994
   12.94861126  139.63900757    0.36000001    2.55999994
   12.95277786  139.12600708    0.36000001    2.55999994
   12.95611095  138.32299805    0.36000001    2.55999994
   12.95916653  142.17100525    0.47999999    2.55999994
   12.96249962  132.72200012    0.44000000    2.55999994
   12.96583271  134.41799927    0.46000001    2.55999994
   12.96888828  130.73800659    0.38000000    2.55999994
   12.97222137  133.58099365    0.36000001    2.55999994
   12.97527695  133.59399414    0.31999999    2.55999994
   12.97861099  138.39700317    0.34000000    2.55999994
   12.97944355  134.19700623    0.34000000    2.55999994
   12.98222160  136.68299866    0.34000000    2.55999994
   12.98555565  132.78599548    0.36000001    2.55999994
   12.99138927  132.78599548    0.38000000    2.57999992
   12.99555588  139.36399841    0.34000000    2.55999994
   12.99888897  135.48399353    0.34000000    2.55999994
   13.00194454  140.60099792    0.34000000    2.55999994
   13.00527763  139.38699341    0.34000000    2.55999994
   13.00861073  134.95500183    0.36000001    2.55999994
   13.01166630  126.91999817    0.34000000    2.55999994
   13.01277733  136.34700012    0.34000000    2.55999994
   13.01527786  132.09500122    0.31999999    2.55999994
   13.01861095  133.69099426    0.31999999    2.55999994
   13.02166653  140.70199585    0.34000000    2.57999992
   13.02499962  138.39399719    0.38000000    2.55999994
   13.02833271  192.53100586    0.36000001    2.55999994
   13.03444481  192.53100586    0.31999999    2.55999994
   13.03861141  130.72599792    0.30000001    2.57999992
   13.04166698  135.75100708    0.30000001    2.57999992
   13.04500008  136.83399963    0.31999999    2.57999992
   13.04638958  135.35299683    0.31999999    2.57999992
   13.04861164  128.93699646    0.31999999    2.55999994
   13.05166721  131.75700378    0.31999999    2.55999994
   13.05500031  137.42500305    0.31999999    2.57999992
   13.05833340  135.54200745    0.31999999    2.57999992
   13.06138897  135.85499573    0.31999999    2.55999994
   13.06472206  136.94999695    0.31999999    2.55999994
   13.06805515  135.07899475    0.31999999    2.57999992
   13.07111073  135.98300171    0.31999999    2.57999992
   13.07722187  135.98300171    0.31999999    2.57999992
   13.08138847  136.72000122    0.34000000    2.57999992
   13.08472157  137.72000122    0.38000000    2.57999992
   13.08777714  141.06900024    0.38000000    2.57999992
   13.09111118  136.37500000    0.36000001    2.57999992
   13.09416676  136.74400330    0.36000001    2.57999992
   13.09749985  137.82000732    0.36000001    2.57999992
   13.10083389  129.77200317    0.40000001    2.57999992
   13.10388947  137.47200012    0.36000001    2.57999992
   13.10722256  131.70399475    0.31999999    2.57999992
   13.11055565  132.48500061    0.30000001    2.57999992
   13.11305618  135.78799438    0.30000001    2.57999992
   13.11416721  134.14900208    0.31999999    2.57999992
   13.11999989  134.14900208    0.30000001    2.57999992
   13.12416649  140.46099854    0.30000001    2.57999992
   13.12750053  134.75999451    0.31999999    2.57999992
   13.13055611  133.53599548    0.31999999    2.57999992
   13.13388920  132.57299805    0.31999999    2.57999992
   13.13722229  136.42300415    0.31999999    2.57999992
   13.14027786  135.54100037    0.31999999    2.59999990
   13.14361095  133.35899353    0.31999999    2.59999990
   13.14638901  131.96499634    0.31999999    2.59999990
   13.14722252  133.53300476    0.31999999    2.59999990
   13.15027714  126.98699951    0.31999999    2.59999990
   13.15361118  131.00999451    0.31999999    2.57999992
   13.15694427  135.38699341    0.34000000    2.57999992
   13.16277695  135.38699341    0.31999999    2.57999992
   13.16694450  132.79800415    0.31999999    2.57999992
   13.17027855  136.63499451    0.31999999    2.57999992
   13.17333412  138.72200012    0.31999999    2.57999992
   13.17666721  132.68899536    0.31999999    2.57999992
   13.17972279  133.87399292    0.34000000    2.57999992
   13.18027782  131.97900391    0.34000000    2.57999992
   13.18333340  135.88400269    0.31999999    2.57999992
   13.18666649  131.89399719    0.31999999    2.57999992
   13.19000053  134.99499512    0.36000001    2.57999992
   13.19305515  132.77200317    0.34000000    2.57999992
   13.19638920  133.86700439    0.30000001    2.59999990
   13.19944477  136.61900330    0.30000001    2.59999990
   13.20583344  136.61900330    0.30000001    2.57999992
   13.20972157  137.14300537    0.30000001    2.59999990
   13.21305561  131.24899292    0.30000001    2.59999990
   13.21361065  131.75000000    0.30000001    2.59999990
   13.21666622  135.29299927    0.31999999    2.57999992
   13.21999931  129.26600647    0.31999999    2.59999990
   13.22333336  135.63699341    0.34000000    2.57999992
   13.22638798  134.09599304    0.34000000    2.59999990
   13.22972202  126.08799744    0.34000000    2.59999990
   13.23305511  134.03900146    0.34000000    2.59999990
   13.23611164  134.22999573    0.36000001    2.59999990
   13.23944473  141.57899475    0.34000000    2.59999990
   13.24250031  134.85000610    0.31999999    2.59999990
   13.24861145  134.85000610    0.31999999    2.59999990
   13.25277805  135.33200073    0.38000000    2.59999990
   13.25583363  138.84100342    0.38000000    2.59999990
   13.25916672  137.01400757    0.36000001    2.59999990
   13.26249981  135.67300415    0.38000000    2.59999990
   13.26555538  139.64399719    0.40000001    2.59999990
   13.26888847  137.01699829    0.41999999    2.59999990
   13.27222157  132.69599915    0.41999999    2.59999990
   13.27527714  130.99800110    0.44000000    2.59999990
   13.27861118  136.99299622    0.41999999    2.59999990
   13.27972221  135.03399658    0.41999999    2.59999990
   13.28222179  132.77400208    0.80000001    2.59999990
   13.28555584  136.04100037    0.80000001    2.59999990
   13.29138947  136.04100037    0.56999999    2.59999990
   13.29555607  132.86300659    0.44000000    2.59999990
   13.29888916  133.94900513    0.52999997    2.59999990
   13.30194473  134.10899353    0.46000001    2.59999990
   13.30527782  130.28999329    0.36000001    2.59999990
   13.30861092  136.38699341    0.36000001    2.59999990
   13.31166649  137.77699280    0.36000001    2.59999990
   13.31305599  131.34199524    0.31999999    2.59999990
   13.31527805  132.67100525    0.31999999    2.59999990
   13.31861115  134.08000183    0.31999999    2.59999990
   13.32166672  127.39199829    0.31999999    2.59999990
   13.32499981  129.35299683    0.31999999    2.59999990
   13.32833290  137.76899719    0.34000000    2.59999990
   13.33416653  137.76899719    0.31999999    2.59999990
   13.33833313  129.43600464    0.34000000    2.59999990
   13.34166622  133.91900635    0.34000000    2.59999990
   13.34499931  128.38000488    0.31999999    2.59999990
   13.34666634  129.12500000    0.30000001    2.59999990
   13.34861088  130.20799255    0.30000001    2.59999990
   13.35166740  130.20599365    0.30000001    2.59999990
   13.35500050  129.05599976    0.30000001    2.61999989
   13.35833359  122.40399933    0.31999999    2.61999989
   13.36138916  131.70199585    0.34000000    2.61999989
   13.36472225  127.65599823    0.31999999    2.61999989
   13.36805534  127.56400299    0.31999999    2.61999989
   13.37111092  132.44200134    0.31999999    2.61999989
   13.37722206  132.44200134    0.34000000    2.61999989
   13.38138866  129.68899536    0.34000000    2.61999989
   13.38444424  134.96200562    0.34000000    2.61999989
   13.38777733  132.72000122    0.34000000    2.61999989
   13.39083290  127.56900024    0.34000000    2.61999989
   13.39416695  127.70600128    0.36000001    2.61999989
   13.39750004  131.07699585    0.36000001    2.61999989
   13.40055561  131.85299683    0.36000001    2.61999989
   13.40388870  134.69999695    0.36000001    2.61999989
   13.40722179  130.27600098    0.36000001    2.61999989
   13.41027737  131.97200012    0.34000000    2.59999990
   13.41333294  133.40400696    0.36000001    2.61999989
   13.41388893  132.63699341    0.36000001    2.61999989
   13.42000008  132.63699341    0.36000001    2.61999989
   13.42416668  131.10200500    0.36000001    2.61999989
   13.42722225  126.35199738    0.34000000    2.61999989
   13.43055630  126.63099670    0.34000000    2.61999989
   13.43388939  133.26400757    0.34000000    2.61999989
   13.43694496  128.37800598    0.36000001    2.61999989
   13.44027805  133.89300537    0.36000001    2.61999989
   13.44333363  128.82200623    0.36000001    2.61999989
   13.44666672  127.47499847    0.38000000    2.61999989
   13.44722271  128.44599915    0.38000000    2.61999989
   13.45027733  126.46299744    0.44000000    2.64000010
   13.45361137  125.24600220    0.36000001    2.61999989
   13.45666695  125.48999786    0.36000001    2.61999989
   13.46277714  125.48999786    0.40000001    2.61999989
   13.46694374  122.46399689    0.40000001    2.61999989
   13.47027779  131.52200317    0.38000000    2.61999989
   13.47333336  132.86199951    0.38000000    2.61999989
   13.47666645  124.98699951    0.41999999    2.61999989
   13.47972202  126.08699799    0.36000001    2.61999989
   13.48027706  126.30599976    0.36000001    2.61999989
   13.48361111  127.35500336    0.34000000    2.61999989
   13.48694515  120.58999634    0.38000000    2.64000010
   13.49000072  131.32000732    0.40000001    2.64000010
   13.49333382  134.00999451    0.41999999    2.61999989
   13.49666691  131.08599854    0.40000001    2.61999989
   13.49972248  131.53500366    0.40000001    2.61999989
   13.50555515  131.53500366    0.34000000    2.64000010
   13.50972176  131.10699463    0.36000001    2.61999989
   13.51305580  130.23300171    0.52999997    2.61999989
   13.51361084  128.85800171    0.52999997    2.61999989
   13.51666641  137.09899902    0.44000000    2.61999989
   13.51999950  139.90100098    0.40000001    2.61999989
   13.52305508  137.09800720    0.46000001    2.64000010
   13.52638817  134.06399536    0.46000001    2.64000010
   13.52944374  137.77000427    0.40000001    2.64000010
   13.53277779  140.91600037    0.38000000    2.61999989
   13.53611183  133.59599304    0.40000001    2.64000010
   13.53916740  129.77699280    0.34000000    2.61999989
   13.54250050  130.49400330    0.38000000    2.61999989
   13.54861164  130.49400330    0.40000001    2.61999989
   13.55249977  137.73599243    0.31999999    2.64000010
   13.55583382  132.73800659    0.31999999    2.64000010
   13.55916691  129.30200195    0.36000001    2.64000010
   13.56222248  126.47399902    0.36000001    2.64000010
   13.56555557  134.08000183    0.34000000    2.61999989
   13.56888866  132.63000488    0.36000001    2.61999989
   13.57194424  130.93800354    0.36000001    2.61999989
   13.57527733  129.94400024    0.36000001    2.64000010
   13.57861137  123.40599823    0.34000000    2.61999989
   13.58027744  132.23699951    0.34000000    2.61999989
   13.58222198  134.98599243    0.34000000    2.61999989
   13.58527756  135.59100342    0.36000001    2.64000010
   13.59138870  135.59100342    0.36000001    2.64000010
   13.59555531  135.40400696    0.38000000    2.64000010
   13.59888840  127.57399750    0.36000001    2.64000010
   13.60222244  131.56799316    0.36000001    2.64000010
   13.60527802  131.87699890    0.36000001    2.64000010
   13.60861111  127.98699951    0.41999999    2.64000010
   13.61194515  129.83999634    0.46000001    2.64000010
   13.61361122  130.48399353    0.46000001    2.64000010
   13.61527824  131.76499939    0.40000001    2.64000010
   13.61861134  130.07099915    0.44000000    2.64000010
   13.62166691  130.40600586    0.44000000    2.64000010
   13.62500000  134.75000000    0.46000001    2.64000010
   13.62805557  126.28299713    0.44000000    2.64000010
   13.63416672  126.28299713    0.40000001    2.64000010
   13.63833332  132.23699951    0.38000000    2.64000010
   13.64166641  125.73300171    0.40000001    2.64000010
   13.64472198  133.98500061    0.40000001    2.64000010
   13.66194439  124.81500244    0.38000000    2.64000010
   13.66472149  128.23699951    0.36000001    2.64000010
   13.66805553  125.41500092    0.36000001    2.64000010
   13.67138958  124.32800293    0.41999999    2.66000009
   13.67722225  124.32800293    0.47999999    2.64000010
   13.68138885  122.25800323    0.52999997    2.64000010
   13.68444443  122.56099701    0.47999999    2.64000010
   13.68777752  127.22499847    0.40000001    2.64000010
   13.69111156  121.27899933    0.44000000    2.64000010
   13.69416714  128.50300598    0.46000001    2.64000010
   13.69499969  123.29199982    0.46000001    2.64000010
   13.69777775  120.64700317    0.51999998    2.64000010
   13.70111084  125.97200012    0.46000001    2.64000010
   13.70416641  126.23999786    0.44000000    2.66000009
   13.70749950  109.39199829    0.44000000    2.66000009
   13.71055508  120.76399994    0.44000000    2.64000010
   13.71388912  120.14800262    0.46000001    2.64000010
   13.71999931  120.14800262    0.40000001    2.66000009
   13.72416592  116.46199799    0.41999999    2.66000009
   13.72749996  117.60199738    0.44000000    2.66000009
   13.72833252  124.39299774    0.44000000    2.66000009
   13.73111057  114.62999725    0.51999998    2.66000009
   13.73444462  127.97499847    0.51999998    2.64000010
   13.73777771  126.36299896    0.56999999    2.64000010
   13.74111176  131.46200562    0.56999999    2.64000010
   13.74416733  128.64199829    0.46000001    2.66000009
   13.74750042  127.22399902    0.40000001    2.64000010
   13.75055599  115.34999847    0.41999999    2.64000010
   13.75388908  120.24299622    0.41999999    2.64000010
   13.75722218  127.33799744    0.44000000    2.64000010
   13.76277733  127.33799744    0.44000000    2.64000010
   13.76694393  130.15299988    0.44000000    2.66000009
   13.77027798  132.00500488    0.46000001    2.66000009
   13.77333355  130.00500488    0.46000001    2.66000009
   13.77666664  127.20300293    0.44000000    2.64000010
   13.77999973  128.01199341    0.38000000    2.64000010
   13.78305531  129.16200256    0.36000001    2.66000009
   13.78638935  132.58799744    0.44000000    2.66000009
   13.78972244  126.40699768    0.44000000    2.66000009
   13.79277802  130.95399475    0.44000000    2.66000009
   13.79527855  125.78399658    0.44000000    2.66000009
   13.79666710  130.40899658    0.44000000    2.66000009
   13.79972267  130.92799377    0.46000001    2.66000009
   13.80583382  130.92799377    0.44000000    2.66000009
   13.80972195  129.96499634    0.41999999    2.66000009
   13.81305599  135.26400757    0.44000000    2.66000009
   13.81638908  130.89900208    0.47999999    2.66000009
   13.81944466  131.68200684    0.47999999    2.66000009
   13.82277775  127.52899933    0.47999999    2.66000009
   13.82611084  127.92800140    0.44000000    2.66000009
   13.82833290  126.95999908    0.40000001    2.66000009
   13.82972240  127.78299713    0.40000001    2.66000009
   13.83277798  124.27899933    0.50000000    2.66000009
   13.83611107  121.86799622    0.56999999    2.66000009
   13.83944416  127.08999634    0.67000002    2.64000010
   13.84249973  127.42500305    0.69000000    2.66000009
   13.84861088  127.42500305    0.52999997    2.66000009
   13.85277843  134.32200623    0.50000000    2.66000009
   13.85583401  124.33999634    0.47999999    2.67000008
   13.85916710  127.46399689    0.47999999    2.67000008
   13.86166668  132.09199524    0.46000001    2.66000009
   13.86277771  127.18299866    0.46000001    2.66000009
   13.86583328  128.99899292    0.51999998    2.66000009
   13.86916637  126.43599701    0.55000001    2.66000009
   13.87250042  127.93900299    0.58999997    2.66000009
   13.87555599  129.37699890    0.64999998    2.66000009
   13.87888908  126.77600098    0.64999998    2.66000009
   13.88222218  134.28999329    0.63000000    2.66000009
   13.88527775  126.16999817    0.56999999    2.66000009
   13.89138889  126.16999817    0.51999998    2.66000009
   13.89555550  128.99699402    0.47999999    2.66000009
   13.89861107  127.71900177    0.46000001    2.66000009
   13.90194416  132.91799927    0.52999997    2.66000009
   13.90527725  130.03599548    0.52999997    2.66000009
   13.90833282  122.45400238    0.50000000    2.66000009
   13.91166592  127.20300293    0.56999999    2.66000009
   13.91499996  126.61799622    0.63000000    2.66000009
   13.91805553  128.07400513    0.58999997    2.66000009
   13.92138958  136.21099854    0.58999997    2.66000009
   13.92444515  127.36599731    0.58999997    2.67000008
   13.92777824  131.39300537    0.61000001    2.66000009
   13.92833328  130.61700439    0.61000001    2.66000009
   13.93416691  130.61700439    0.64999998    2.66000009
   13.93833351  133.23500061    0.58999997    2.66000009
   13.94166660  128.29600525    0.56999999    2.66000009
   13.94472218  134.82400513    0.56999999    2.66000009
   13.94805527  126.95500183    0.51999998    2.66000009
   13.95138836  130.25100708    0.86000001    2.66000009
   13.95444393  131.93299866    0.76999998    2.67000008
   13.95777798  125.91400146    0.47999999    2.66000009
   13.96111107  130.49400330    0.50000000    2.67000008
   13.96166611  129.07200623    0.50000000    2.67000008
   13.96472168  130.57800293    0.51999998    2.66000009
   13.96805477  129.93699646    0.55000001    2.67000008
   13.97111034  126.62500000    0.55000001    2.67000008
   13.97722149  126.62500000    0.79000002    2.66000009
   13.98111057  126.40699768    1.03999996    2.66000009
   13.98444462  128.96499634    0.61000001    2.66000009
   13.98777771  128.80900574    0.70999998    2.67000008
   13.99083328  131.99200439    0.64999998    2.66000009
   13.99416733  121.52999878    0.64999998    2.67000008
   13.99499989  124.91400146    0.64999998    2.67000008
   13.99777794  132.44099426    0.76999998    2.67000008
   14.00111103  127.45099640    0.61000001    2.66000009
   14.00416660  128.85000610    0.73000002    2.67000008
   14.00749969  124.02300262    0.70999998    2.67000008
   14.01055527  127.41400146    0.61000001    2.67000008
   14.01388931  126.48899841    0.61000001    2.67000008
   14.01999950  126.48899841    0.58999997    2.67000008
   14.02416611  124.93199921    0.86000001    2.67000008
   14.02722168  123.97799683    0.67000002    2.67000008
   14.02833271  124.05899811    0.64999998    2.67000008
   14.03083324  127.65000153    0.64999998    2.67000008
   14.03416729  130.13299561    0.63000000    2.67000008
   14.03722286  123.31999969    0.73000002    2.66000009
   14.04055595  122.59799957    0.73000002    2.66000009
   14.04388905  128.03700256    0.47999999    2.67000008
   14.04694462  124.81300354    0.47999999    2.67000008
   14.05027771  120.14800262    0.51999998    2.67000008
   14.05333328  123.39099884    0.56999999    2.67000008
   14.05666733  126.58100128    0.34000000    2.67000008
   14.06277752  126.58100128    0.34000000    2.67000008
   14.06694412  120.62100220    0.47999999    2.67000008
   14.07027817  130.51100159    0.51999998    2.67000008
   14.07333374  124.38500214    0.41999999    2.67000008
   14.07666683  128.34800720    0.41999999    2.67000008
   14.07972240  131.07699585    0.46000001    2.67000008
   14.08305550  125.48300171    0.51999998    2.67000008
   14.08638859  131.93800354    0.56999999    2.67000008
   14.08972168  128.21299744    0.56999999    2.67000008
   14.09277725  125.63300323    0.56999999    2.67000008
   14.09499931  125.81600189    0.55000001    2.67000008
   14.09638882  123.59300232    0.55000001    2.67000008
   14.09972191  119.69899750    0.47999999    2.67000008
   14.10555553  119.69899750    0.50000000    2.67000008
   14.10972214  130.27200317    0.63000000    2.67000008
   14.11305618  127.05500031    0.86000001    2.67000008
   14.11638927  126.78800201    0.50000000    2.67000008
   14.11944485  132.76300049    0.55000001    2.67000008
   14.12277794  123.28800201    0.51999998    2.67000008
   14.12583351  122.58799744    0.51999998    2.67000008
   14.12833309  124.14600372    0.51999998    2.67000008
   14.12944412  121.92299652    0.51999998    2.67000008
   14.13277817  119.57800293    0.52999997    2.67000008
   14.13583279  126.30300140    0.51999998    2.67000008
   14.13916683  126.32399750    0.51999998    2.67000008
   14.14249992  125.75000000    0.44000000    2.67000008
   14.14861107  125.75000000    0.41999999    2.67000008
   14.15249920  132.38999939    0.41999999    2.67000008
   14.15583324  125.46700287    0.44000000    2.67000008
   14.15916634  126.30000305    0.46000001    2.67000008
   14.16166592  126.87500000    0.63000000    2.67000008
   14.16277695  130.73599243    0.63000000    2.67000008
   14.16611099  129.76400757    0.51999998    2.67000008
   14.16916656  125.04399872    0.55000001    2.67000008
   14.17250061  125.89800262    0.46000001    2.69000006
   14.17583370  125.73300171    0.38000000    2.67000008
   14.17888927  120.65799713    0.38000000    2.67000008
   14.18222237  129.32899475    0.41999999    2.67000008
   14.18555546  122.68599701    0.47999999    2.67000008
   14.19138908  122.68599701    0.50000000    2.67000008
   14.19555569  127.51799774    0.51999998    2.67000008
   14.19861126  128.97000122    0.52999997    2.67000008
   14.20194435  127.66000366    0.50000000    2.67000008
   14.20527744  130.44900513    0.52999997    2.69000006
   14.20833302  127.71299744    0.58999997    2.67000008
   14.21166611  127.57700348    0.58999997    2.67000008
   14.21472168  124.86900330    0.56999999    2.67000008
   14.21805477  124.04499817    0.52999997    2.67000008
   14.22138882  123.41100311    0.51999998    2.67000008
   14.22444439  124.30400085    0.63000000    2.67000008
   14.22777748  129.69299316    0.63000000    2.69000006
   14.22833252  127.40799713    0.63000000    2.69000006
   14.23416710  127.40799713    0.58999997    2.69000006
   14.23833370  127.73200226    0.56999999    2.69000006
   14.24166679  128.70100403    0.55000001    2.67000008
   14.24472237  127.27700043    0.61000001    2.69000006
   14.24805546  131.17599487    0.61000001    2.69000006
   14.25138855  127.04799652    0.61000001    2.69000006
   14.25444412  129.35099792    0.55000001    2.67000008
   14.25777817  134.96499634    0.69000000    2.69000006
   14.26111126  130.79699707    0.63000000    2.69000006
   14.26166630  127.15399933    0.63000000    2.69000006
   14.26472187  127.89700317    0.58999997    2.67000008
   14.26805496  128.07299805    0.55000001    2.69000006
   14.27111053  128.18600464    0.64999998    2.69000006
   14.27694416  128.18600464    0.69000000    2.67000008
   14.28111076  122.94599915    0.67000002    2.69000006
   14.28444481  130.02000427    0.56999999    2.67000008
   14.28750038  128.63999939    0.70999998    2.67000008
   14.29083347  131.10400391    0.69000000    2.69000006
   14.29416752  129.40400696    0.69000000    2.69000006
   14.29527855  129.36500549    0.63000000    2.69000006
   14.29777813  131.87300110    0.63000000    2.69000006
   14.30111122  130.52900696    0.58999997    2.69000006
   14.30416679  127.80899811    0.75000000    2.69000006
   14.30749989  128.97099304    0.76999998    2.69000006
   14.31083393  132.31199646    0.47999999    2.69000006
   14.31388950  129.20399475    0.56999999    2.69000006
   14.31999969  129.20399475    0.50000000    2.69000006
   14.32388878  122.41600037    0.51999998    2.69000006
   14.32722187  128.61700439    0.64999998    2.69000006
   14.32861137  134.20700073    0.64999998    2.69000006
   14.33083344  128.67300415    0.64999998    2.69000006
   14.33416653  132.60600281    0.92000002    2.69000006
   14.33749962  128.88000488    0.64999998    2.67000008
   14.34055519  132.48100281    0.67000002    2.67000008
   14.34388828  128.26899719    0.73000002    2.69000006
   14.34722233  128.79800415    0.46000001    2.69000006
   14.35027790  124.75499725    0.47999999    2.69000006
   14.35361195  126.05200195    0.50000000    2.69000006
   14.35694504  125.00099945    0.46000001    2.69000006
   14.36277771  125.00099945    0.50000000    2.69000006
   14.36694431  131.46499634    0.40000001    2.69000006
   14.36999989  129.61099243    0.47999999    2.69000006
   14.37333393  126.55699921    0.44000000    2.69000006
   14.37666702  128.95100403    0.40000001    2.69000006
   14.37972260  127.30500031    0.46000001    2.69000006
   14.38305569  129.70599365    0.46000001    2.69000006
   14.38611126  128.84199524    0.46000001    2.69000006
   14.38944435  131.99299622    0.46000001    2.69000006
   14.39277744  128.60299683    0.46000001    2.69000006
   14.39527798  127.85800171    0.31999999    2.69000006
   14.39638901  131.44400024    0.31999999    2.69000006
   14.39972210  130.90199280    0.34000000    2.69000006
   14.40555477  130.90199280    0.40000001    2.69000006
   14.40972137  124.49099731    0.38000000    2.69000006
   14.41305542  128.50799561    0.41999999    2.69000006
   14.41638851  125.64299774    0.46000001    2.69000006
   14.41944504  126.88999939    0.44000000    2.69000006
   14.42277813  126.93099976    0.41999999    2.69000006
   14.42611122  128.62399292    0.41999999    2.69000006
   14.42861176  136.18699646    0.41999999    2.69000006
   14.42944431  132.74200439    0.41999999    2.69000006
   14.43277836  127.01000214    0.41999999    2.71000004
   14.43583298  126.37799835    0.46000001    2.69000006
   14.43916702  130.29600525    0.46000001    2.69000006
   14.44250011  129.34199524    0.47999999    2.69000006
   14.44833374  129.34199524    0.47999999    2.69000006
   14.45249939  126.92500305    0.50000000    2.69000006
   14.45583344  124.83799744    0.50000000    2.69000006
   14.45888901  126.51000214    0.47999999    2.69000006
   14.46194458  126.83799744    0.47999999    2.69000006
   14.46249962  127.35800171    0.38000000    2.69000006
   14.46583271  126.88999939    0.38000000    2.69000006
   14.46888828  126.18099976    0.41999999    2.69000006
   14.47222137  127.98699951    0.44000000    2.69000006
   14.47555542  125.82399750    0.44000000    2.69000006
   14.47861099  122.34300232    0.40000001    2.69000006
   14.48194408  126.38400269    0.88000000    2.69000006
   14.48500061  121.43000031    0.79000002    2.69000006
   14.49138927  121.43000031    0.73000002    2.69000006
   14.49527836  121.57700348    0.83999997    2.69000006
   14.49861145  132.11399841    0.86000001    2.69000006
   14.50194454  127.44100189    0.67000002    2.69000006
   14.50500011  130.88499451    0.75000000    2.69000006
   14.50833321  126.34400177    0.55000001    2.69000006
   14.51166630  124.50299835    0.40000001    2.69000006
   14.51472187  125.82299805    0.40000001    2.69000006
   14.51805496  125.71900177    0.40000001    2.69000006
   14.52111053  127.40499878    0.40000001    2.71000004
   14.52444458  128.14399719    0.47999999    2.69000006
   14.52777767  126.89600372    0.50000000    2.69000006
   14.52861118  124.41000366    0.50000000    2.69000006
   14.53416729  124.41000366    0.51999998    2.69000006
   14.53833389  129.26300049    0.56999999    2.71000004
   14.54138947  126.78399658    0.52999997    2.69000006
   14.54472256  125.77100372    0.52999997    2.69000006
   14.54777813  131.26800537    0.55000001    2.69000006
   14.55111122  128.62399292    0.55000001    2.69000006
   14.55444431  132.52400208    0.55000001    2.69000006
   14.55749989  125.40399933    0.55000001    2.69000006
   14.56083393  125.48100281    0.51999998    2.71000004
   14.56194496  129.92500305    0.51999998    2.71000004
   14.56444454  124.26200104    0.55000001    2.69000006
   14.56777763  128.00999451    0.51999998    2.71000004
   14.57083321  123.98500061    0.56999999    2.71000004
   14.57694435  123.98500061    0.47999999    2.71000004
   14.58111095  121.14099884    0.51999998    2.69000006
   14.58444405  125.99400330    0.55000001    2.69000006
   14.58777714  133.72000122    0.50000000    2.69000006
   14.59083271  127.56900024    0.51999998    2.69000006
   14.59416676  123.89900208    0.55000001    2.69000006
   14.59527779  128.78399658    0.55000001    2.69000006
   14.59777737  124.84400177    0.58999997    2.69000006
   14.60111141  127.73699951    0.58999997    2.71000004
   14.60444450  123.46900177    0.51999998    2.71000004
   14.60750008  132.08000183    0.51999998    2.71000004
   14.61083412  124.84799957    0.55000001    2.71000004
   14.61388969  126.25099945    0.63000000    2.71000004
   14.61972237  126.25099945    0.50000000    2.69000006
   14.62388897  124.50399780    0.52999997    2.69000006
   14.62722206  122.68399811    0.69000000    2.69000006
   14.62861156  120.12500000    0.69000000    2.69000006
   14.63083363  124.79699707    0.79000002    2.69000006
   14.63416672  128.40600586    0.69000000    2.69000006
   14.63749981  123.36199951    0.69000000    2.69000006
   14.64055538  122.06700134    0.63000000    2.69000006
   14.64388847  122.01499939    0.61000001    2.71000004
   14.64694405  125.58000183    0.47999999    2.71000004
   14.65027714  121.04199982    0.47999999    2.69000006
   14.65361118  124.81900024    0.47999999    2.71000004
   14.65666676  127.55999756    0.47999999    2.71000004
   14.67888927  126.95500183    0.95999998    2.71000004
   14.67944431  128.94099426    0.95999998    2.71000004
   14.68277836  117.75800323    1.05999994    2.69000006
   14.68583298  125.11799622    1.05999994    2.69000006
   14.68916702  126.34799957    0.95999998    2.69000006
   14.69222260  116.25099945    0.95999998    2.69000006
   14.69527817  122.71700287    1.07000005    2.69000006
   14.69583321  126.78299713    1.07000005    2.69000006
   14.69916630  123.80999756    0.83999997    2.71000004
   14.70555496  123.80999756    0.79000002    2.71000004
   14.70972157  116.62300110    0.51999998    2.71000004
   14.71277714  119.70400238    0.51999998    2.71000004
   14.71611118  124.46199799    0.56999999    2.69000006
   14.71944427  123.40299988    0.58999997    2.71000004
   14.72249985  120.24299622    0.61000001    2.71000004
   14.72583294  123.43000031    0.67000002    2.69000006
   14.72861099  122.76399994    0.73000002    2.69000006
   14.72944355  124.55599976    0.73000002    2.69000006
   14.73277760  126.28099823    0.80000001    2.69000006
   14.73611164  122.04199982    0.83999997    2.69000006
   14.73916721  125.45800018    0.83999997    2.69000006
   14.74250031  123.32599640    0.83999997    2.69000006
   14.74833393  123.32599640    0.75000000    2.71000004
   14.75249958  124.41600037    0.70999998    2.71000004
   14.75583363  124.31099701    0.73000002    2.71000004
   14.75888920  123.76399994    0.67000002    2.69000006
   14.76194477  121.15499878    0.67000002    2.69000006
   14.76277733  120.12000275    0.58999997    2.71000004
   14.76611137  120.23699951    0.61000001    2.69000006
   14.76916599  126.48400116    0.56999999    2.71000004
   14.77250004  123.09600067    0.47999999    2.71000004
   14.77583313  115.10299683    0.64999998    2.71000004
   14.77888870  123.91400146    0.61000001    2.71000004
   14.78222179  124.31900024    0.70999998    2.71000004
   14.78555584  127.05100250    0.51999998    2.71000004
   14.79111195  127.05100250    0.63000000    2.71000004
   14.79527855  127.40599823    0.63000000    2.71000004
   14.79861164  124.82700348    0.63000000    2.71000004
   14.80166721  123.19799805    0.63000000    2.71000004
   14.80500031  132.69999695    0.63000000    2.71000004
   14.80833340  131.33999634    0.63000000    2.71000004
   14.81138897  121.86499786    0.63000000    2.71000004
   14.81472206  128.90499878    0.63000000    2.71000004
   14.81805515  127.15599823    0.63000000    2.71000004
   14.82111073  128.19099426    0.63000000    2.71000004
   14.82444477  124.73300171    0.63000000    2.71000004
   14.82750034  124.45999908    0.63000000    2.71000004
   14.82861137  124.33200073    0.63000000    2.71000004
   14.83416653  124.33200073    0.63000000    2.71000004
   14.83833313  122.41999817    0.63000000    2.71000004
   14.84138870  126.80599976    0.63000000    2.71000004
   14.84472179  123.68299866    0.63000000    2.71000004
   14.84777737  126.53600311    0.86000001    2.69000006
   14.85111141  122.09100342    0.88000000    2.71000004
   14.85444450  127.39900208    1.03999996    2.71000004
   14.85750008  131.02400208    1.13000000    2.71000004
   14.86083412  126.56199646    1.07000005    2.69000006
   14.86194515  125.63500214    1.07000005    2.69000006
   14.86416721  127.61499786    1.01999998    2.69000006
   14.86750031  113.08399963    0.88000000    2.71000004
   14.87083340  115.72299957    0.88000000    2.71000004
   14.87694454  115.72299957    1.19000006    2.69000006
   14.88111115  131.44000244    1.09000003    2.71000004
   14.88416672  132.08500671    1.09000003    2.71000004
   14.88749981  124.54799652    1.09000003    2.69000006
   14.89083290  129.44000244    1.09000003    2.71000004
   14.89388847  122.63500214    1.03999996    2.71000004
   14.89527798  127.85900116    1.03999996    2.71000004
   14.89750004  125.97200012    1.01999998    2.71000004
   14.90083313  126.04000092    0.98000002    2.71000004
   14.90416622  124.99700165    0.95999998    2.71000004
   14.90722179  123.56700134    0.83999997    2.71000004
   14.91055489  116.81999969    0.83999997    2.71000004
   14.91388893  112.54199982    0.83999997    2.71000004
   14.91972256  112.54199982    0.86000001    2.71000004
   14.92388916  122.63099670    1.03999996    2.71000004
   14.92722225  119.83899689    1.21000004    2.71000004
   14.92861176  122.63999939    1.21000004    2.71000004
   14.93083382  130.35699463    1.21000004    2.71000004
   14.93388939  126.34799957    1.21000004    2.71000004
   14.93722248  129.26300049    1.30999994    2.71000004
   14.94055557  125.47200012    1.85000002    2.71000004
   14.94361115  125.13800049    1.85000002    2.71000004
   14.94694424  125.66400146    1.69000006    2.69000006
   14.94999981  118.94200134    1.66999996    2.71000004
   14.95333290  123.53399658    1.73000002    2.71000004
   14.95666695  124.25900269    1.75000000    2.71000004
   14.96249962  124.25900269    1.50000000    2.71000004
   14.96666622  132.08900452    1.33000004    2.71000004
   15.07333374   -1.00000000   -1.00000000   -1.00000000
   15.18388939   -1.00000000   -1.00000000   -1.00000000
   15.32666683   -1.00000000   -1.00000000   -1.00000000
   15.37027836  131.91200256    0.61000001    2.73000002
   15.37333393  132.98399353    0.81999999    2.73000002
   15.37666702  131.09399414    0.88000000    2.73000002
   15.37972260  127.98899841    0.89999998    2.71000004
   15.38305569  129.26600647    0.79000002    2.73000002
   15.38638878  130.71000671    0.79000002    2.73000002
   15.39027786  130.71000671    0.89999998    2.73000002
   15.39444447  130.72900391    0.98000002    2.73000002
   15.39777756  131.14799500    0.98000002    2.73000002
   15.40111065  129.69999695    0.81999999    2.73000002
   15.40333271  122.18599701    0.81999999    2.73000002
   15.40472221  126.56800079    0.81999999    2.73000002
   15.40777779  130.64300537    0.81999999    2.73000002
   15.41111088  129.67700195    0.89999998    2.73000002
   15.41444397  128.17700195    0.89999998    2.73000002
   15.41750050  116.76399994    1.21000004    2.73000002
   15.42083359  126.22699738    1.38000000    2.73000002
   15.42416668  121.42199707    1.60000002    2.71000004
   15.42722225  128.36799622    1.71000004    2.71000004
   15.43333340  128.36799622    2.21000004    2.71000004
   15.43750000  134.61399841    2.17000008    2.71000004
   15.44055557  133.53300476    2.09999990    2.71000004
   15.44388866  135.85299683    2.42000008    2.71000004
   15.44694424  135.63499451    2.48000002    2.71000004
   15.45027733  133.16000366    2.78999996    2.69000006
   15.45361137  133.38299561    2.57999992    2.71000004
   15.45666695  133.72999573    2.36999989    2.71000004
   15.46000004  129.86900330    2.19000006    2.71000004
   15.46333313  127.92500305    2.11999989    2.71000004
   15.46638870  134.76100159    2.01999998    2.71000004
   15.46972179  134.94200134    2.05999994    2.71000004
   15.47027779  132.24299622    2.01999998    2.71000004
   15.47611046  132.24299622    1.85000002    2.71000004
   15.48027706  122.63099670    1.89999998    2.73000002
   15.48333359  128.96000671    1.85000002    2.71000004
   15.48666668  129.10099792    1.86000001    2.71000004
   15.49000072  133.44700623    1.94000006    2.71000004
   15.49305534  135.88499451    1.88000000    2.71000004
   15.49638939  132.41000366    1.89999998    2.71000004
   15.49972248  133.01699829    1.78999996    2.71000004
   15.50277805  123.37599945    1.80999994    2.71000004
   15.50361156  128.07000732    1.80999994    2.71000004
   15.50638866  128.54299927    1.80999994    2.71000004
   15.50972176  135.10600281    1.98000002    2.71000004
   15.51305580  128.15600586    1.94000006    2.71000004
   15.51888847  128.15600586    1.91999996    2.71000004
   15.52305508  115.00199890    1.78999996    2.71000004
   15.52638817  126.98300171    1.88000000    2.71000004
   15.52944374  124.40899658    2.05999994    2.71000004
   15.53277779  128.09599304    1.94000006    2.71000004
   15.53611183  124.60299683    1.80999994    2.71000004
   15.53694534  132.71699524    1.88000000    2.71000004
   15.53972244  129.96200562    1.98000002    2.71000004
   15.54305553  127.90200043    1.78999996    2.71000004
   15.54638958  114.08399963    1.60000002    2.71000004
   15.54944515  128.79800415    1.36000001    2.73000002
   15.55277824  132.38099670    1.30999994    2.73000002
   15.55583382  125.65699768    1.25000000    2.73000002
   15.56166649  125.65699768    1.25000000    2.73000002
   15.56583309  121.57099915    1.23000002    2.73000002
   15.56916618  127.50299835    1.11000001    2.73000002
   15.57027817  125.74099731    1.11000001    2.73000002
   15.57277775  133.82299805    1.33000004    2.73000002
   15.57611084  123.92500305    1.23000002    2.75000000
   15.57944393  121.99800110    1.41999996    2.73000002
   15.58249950  125.55400085    1.41999996    2.73000002
   15.58583260  125.95800018    1.21000004    2.73000002
   15.58888817  126.63800049    1.26999998    2.73000002
   15.59222221  126.75000000    1.25000000    2.71000004
   15.59555531  131.08200073    1.07000005    2.73000002
   15.59861088  126.57599640    1.09000003    2.73000002
   15.60472298  126.57599640    1.50000000    2.71000004
   15.60888958  129.33799744    1.85000002    2.71000004
   15.61194515  128.19400024    1.75000000    2.73000002
   15.61527824  126.16500092    1.96000004    2.71000004
   15.61833382  134.02099609    2.05999994    2.71000004
   15.62166691  134.83700562    2.03999996    2.71000004
   15.62500000  122.50900269    1.91999996    2.73000002
   15.62833309  126.37100220    1.63000000    2.73000002
   15.63138866  128.34599304    1.69000006    2.73000002
   15.63472176  122.80000305    1.63000000    2.73000002
   15.63694477  120.10099792    1.58000004    2.71000004
   15.63805580  129.27799988    1.50000000    2.73000002
   15.64138889  124.64099884    1.46000004    2.73000002
   15.64750004  124.64099884    1.39999998    2.73000002
   15.65166664  134.76199341    1.25000000    2.73000002
   15.65472221  131.51699829    1.16999996    2.73000002
   15.65805531  131.00799561    1.14999998    2.73000002
   15.66138840  131.56599426    0.98000002    2.73000002
   15.66444397  130.24400330    1.11000001    2.73000002
   15.66777802  124.69799805    1.11000001    2.73000002
   15.67027855  130.41900635    1.14999998    2.73000002
   15.67138958  120.72799683    1.11000001    2.73000002
   15.67472267  126.37100220    1.11000001    2.73000002
   15.67805576  131.81199646    1.44000006    2.71000004
   15.68111134  128.23500061    1.44000006    2.71000004
   15.68444443  113.14499664    0.98000002    2.73000002
   15.69027805  113.14499664    1.16999996    2.73000002
   15.69444466  124.80200195    1.05999994    2.71000004
   15.69777775  130.27600098    1.07000005    2.73000002
   15.70083332  124.04900360    1.03999996    2.73000002
   15.70361137  121.55500031    1.03999996    2.73000002
   15.70444393  128.55499268    1.13000000    2.73000002
   15.70777798  122.47899628    1.05999994    2.73000002
   15.71111107  127.18800354    1.05999994    2.73000002
   15.71416664  116.39199829    1.30999994    2.73000002
   15.71749973  125.99700165    1.07000005    2.73000002
   15.72055531  128.07299805    1.07000005    2.73000002
   15.72388840  126.54000092    0.67000002    2.73000002
   15.72722149  130.80200195    0.76999998    2.73000002
   15.73305511  130.80200195    0.80000001    2.73000002
   15.73722267  130.84700012    0.76999998    2.75000000
   15.74055576  129.16600037    0.86000001    2.73000002
   15.74388885  126.07800293    1.03999996    2.73000002
   15.74694443  125.44000244    1.11000001    2.73000002
   15.75027752  129.15299988    1.14999998    2.73000002
   15.75333309  120.99099731    1.16999996    2.73000002
   15.75666714  128.25799561    0.98000002    2.71000004
   15.76000023  125.72499847    1.09000003    2.73000002
   15.76305580  126.48699951    1.09000003    2.73000002
   15.76638889  130.09399414    1.23000002    2.73000002
   15.76972198  125.42800140    1.03999996    2.73000002
   15.77027798  115.29900360    1.03999996    2.73000002
   15.77611065  115.29900360    0.98000002    2.73000002
   15.78027725  119.80999756    0.95999998    2.73000002
   15.78333378  122.78700256    0.95999998    2.73000002
   15.78666687  126.02100372    0.98000002    2.73000002
   15.79000092  114.09500122    0.86000001    2.73000002
   15.79305553  124.60199738    0.58999997    2.73000002
   15.79638958  125.56800079    0.56999999    2.73000002
   15.79972267  122.29199982    1.00000000    2.73000002
   15.80277824  128.04299927    0.89999998    2.73000002
   15.80361176  122.16600037    0.89999998    2.73000002
   15.80638885  119.06500244    0.75000000    2.75000000
   15.80972195  129.65499878    0.75000000    2.73000002
   15.81305599  128.18400574    0.76999998    2.75000000
   15.81888866  128.18400574    0.70999998    2.73000002
   15.82305527  118.44200134    0.79000002    2.73000002
   15.82611084  125.52600098    0.89999998    2.73000002
   15.82944393  130.51499939    1.36000001    2.73000002
   15.83277798  130.37699890    1.23000002    2.71000004
   15.83583260  112.90100098    1.21000004    2.73000002
   15.83694458  123.81500244    1.21000004    2.73000002
   15.83944416  124.56900024    1.26999998    2.73000002
   15.84277725  117.65000153    1.33000004    2.73000002
   15.84611034  115.96299744    1.26999998    2.73000002
   15.84916592  126.82599640    1.34000003    2.73000002
   15.85249996  127.70300293    1.19000006    2.73000002
   15.85583401  125.42500305    1.16999996    2.73000002
   15.86166668  125.42500305    0.95999998    2.71000004
   15.86583328  127.88099670    0.83999997    2.73000002
   15.86916637  125.45200348    0.83999997    2.73000002
   15.87027836  132.91099548    0.76999998    2.73000002
   15.87277794  128.08599854    0.79000002    2.73000002
   15.87583351  125.73500061    0.75000000    2.73000002
   15.87916660  131.56500244    0.80000001    2.73000002
   15.88249969  130.72999573    0.79000002    2.73000002
   15.88555527  104.93299866    0.75000000    2.73000002
   15.88888836  128.27699280    0.70999998    2.73000002
   15.89222240  130.39900208    0.67000002    2.73000002
   15.89555550  131.69099426    0.75000000    2.73000002
   15.89861107  129.10800171    0.75000000    2.73000002
   15.90444374  129.10800171    0.98000002    2.73000002
   15.90861034  116.09899902    1.03999996    2.73000002
   15.91194439  120.65499878    1.00000000    2.73000002
   15.91527748  126.79000092    1.05999994    2.73000002
   15.91833401  122.83200073    0.95999998    2.73000002
   15.92166710  123.37599945    1.00000000    2.75000000
   15.92472267  131.30499268    1.00000000    2.75000000
   15.92805576  125.24600220    1.14999998    2.73000002
   15.93138885  121.32900238    1.14999998    2.73000002
   15.93444443  122.70099640    1.13000000    2.73000002
   15.93694496  120.50599670    1.34000003    2.73000002
   15.93805599  130.39599609    1.34000003    2.73000002
   15.94138908  123.33999634    1.19000006    2.75000000
   15.94750023  123.33999634    0.92000002    2.75000000
   15.95166683  127.90699768    1.01999998    2.73000002
   15.95472240  124.31300354    1.38000000    2.73000002
   15.95805550  126.49500275    1.48000002    2.73000002
   15.96111107  122.63899994    1.48000002    2.73000002
   15.96444416  125.66899872    0.98000002    2.73000002
   15.96777725  119.37899780    0.95999998    2.75000000
   15.97027779  123.57099915    1.51999998    2.73000002
   15.97111034  122.80400085    1.51999998    2.73000002
   15.97444439  120.72100067    0.88000000    2.75000000
   15.97777748  119.67299652    0.94000000    2.73000002
   15.98083305  126.33499908    0.92000002    2.73000002
   15.98416710  124.33200073    0.81999999    2.73000002
   15.99027824  124.33200073    0.95999998    2.75000000
   15.99444485  122.03700256    0.88000000    2.75000000
   15.99750042  122.07199860    0.86000001    2.73000002
   16.00083351  120.29599762    1.00000000    2.73000002
   16.00361061  121.42400360    1.03999996    2.75000000
   16.00444412  111.81700134    0.80000001    2.75000000
   16.00777817  124.82599640    0.70999998    2.73000002
   16.01111031  116.40799713    0.70999998    2.73000002
   16.01416588  123.24900055    0.64999998    2.75000000
   16.01749992  116.31400299    0.47999999    2.75000000
   16.02083397  109.74299622    0.47999999    2.75000000
   16.02388954  127.54900360    0.47999999    2.73000002
   16.02722168  122.08200073    0.50000000    2.73000002
   16.03305435  122.08200073    0.55000001    2.75000000
   16.03722191  110.37400055    0.58999997    2.73000002
   16.04055595  126.70200348    0.70999998    2.75000000
   16.04361153  123.92500305    0.75000000    2.73000002
   16.04694366  125.48200226    0.76999998    2.73000002
   16.05027771  110.26899719    0.75000000    2.73000002
   16.05333328  126.88800049    0.75000000    2.73000002
   16.05666542  121.04100037    0.75000000    2.73000002
   16.05999947  124.31300354    0.83999997    2.73000002
   16.06305504  119.80400085    0.86000001    2.73000002
   16.06638718  122.92600250    1.03999996    2.73000002
   16.06944466  123.39900208    1.23000002    2.73000002
   16.07027817  118.46399689    1.23000002    2.73000002
   16.07583427  118.46399689    1.28999996    2.73000002
   16.08000183  127.30799866    1.28999996    2.73000002
   16.08333397  123.58999634    1.28999996    2.73000002
   16.08666801  126.25499725    1.48000002    2.73000002
   16.08972359  124.81500244    1.13000000    2.73000002
   16.09305573  129.74699402    1.21000004    2.73000002
   16.09611130  120.80899811    1.11000001    2.73000002
   16.09944534  122.48500061    1.11000001    2.73000002
   16.10277748  124.73500061    0.88000000    2.75000000
   16.10361099  126.41999817    1.30999994    2.73000002
   16.10639000  122.14800262    1.30999994    2.73000002
   16.10944557  113.16300201    0.94000000    2.75000000
   16.11277771  120.92700195    1.23000002    2.75000000
   16.11888885  120.92700195    1.00000000    2.73000002
   16.12305641  119.69499969    1.14999998    2.73000002
   16.12611198  122.85900116    1.01999998    2.73000002
   16.12944412  115.51599884    1.01999998    2.75000000
   16.13249969  120.49400330    1.01999998    2.75000000
   16.13583374  123.07399750    1.00000000    2.73000002
   16.13694382  123.66200256    1.00000000    2.73000002
   16.13916588  116.07399750    1.01999998    2.73000002
   16.14249992  119.41200256    1.11000001    2.75000000
   16.14583397  123.76100159    1.30999994    2.73000002
   16.14888954  114.79699707    1.21000004    2.75000000
   16.15222168  120.15299988    1.16999996    2.75000000
   16.15555573  106.48999786    1.16999996    2.75000000
   16.16166687  106.48999786    1.33000004    2.73000002
   16.16583252  122.00800323    1.01999998    2.73000002
   16.16888809  109.72399902    1.28999996    2.73000002
   16.17027664  118.83300018    1.28999996    2.73000002
   16.17277718  118.65799713    1.00000000    2.73000002
   16.17583275  100.59600067    1.01999998    2.73000002
   16.17916679  103.10700226    1.11000001    2.73000002
   16.18222237  117.67600250    1.09000003    2.75000000
   16.18555450  113.12200165    1.09000003    2.75000000
   16.18888855  108.77600098    0.95999998    2.73000002
   16.19194412  119.85199738    0.98000002    2.73000002
   16.19527626  114.60900116    2.84999990    2.71000004
   16.19861031  117.84999847    3.59999990    2.71000004
   16.20444489  117.84999847    3.93000007    2.71000004
   16.20861244  121.36299896    3.64000010    2.71000004
   16.21194458  117.61000061    3.70000005    2.71000004
   16.21500015  122.94799805    3.11999989    2.71000004
   16.21833420  123.20099640    2.57999992    2.71000004
   16.22166634  122.30699921    2.57999992    2.73000002
   16.22472191  120.19999695    2.26999998    2.73000002
   16.22805595  121.15000153    2.07999992    2.73000002
   16.23111153  117.44899750    1.86000001    2.73000002
   16.23444557  120.39600372    1.86000001    2.73000002
   16.23694420  115.20899963    2.71000004    2.71000004
   16.23805618  112.47899628    2.82999992    2.71000004
   16.24111176  119.46099854    3.72000003    2.71000004
   16.24722290  119.46099854    3.21000004    2.71000004
   16.25138855  119.64399719    3.32999992    2.71000004
   16.25472260  123.01599884    3.26999998    2.71000004
   16.25805473  123.82099915    3.18000007    2.71000004
   16.26111031  122.80599976    2.61999989    2.73000002
   16.26444435  122.58399963    2.89000010    2.73000002
   16.26749992  118.96199799    3.53999996    2.71000004
   16.27027702  121.35600281    3.25000000    2.73000002
   16.27138901  121.30500031    3.25000000    2.71000004
   16.27444458  122.71900177    3.09999990    2.73000002
   16.27777672  117.71099854    3.14000010    2.73000002
   16.28083229  123.76599884    2.42000008    2.73000002
   16.28416634  114.13700104    1.83000004    2.73000002
   16.29027748  114.13700104    1.88000000    2.73000002
   16.29444313  110.51300049    1.39999998    2.73000002
   16.29749870  118.87599945    1.75000000    2.73000002
   16.30083275  107.29799652    1.98000002    2.73000002
   16.30360985  124.05300140    2.21000004    2.73000002
   16.30444336  120.73100281    2.21000004    2.73000002
   16.30749893  119.38500214    2.40000010    2.73000002
   16.31083298  119.54699707    2.42000008    2.73000002
   16.31416512  101.42600250    2.11999989    2.75000000
   16.31722260  118.44799805    2.28999996    2.73000002
   16.32055664  126.65899658    2.26999998    2.73000002
   16.32389069  119.86000061    2.48000002    2.71000004
   16.32694626  125.74800110    2.67000008    2.71000004
   16.33305550  125.74800110    2.96000004    2.73000002
   16.33722305  122.68699646    3.30999994    2.71000004
   16.34027863  118.71099854    3.36999989    2.73000002
   16.34361267  114.43000031    2.91000009    2.73000002
   16.34694481  120.66699982    2.67000008    2.73000002
   16.35000038  108.30400085    2.55999994    2.71000004
   16.35333443  116.73400116    1.89999998    2.73000002
   16.35666656  117.36299896    1.36000001    2.73000002
   16.35972214  117.61900330    1.41999996    2.73000002
   16.36305618  105.68499756    1.75000000    2.73000002
   16.36611176  119.20700073    1.73000002    2.73000002
   16.36944389  117.56199646    1.83000004    2.73000002
   16.37027740  120.88400269    1.75000000    2.73000002
   16.39083290  120.88400269    2.59999990    2.71000004
   16.39500046  111.57800293    1.91999996    2.73000002
   16.39833260  101.87899780    1.89999998    2.73000002
   16.40138817  117.30000305    1.86000001    2.73000002
   16.40361023  108.83499908    1.66999996    2.73000002
   16.40527725  117.27300262    1.66999996    2.73000002
   16.40861130  117.18699646    1.76999998    2.73000002
   16.41166687  108.92299652    1.19000006    2.75000000
   16.41499901  112.87400055    1.16999996    2.75000000
   16.41805458  124.57800293    1.28999996    2.73000002
   16.42138863  121.72899628    1.03999996    2.73000002
   16.42472076  123.84200287    0.95999998    2.75000000
   16.42777634  125.36399841    1.00000000    2.73000002
   16.43361092  125.36399841    1.46000004    2.73000002
   16.43777657  106.96600342    1.33000004    2.73000002
   16.44111061  110.35399628    1.33000004    2.73000002
   16.44416618  108.46299744    1.44000006    2.73000002
   16.44749832  107.02400208    1.66999996    2.73000002
   16.45083427  116.13200378    1.75000000    2.73000002
   16.45388985  116.19300079    1.76999998    2.73000002
   16.45722389  108.32599640    1.50000000    2.73000002
   16.46027946  120.96700287    1.38000000    2.75000000
   16.46361160  118.59400177    1.38000000    2.75000000
   16.46694565  110.55300140    1.33000004    2.75000000
   16.47000122  118.98999786    1.39999998    2.73000002
   16.47055626  115.05899811    1.39999998    2.73000002
   16.47638893  115.05899811    2.39000010    2.73000002
   16.48055649  121.92800140    2.59999990    2.73000002
   16.48388863  118.35299683    2.75000000    2.73000002
   16.48722267  119.53199768    2.80999994    2.73000002
   16.49027824  121.67400360    2.78999996    2.73000002
   16.49361229  115.12799835    2.48000002    2.73000002
   16.49694443  114.96399689    3.30999994    2.71000004
   16.50000000  113.85299683    3.61999989    2.71000004
   16.50333405  114.26699829    4.05999994    2.71000004
   16.50388908  117.12400055    4.03999996    2.71000004
   16.50694466  107.34600067    2.96000004    2.71000004
   16.51000023  116.26100159    2.50000000    2.71000004
   16.51333427  112.71900177    2.67000008    2.71000004
   16.51944351  112.71900177    2.67000008    2.73000002
   16.52361107  115.83899689    2.80999994    2.71000004
   16.52666664  118.70500183    2.73000002    2.73000002
   16.53000069  107.86499786    3.21000004    2.71000004
   16.53333282  119.29299927    3.09999990    2.71000004
   16.53638840  117.71199799    3.23000002    2.73000002
   16.53722191  119.63700104    3.07999992    2.71000004
   16.53999901  119.76799774    2.50000000    2.71000004
   16.54305458  110.86699677    2.89000010    2.73000002
   16.54638863  113.30500031    2.32999992    2.73000002
   16.54972076  120.54199982    2.89000010    2.73000002
   16.55277634  112.01599884    3.18000007    2.73000002
   16.55611038  124.89399719    2.73000002    2.71000004
   16.56222153  124.89399719    1.75000000    2.73000002
   16.56638718  111.82599640    1.85000002    2.73000002
   16.56944466  114.95800018    1.64999998    2.73000002
   16.57055664  104.95800018    1.64999998    2.71000004
   16.57333374  116.31500244    1.61000001    2.73000002
   16.57638931  118.29599762    2.82999992    2.73000002
   16.57972336  120.22599792    2.32999992    2.75000000
   16.58305550  111.89600372    1.51999998    2.75000000
   16.58611107  117.40699768    2.01999998    2.73000002
   16.58944511  117.15699768    2.46000004    2.75000000
   16.59277916  117.93000031    2.67000008    2.73000002
   16.59583473  117.22699738    2.03999996    2.73000002
   16.59916687  117.26000214    1.58000004    2.73000002
   16.60499954  117.26000214    1.51999998    2.73000002
   16.60916710  119.62599945    1.61000001    2.73000002
   16.61250114  119.03299713    1.71000004    2.73000002
   16.61555672  112.25800323    1.71000004    2.75000000
   16.61888885  120.16500092    1.71000004    2.73000002
   16.62222290  115.89800262    2.32999992    2.73000002
   16.62527847  117.33000183    2.50000000    2.73000002
   16.62888908  121.05000305    3.41000009    2.71000004
   16.63222313  115.43099976    3.95000005    2.71000004
   16.63527679  121.43199921    4.51000023    2.71000004
   16.63722229  120.47499847    4.65999985    2.71000004
   16.63888931  122.21600342    4.32999992    2.71000004
   16.64194489  120.02999878    4.15999985    2.71000004
   16.64777756  120.02999878    4.90999985    2.69000006
   16.65194321  119.22699738    4.90999985    2.67000008
   16.65527725  120.72799683    4.90999985    2.66000009
   16.65861130  124.11199951    4.90999985    2.67000008
   16.66166687  123.90399933    4.90999985    2.67000008
   16.66499901  123.55000305    4.90999985    2.67000008
   16.66805458  122.37699890    4.90999985    2.69000006
   16.67055511   96.89450073    4.69999981    2.71000004
   16.67194366  116.98300171    4.76000023    2.69000006
   16.67499924  106.51300049    4.90999985    2.67000008
   16.67833328  102.96800232    4.90999985    2.69000006
   16.68166542  115.80999756    4.90999985    2.69000006
   16.68472099  118.95400238    4.40999985    2.71000004
   16.69083214  118.95400238    4.48999977    2.71000004
   16.69499969  102.90599823    3.28999996    2.73000002
   16.69805527  114.84600067    3.84999990    2.71000004
   16.70138931  105.57299805    4.03999996    2.71000004
   16.70388985   94.83059692    4.01999998    2.71000004
   16.70499992  101.87599945    3.93000007    2.71000004
   16.70805550  109.32800293    3.84999990    2.71000004
   16.71138954  107.39800262    4.17999983    2.71000004
   16.71472359  110.29499817    4.63999987    2.71000004
   16.71777916  120.50700378    4.90999985    2.67000008
   16.72111130  123.05400085    4.90999985    2.67000008
   16.72444534  125.23300171    4.90999985    2.64000010
   16.72750092  122.05000305    4.90999985    2.66000009
   16.73361206  122.05000305    4.90999985    2.67000008
   16.73777771  123.91500092    4.90999985    2.66000009
   16.74083328  121.73899841    4.90999985    2.66000009
   16.74416733  118.73600006    4.90999985    2.66000009
   16.74749947  122.35299683    4.90999985    2.66000009
   16.75055504  117.04699707    4.90999985    2.69000006
   16.75388908  121.75499725    4.90999985    2.69000006
   16.75722313  121.46399689    4.90999985    2.69000006
   16.76027870  120.82499695    4.90999985    2.69000006
   16.76361084  121.68699646    4.90999985    2.69000006
   16.76666641  120.45400238    4.90999985    2.67000008
   16.77000046  121.78299713    4.90999985    2.61999989
   16.77055550  127.31300354    4.90999985    2.61999989
   16.77638817  127.31300354    4.90999985    2.67000008
   16.78055573  108.05100250    4.90999985    2.67000008
   16.78388786  113.32399750    4.90999985    2.69000006
   16.78694344  114.68900299    4.90999985    2.69000006
   16.79027748  112.57399750    4.90999985    2.69000006
   16.79361153  117.98899841    4.90999985    2.66000009
   16.79666710  128.84100342    4.90999985    2.64000010
   16.79999924  117.89299774    4.90999985    2.67000008
   16.80305481  123.81400299    4.90999985    2.69000006
   16.80388832  122.97299957    4.90999985    2.67000008
   16.80666542  118.42500305    4.90999985    2.69000006
   16.80999947  118.36499786    4.00000000    2.71000004
   16.81305504  116.09600067    4.76000023    2.71000004
   16.81916809  116.09600067    4.90999985    2.69000006
   16.82333374  123.09899902    4.90999985    2.67000008
   16.82666779  122.95999908    4.90999985    2.67000008
   16.82972336  126.49500275    4.90999985    2.67000008
   16.83305550  122.26200104    4.90999985    2.66000009
   16.83638954  115.20700073    4.90999985    2.67000008
   16.83722305  127.86100006    4.90999985    2.69000006
   16.84000015  115.01699829    4.90999985    2.66000009
   16.84305573  111.04100037    4.90999985    2.66000009
   16.84638977  120.84799957    4.90999985    2.66000009
   16.84972191  115.82399750    4.90999985    2.64000010
   16.85277748  106.39700317    4.90999985    2.61999989
   16.85611153  118.01699829    4.90999985    2.64000010
   16.86222267  118.01699829    4.90999985    2.64000010
   16.86611176  125.43099976    4.90999985    2.61999989
   16.86944389  130.35299683    4.90999985    2.66000009
   16.87055588  124.08100128    4.90999985    2.67000008
   16.87305641  125.92299652    4.90999985    2.71000004
   16.87611198  106.28700256    4.90999985    2.71000004
   16.87944412  120.13500214    4.90999985    2.69000006
   16.88277817  128.94099426    4.90999985    2.66000009
   16.88583374  122.26899719    4.90999985    2.67000008
   16.88916588  119.05500031    4.21999979    2.71000004
   16.89249992  127.90100098    4.57999992    2.73000002
   16.89555550  118.88600159    4.90999985    2.69000006
   16.89888954  117.81900024    4.90999985    2.69000006
   16.90499878  117.81900024    4.05999994    2.71000004
   16.90916634  125.71099854    4.86999989    2.71000004
   16.91222191  123.74900055    4.90999985    2.69000006
   16.91555595  115.82399750    4.44999981    2.71000004
   16.91888809  121.31199646    4.19999981    2.71000004
   16.92194366  118.31099701    4.69999981    2.71000004
   16.92527771  116.87999725    3.39000010    2.71000004
   16.92860985  111.64299774    3.41000009    2.73000002
   16.93166542  115.49800110    2.91000009    2.73000002
   16.93499947  111.25299835    2.00000000    2.73000002
   16.93722153  107.06500244    1.48000002    2.73000002
   16.93861008  104.08300018    1.33000004    2.73000002
   16.94194412  124.01200104    1.33000004    2.73000002
   16.94777679  124.01200104    4.80000019    2.69000006
   16.95194435  119.60299683    4.59999990    2.71000004
   16.95527840  124.79199982    4.26000023    2.71000004
   16.95833397  124.39399719    4.84999990    2.69000006
   16.96166801  107.81900024    4.90999985    2.71000004
   16.96500015  117.29399872    4.34999990    2.71000004
   16.96805573  111.63999939    4.01999998    2.71000004
   16.97055626  109.05799866    3.48000002    2.71000004
   16.97166634  124.56400299    3.61999989    2.71000004
   16.97500038  114.58499908    3.86999989    2.71000004
   16.97805595   98.82080078    4.88999987    2.71000004
   16.98139000  124.33100128    4.86999989    2.69000006
   16.98444557  116.08999634    4.84999990    2.71000004
   16.99055672  116.08999634    3.51999998    2.71000004
   16.99472237  124.72599792    3.86999989    2.71000004
   16.99805641  121.78399658    3.80999994    2.71000004
   17.00138855  123.83100128    3.59999990    2.71000004
   17.00388908  127.37200165    4.90999985    2.69000006
   17.00499916  122.05000305    3.86999989    2.71000004
   17.00833321  125.17199707    4.90999985    2.69000006
   17.01138878  130.33500671    4.90999985    2.69000006
   17.01472282  128.65899658    4.84999990    2.71000004
   17.01777840  109.55799866    4.51000023    2.71000004
   17.02111053  111.37000275    3.16000009    2.73000002
   17.02444458  103.81099701    3.03999996    2.73000002
   17.02750015  123.23999786    4.90999985    2.69000006
   17.03361130  123.23999786    4.07999992    2.71000004
   17.03777695  115.45700073    3.93000007    2.71000004
   17.04083252  117.89099884    2.91000009    2.73000002
   17.04416656  115.72100067    2.19000006    2.73000002
   17.04722214  102.70200348    3.25000000    2.71000004
   17.05055428  109.39700317    3.68000007    2.71000004
   17.05388832  103.23100281    3.30999994    2.71000004
   17.05694389  118.99700165    2.80999994    2.73000002
   17.06027794  114.92600250    2.39000010    2.73000002
   17.06361008  122.45600128    3.23000002    2.71000004
   17.06666756  122.86100006    3.07999992    2.71000004
   17.07000160  121.56600189    3.23000002    2.71000004
   17.07055664  117.05100250    3.41000009    2.71000004
   17.07638931  117.05100250    4.15999985    2.71000004
   17.08055687  123.85500336    4.80999994    2.69000006
   17.08361244  129.84800720    4.82999992    2.69000006
   17.08694458  112.39399719    4.36999989    2.71000004
   17.09027863  121.50499725    4.40999985    2.71000004
   17.09361267  106.09300232    3.82999992    2.71000004
   17.09666824  121.33100128    2.80999994    2.73000002
   17.10000038  121.55799866    1.86000001    2.73000002
   17.10305595  112.16500092    1.69000006    2.73000002
   17.10388947  120.97799683    1.66999996    2.73000002
   17.10666656  113.25599670    1.64999998    2.73000002
   17.11000061  113.12200165    1.71000004    2.71000004
   17.11305618  124.52700043    2.32999992    2.71000004
   17.11916733  124.52700043    2.84999990    2.73000002
   17.12333298  120.35399628    3.30999994    2.73000002
   17.12666702  102.13999939    2.64000010    2.73000002
   17.12972260  119.72200012    2.94000006    2.71000004
   17.13305473  116.38200378    2.36999989    2.73000002
   17.13611031  110.66699982    1.58000004    2.73000002
   17.13722229  117.29799652    1.66999996    2.75000000
   17.13972282  121.13400269    1.85000002    2.73000002
   17.14305496  114.05500031    1.78999996    2.73000002
   17.14611053  122.34100342    1.64999998    2.73000002
   17.14944458  124.33599854    1.55999994    2.73000002
   17.15250015  121.66899872    2.05999994    2.73000002
   17.15583229  123.02899933    2.07999992    2.69000006
   17.16194344  123.02899933    0.09000000    0.47999999
   17.16611099  119.04000092    0.05000000    0.20999999
   17.16944313  118.92400360    0.05000000    0.07000000
   17.17055511  126.04399872    0.05000000    0.07000000
   17.17305565  124.16500092    0.05000000    0.07000000
   17.17638779  122.17099762    0.05000000    0.07000000
   17.17972183  123.76300049    0.05000000    0.07000000
   17.18277740  126.73100281    0.05000000    0.07000000
   17.18610954  121.90299988    0.05000000    0.07000000
   17.18916512  119.65599823    0.05000000    0.07000000
   17.19249916  121.25700378    0.05000000    0.07000000
   17.19583321  121.49600220    0.05000000    0.07000000
   17.19888878  120.52700043    0.05000000    0.07000000
   17.20499992  120.52700043    0.05000000    0.07000000
   17.20888901  119.70200348    0.05000000    0.07000000
   17.21222305  123.13200378    0.05000000    0.07000000
   17.21555710  118.84500122    0.05000000    0.07000000
   17.21861076  127.75199890    0.05000000    0.07000000
   17.22194481  124.71199799    0.05000000    0.07000000
   17.22527885  127.63600159    0.05000000    0.07000000
   17.22833443  123.25299835    0.05000000    0.07000000
   17.23166656  126.68099976    0.05000000    0.07000000
   17.23500061  115.52899933    0.05000000    0.07000000
   17.23722267  123.17099762    0.05000000    0.07000000
   17.23833275  117.97399902    0.05000000    0.07000000
   17.24166679  120.37699890    0.05000000    0.07000000
   17.24777794  120.37699890    0.05000000    0.07000000
   17.25194359  119.12000275    0.05000000    0.07000000
   17.25499916  117.65599823    0.05000000    0.07000000
   17.25833321  126.47899628    0.05000000    0.07000000
   17.26166725  119.80300140    0.05000000    0.07000000
   17.26472282  118.85600281    0.05000000    0.07000000
   17.26805496  121.48600006    0.05000000    0.07000000
   17.27055550  125.86699677    0.05000000    0.07000000
   17.27166557  119.99199677    0.05000000    0.07000000
   17.27499962  123.44200134    0.05000000    0.07000000
   17.27805519  120.46600342    0.05000000    0.07000000
   17.28138924  119.80899811    0.05000000    0.07000000
   17.28444481  119.09100342    0.05000000    0.07000000
   17.29055595  119.09100342    0.05000000    0.07000000
   17.29472160  117.06500244    0.05000000    0.07000000
   17.29805565  118.52200317    0.05000000    0.07000000
   17.30111122  122.34400177    0.05000000    0.07000000
   17.30388832  115.10099792    0.05000000    0.07000000
   17.30472183  123.38099670    0.05000000    0.07000000
   17.30805397  120.62500000    0.05000000    0.07000000
   17.31110954  125.31999969    0.05000000    0.07000000
   17.31444359  118.10399628    0.05000000    0.07000000
   17.31750107  119.35600281    0.05000000    0.07000000
   17.32083511  123.12799835    0.05000000    0.07000000
   17.32416725  117.16999817    0.05000000    0.07000000
   17.32722282  117.77100372    0.05000000    0.07000000
   17.33333397  117.77100372    0.05000000    0.07000000
   17.33750153  124.76799774    0.05000000    0.07000000
   17.34083366  126.32599640    0.05000000    0.07000000
   17.34388924  115.80000305    0.05000000    0.07000000
   17.34722328  108.78199768    0.05000000    0.07000000
   17.35055542  113.85299683    0.05000000    0.07000000
   17.35361099  120.11900330    0.05000000    0.07000000
