    HOUR (UT)   FLARE FACTOR    SKY TESTER    SUN TESTER
   12.66666698   -1.00000000   -1.00000000   -1.00000000
   12.71000004  236.51499939    0.00000000    0.00000000
   12.71333313  216.95799255    0.00000000    0.00000000
   12.71666622  280.39001465    0.00000000    0.00000000
   12.71972179  219.13099670    0.00000000    0.00000000
   12.72305489  241.46299744    0.00000000    0.00000000
   12.72638798  260.20001221    0.11000000    0.19000000
   12.73027706  260.20001221    0.11000000    0.19000000
   12.73444462  220.48599243    0.11000000    0.19000000
   12.73777771  230.55900574    0.11000000    0.19000000
   12.74111176  297.27899170    0.11000000    0.19000000
   12.74333382  240.47200012    0.11000000    0.19000000
   12.74472237  264.82800293    0.11000000    0.19000000
   12.74805546  238.33299255    0.11000000    0.19000000
   12.75111103  212.02600098    0.11000000    0.19000000
   12.75444412  208.86999512    0.11000000    0.19000000
   12.75777817  245.29200745    0.11000000    0.19000000
   12.76083374  255.19500732    0.11000000    0.19000000
   12.76416683  226.19400024    0.11000000    0.19000000
   12.76722240  225.35299683    0.11000000    0.19000000
   12.77333355  225.35299683    0.11000000    0.19000000
   12.77750015  232.38499451    0.11000000    0.19000000
   12.78055573  247.09800720    0.11000000    0.19000000
   12.78388977  235.94500732    0.11000000    0.19000000
   12.78694534  232.97599792    0.11000000    0.19000000
   12.79027843  213.44799805    0.11000000    0.19000000
   12.79361153  227.14399719    0.11000000    0.19000000
   12.79666710  231.44599915    0.11000000    0.19000000
   12.80000019  218.47200012    0.11000000    0.19000000
   12.80333328  215.45599365    0.11000000    0.19000000
   12.80638885  200.77799988    0.11000000    0.19000000
   12.80972195  225.44999695    0.11000000    0.19000000
   12.81000042  217.16099548    0.11000000    0.19000000
   12.81611156  217.16099548    0.11000000    0.19000000
   12.82027817  230.38200378    0.11000000    0.19000000
   12.82333374  225.80499268    0.11000000    0.19000000
   12.82666683  231.33799744    0.11000000    0.19000000
   12.82999992  220.22200012    0.11000000    0.19000000
   12.83305550  238.89999390    0.11000000    0.19000000
   12.83638859  232.24200439    0.11000000    0.19000000
   12.83972168  234.80299377    0.11000000    0.19000000
   12.84277725  251.72999573    0.11000000    0.19000000
   12.84361076  244.29499817    0.11000000    0.19000000
   12.84638882  252.11799622    0.11000000    0.19000000
   12.84972191  263.77700806    0.11000000    0.19000000
   12.85277843  272.78201294    0.11000000    0.19000000
   12.85888958  272.78201294    0.11000000    0.19000000
   12.86305618  274.62899780    0.11000000    0.19000000
   12.86638927  269.88101196    0.11000000    0.19000000
   12.86944485  263.75500488    0.11000000    0.19000000
   12.87277794  235.48300171    0.11000000    0.19000000
   12.87638855  257.91699219    0.11000000    0.19000000
   12.87666702  242.66499329    0.11000000    0.19000000
   12.87972260  225.90600586    0.11000000    0.19000000
   12.88333321  224.26100159    0.11000000    0.19000000
   12.88666630  225.79200745    0.11000000    0.19000000
   12.88972187  207.82400513    0.11000000    0.19000000
   12.89305496  201.94599915    0.11000000    0.19000000
   12.89611053  225.36700439    0.11000000    0.19000000
   12.90166664  225.36700439    0.11000000    0.19000000
   12.90583324  216.59399414    0.11000000    0.19000000
   12.90916634  199.54899597    0.11000000    0.19000000
   12.91027737  218.50799561    0.11000000    0.19000000
   12.91249943  198.20199585    0.11000000    0.19000000
   12.91583252  203.94799805    0.11000000    0.19000000
   12.91888905  197.86700439    0.11000000    0.19000000
   12.92222214  192.36999512    0.11000000    0.19000000
   12.92555618  185.00100708    0.11000000    0.19000000
   12.92861176  193.49800110    0.11000000    0.19000000
   12.93194485  191.35200500    0.11000000    0.19000000
   12.93527794  196.05700684    0.11000000    0.19000000
   12.93833351  180.03199768    0.11000000    0.19000000
   12.94472218  180.03199768    0.11000000    0.19000000
   12.94861126  193.47599792    0.11000000    0.19000000
   12.95194435  190.64799500    0.11000000    0.19000000
   12.95527744  177.00900269    0.11000000    0.19000000
   12.95861053  193.76400757    0.11000000    0.19000000
   12.96166611  192.61199951    0.11000000    0.19000000
   12.96500015  206.90699768    0.11000000    0.19000000
   12.96833324  203.34800720    0.11000000    0.19000000
   12.97138882  186.70899963    0.11000000    0.19000000
   12.97472191  195.39599609    0.11000000    0.19000000
   12.97694397  196.86700439    0.11000000    0.19000000
   12.97805500  179.12199402    0.11000000    0.19000000
   12.98138809  192.92700195    0.11000000    0.19000000
   12.98750019  192.92700195    0.11000000    0.19000000
   12.99166679  205.84599304    0.11000000    0.19000000
   12.99472237  190.95500183    0.11000000    0.19000000
   12.99805546  192.68099976    0.11000000    0.19000000
   13.00138855  202.24699402    0.11000000    0.19000000
   13.00444412  185.51499939    0.11000000    0.19000000
   13.00777817  200.03399658    0.11000000    0.19000000
   13.01027775  195.17100525    0.11000000    0.19000000
   13.01138878  193.23599243    0.11000000    0.19000000
   13.01472187  189.26199341    0.11000000    0.19000000
   13.01805496  206.04499817    0.11000000    0.19000000
   13.02111053  200.87500000    0.11000000    0.19000000
   13.02444458  186.50300598    0.11000000    0.19000000
   13.03027725  186.50300598    0.11000000    0.19000000
   13.03444481  196.53100586    0.11000000    0.19000000
   13.03777790  202.50000000    0.11000000    0.19000000
   13.04083347  194.62500000    0.11000000    0.19000000
   13.04361153  196.69500732    0.11000000    0.19000000
   13.04444504  190.36099243    0.11000000    0.19000000
   13.04777813  191.51800537    0.11000000    0.19000000
   13.05083370  191.25199890    0.11000000    0.19000000
   13.05416679  194.46299744    0.11000000    0.19000000
   13.05749989  204.51699829    0.11000000    0.19000000
   13.06055546  207.87899780    0.11000000    0.19000000
   13.06388950  196.44500732    0.11000000    0.19000000
   13.06722260  187.61599731    0.11000000    0.19000000
   13.07305527  187.61599731    0.11000000    0.19000000
   13.07722187  192.29600525    0.11000000    0.19000000
   13.08055592  194.07800293    0.11000000    0.19000000
   13.08361053  195.40199280    0.11000000    0.19000000
   13.08694458  198.10099792    0.11000000    0.19000000
   13.09027767  187.02699280    0.11000000    0.19000000
   13.09333324  194.84599304    0.11000000    0.19000000
   13.09666634  220.12100220    0.11000000    0.19000000
   13.10000038  197.38600159    0.11000000    0.19000000
   13.10305595  190.37699890    0.11000000    0.19000000
   13.10638905  207.83299255    0.11000000    0.19000000
   13.10944462  187.20799255    0.11000000    0.19000000
   13.11027813  178.30999756    0.11000000    0.19000000
   13.11611176  178.30999756    0.11000000    0.19000000
   13.12027836  192.04400635    0.11000000    0.19000000
   13.12333393  190.58999634    0.11000000    0.19000000
   13.12666702  187.92900085    0.11000000    0.19000000
   13.12972260  189.80499268    0.11000000    0.19000000
   13.13305569  183.64799500    0.11000000    0.19000000
   13.13638878  174.07600403    0.11000000    0.19000000
   13.13944435  195.53599548    0.11000000    0.19000000
   13.14277744  182.42399597    0.11000000    0.19000000
   13.14361095  178.26499939    0.11000000    0.19000000
   13.14611053  180.35899353    0.11000000    0.19000000
   13.14944458  191.75599670    0.11000000    0.19000000
   13.15277767  189.10499573    0.11000000    0.19000000
   13.15888882  189.10499573    0.11000000    0.19000000
   13.16305542  193.13299561    0.11000000    0.19000000
   13.16611099  179.48100281    0.11000000    0.19000000
   13.16944504  188.61900330    0.11000000    0.19000000
   13.17277813  190.11399841    0.11000000    0.19000000
   13.17583370  195.47200012    0.11000000    0.19000000
   13.17694473  197.78100586    0.11000000    0.19000000
   13.17944431  204.05499268    0.11000000    0.19000000
   13.18277836  213.85400391    0.11000000    0.19000000
   13.18611145  214.01300049    0.11000000    0.19000000
   13.18916702  215.86099243    0.11000000    0.19000000
   13.19250011  209.90800476    0.11000000    0.19000000
   13.19583321  236.45399475    0.11000000    0.19000000
   13.20222187  236.45399475    0.00000000    0.00000000
   13.20694447  198.93899536    0.00000000    0.00000000
   13.21083355  210.45100403    0.00000000    0.00000000
   13.21111107  206.85200500    0.00000000    0.00000000
   13.21500015  211.66700745    0.00000000    0.00000000
   13.21888828  214.73599243    0.00000000    0.00000000
   13.22277737  172.39399719    0.00000000    0.00000000
   13.22666645  207.31500244    0.00000000    0.00000000
   13.23055553  205.33599854    0.00000000    0.00000000
   13.23444462  182.38900757    0.00000000    0.00000000
   13.23750019  184.12100220    4.90999985    2.11999989
   13.24083328  190.47700500    4.90999985    2.11999989
   13.24499989  190.47700500    4.90999985    2.11999989
   13.24916649  190.91499329    4.90999985    2.11999989
   13.25222206  216.81100464    4.90999985    2.11999989
   13.25555515  188.37699890    4.90999985    2.11999989
   13.25861073  193.60200500    4.90999985    2.11999989
   13.26194477  193.80299377    4.90999985    2.11999989
   13.26527786  203.94099426    4.90999985    2.11999989
   13.26833344  183.47500610    4.90999985    2.11999989
   13.27166653  203.99200439    4.90999985    2.11999989
   13.27499962  216.44400024    4.90999985    2.11999989
   13.27694416  207.68600464    4.90999985    2.11999989
   13.27833271  192.82600403    4.90999985    2.11999989
   13.28166676  195.50300598    4.90999985    2.11999989
   13.28777790  195.50300598    4.90999985    2.11999989
   13.29194450  208.87100220    4.90999985    2.11999989
   13.29500008  194.50399780    4.90999985    2.11999989
   13.29833412  198.35400391    4.90999985    2.11999989
   13.30166721  218.86700439    4.90999985    2.11999989
   13.30472279  227.16299438    4.90999985    2.11999989
   13.30805588  227.71699524    4.90999985    2.11999989
   13.31027794  220.24200439    4.90999985    2.11999989
   13.31166649  223.31599426    4.90999985    2.11999989
   13.31500053  226.63900757    4.90999985    2.11999989
   13.31833363  222.20399475    4.90999985    2.11999989
   13.32138920  225.37699890    4.90999985    2.11999989
   13.32472229  223.61599731    4.90999985    2.11999989
   13.33055592  223.61599731    4.90999985    2.11999989
   13.33472157  239.27299500    4.90999985    2.11999989
   13.33805561  217.71099854    4.90999985    2.11999989
   13.34111118  216.60600281    4.90999985    2.11999989
   13.34361076  215.50399780    4.90999985    2.11999989
   13.34472179  229.50700378    4.90999985    2.11999989
   13.34805489  241.26800537    4.90999985    2.11999989
   13.35138893  210.60699463    4.90999985    2.11999989
   13.35444450  240.68499756    4.90999985    2.11999989
   13.35777855  239.45899963    4.90999985    2.11999989
   13.36083412  226.37899780    4.90999985    2.11999989
   13.36416721  221.55299377    4.90999985    2.11999989
   13.36750031  207.68800354    4.90999985    2.11999989
   13.37333393  207.68800354    4.90999985    2.11999989
   13.37750053  193.03399658    4.90999985    2.11999989
   13.38083363  202.49800110    4.90999985    2.11999989
   13.38388920  191.35699463    4.90999985    2.11999989
   13.38722229  217.28199768    4.90999985    2.11999989
   13.39055538  209.86399841    4.90999985    2.11999989
   13.39361095  200.90699768    4.90999985    2.11999989
   13.39694405  185.70500183    4.90999985    2.11999989
   13.40027714  180.39500427    4.90999985    2.11999989
   13.40333271  177.95799255    4.90999985    2.11999989
   13.40666676  176.44000244    4.90999985    2.11999989
   13.40999985  188.56599426    4.90999985    2.11999989
   13.41027737  163.24000549    4.90999985    2.11999989
   13.41638851  163.24000549    4.90999985    2.11999989
   13.42027855  177.41700745    4.90999985    2.11999989
   13.42361164  164.07299805    4.90999985    2.11999989
   13.42694473  165.60200500    4.90999985    2.11999989
   13.43000031  170.01300049    4.90999985    2.11999989
   13.43333340  176.81799316    4.90999985    2.11999989
   13.43666649  186.70399475    4.90999985    2.11999989
   13.43972206  182.72099304    4.90999985    2.11999989
   13.44305515  180.44200134    4.90999985    2.11999989
   13.44361115  173.49699402    4.90999985    2.11999989
   13.44666672  173.87600708    4.90999985    2.11999989
   13.44999981  181.78100586    4.90999985    2.11999989
   13.45305538  175.70100403    4.90999985    2.11999989
   13.45916653  175.70100403    4.90999985    2.11999989
   13.46333313  165.89399719    4.90999985    2.11999989
   13.46638870  187.41700745    4.90999985    2.11999989
   13.46972179  174.64500427    4.90999985    2.11999989
   13.47277737  180.81599426    4.90999985    2.11999989
   13.47611046  143.25599670    4.90999985    2.11999989
   13.47694397  167.96000671    4.90999985    2.11999989
   13.47972202  172.89900208    4.90999985    2.11999989
   13.48305511  172.20300293    4.90999985    2.11999989
   13.48611164  185.42799377    4.90999985    2.11999989
   13.48944473  184.16700745    4.90999985    2.11999989
   13.49250031  164.94200134    4.90999985    2.11999989
   13.49583340  170.97000122    4.90999985    2.11999989
   13.50194454  170.97000122    4.90999985    2.11999989
   13.50611115  178.22200012    4.90999985    2.11999989
   13.50944424  184.52200317    4.90999985    2.11999989
   13.51027775  162.18699646    4.90999985    2.11999989
   13.51277733  167.24800110    4.90999985    2.11999989
   13.51611137  157.90600586    4.90999985    2.11999989
   13.51916599  188.57499695    4.90999985    2.11999989
   13.52250004  188.50000000    4.90999985    2.11999989
   13.52583313  180.07000732    4.90999985    2.11999989
   13.52888870  169.51100159    4.90999985    2.11999989
   13.53222179  184.01400757    4.90999985    2.11999989
   13.53527832  182.65499878    4.90999985    2.11999989
   13.53861141  188.30999756    4.90999985    2.11999989
   13.54472256  188.30999756    4.90999985    2.11999989
   13.54888916  158.28500366    4.90999985    2.11999989
   13.55222225  165.03399658    4.90999985    2.11999989
   13.55527782  181.45399475    4.90999985    2.11999989
   13.55861092  168.51199341    4.90999985    2.11999989
   13.56194496  181.23399353    4.90999985    2.11999989
   13.56500053  205.95399475    4.90999985    2.11999989
   13.56833363  222.46499634    4.90999985    2.11999989
   13.57166672  185.29400635    4.90999985    2.11999989
   13.57472229  193.74200439    4.90999985    2.11999989
   13.57694435  217.47900391    4.90999985    2.11999989
   13.57833290  249.29299927    4.90999985    2.11999989
   13.58166695  200.15100098    4.90999985    2.11999989
   13.58777714  200.15100098    4.90999985    2.11999989
   13.59194374  166.86300659    4.90999985    2.11999989
   13.59499931  202.25199890    4.90999985    2.11999989
   13.59833336  156.52900696    4.90999985    2.11999989
   13.60138893  205.07699585    4.90999985    2.11999989
   13.60472298  179.13999939    4.90999985    2.11999989
   13.60805607  181.04499817    4.90999985    2.11999989
   13.61027813  168.69900513    4.90999985    2.11999989
   13.61166668  189.75500488    4.90999985    2.11999989
   13.61500072  179.71200562    4.90999985    2.11999989
   13.61805534  196.18800354    4.90999985    2.11999989
   13.62138939  193.98100281    4.90999985    2.11999989
   13.62472248  187.73800659    4.90999985    2.11999989
   13.63055611  187.73800659    4.90999985    2.11999989
   13.63472176  171.71600342    4.90999985    2.11999989
   13.63777733  171.05099487    4.90999985    2.11999989
   13.64111137  172.57699585    4.90999985    2.11999989
   13.64388847  166.03599548    4.90999985    2.11999989
   13.64472198  179.02400208    4.90999985    2.11999989
   13.64805508  161.05999756    4.90999985    2.11999989
   13.65111065  162.82099915    4.90999985    2.11999989
   13.65444374  166.69099426    4.90999985    2.11999989
   13.65777779  163.60499573    4.90999985    2.11999989
   13.66083336  170.48500061    4.90999985    2.11999989
   13.66416645  165.66900635    4.90999985    2.11999989
   13.66722298  168.22000122    4.90999985    2.11999989
   13.67333412  168.22000122    4.90999985    2.11999989
   13.67750072  165.87600708    4.90999985    2.11999989
   13.68083382  161.91000366    4.90999985    2.11999989
   13.68388939  167.50700378    4.90999985    2.11999989
   13.68722248  172.07800293    4.90999985    2.11999989
   13.69055557  164.07400513    4.90999985    2.11999989
   13.69361115  170.57099915    4.90999985    2.11999989
   13.69694424  159.04200745    4.90999985    2.11999989
   13.69999981  181.55000305    4.90999985    2.11999989
   13.70333290  192.38200378    4.90999985    2.11999989
   13.70666695  177.11799622    4.90999985    2.11999989
   13.70972157  170.90899658    4.90999985    2.11999989
   13.71055508  178.64700317    4.90999985    2.11999989
   13.73111057  178.64700317    4.90999985    2.11999989
   13.73527813  167.73800659    4.90999985    2.11999989
   13.73833370  175.41999817    4.90999985    2.11999989
   13.74166679  171.73300171    4.90999985    2.11999989
   13.74388885  174.84100342    4.90999985    2.11999989
   13.74527836  172.81700134    4.90999985    2.11999989
   13.74861145  175.52200317    4.90999985    2.11999989
   13.75166702  166.50100708    4.90999985    2.11999989
   13.75500011  169.04499817    4.90999985    2.11999989
   13.75833321  171.40800476    4.90999985    2.11999989
   13.76138878  174.73699951    4.90999985    2.11999989
   13.76472187  166.24000549    4.90999985    2.11999989
   13.76777744  182.28100586    4.90999985    2.11999989
   13.77388859  182.28100586    4.90999985    2.11999989
   13.77805519  171.85699463    4.90999985    2.11999989
   13.78111076  165.95199585    4.90999985    2.11999989
   13.78444481  171.38600159    4.90999985    2.11999989
   13.78777790  165.39799500    0.76999998    2.36999989
   13.79083347  174.94299316    4.90999985    2.32999992
   13.79416752  163.15299988    1.34000003    2.30999994
   13.79722309  167.93899536    1.33000004    2.28999996
   13.80055618  160.72500610    1.34000003    2.28999996
   13.80388927  160.22000122    1.34000003    2.30999994
   13.80694485  163.26499939    1.33000004    2.30999994
   13.81027794  159.08099365    1.33000004    2.32999992
   13.81083393  159.08299255    1.33000004    2.32999992
   13.81666660  159.08299255    1.30999994    2.30999994
   13.82083321  183.04100037    1.30999994    2.30999994
   13.82416630  164.18899536    1.30999994    2.30999994
   13.82722187  183.65499878    1.30999994    2.30999994
   13.83055592  164.15299988    1.30999994    2.30999994
   13.83388901  175.80200195    1.30999994    2.32999992
   13.83694458  181.55499268    1.33000004    2.30999994
   13.84027767  184.50199890    1.30999994    2.32999992
   13.84333324  166.58700562    1.33000004    2.30999994
   13.84416676  173.30700684    1.30999994    2.32999992
   13.84694386  184.77200317    1.30999994    2.32999992
   13.85027790  192.05799866    1.30999994    2.32999992
   13.85361195  204.45399475    1.33000004    2.32999992
   13.85944462  204.45399475    1.33000004    2.32999992
   13.86361122  193.50500488    1.33000004    2.32999992
   13.86694431  220.43499756    1.33000004    2.32999992
   13.86999989  209.99499512    1.33000004    2.34999990
   13.87333393  187.03599548    1.33000004    2.32999992
   13.87666702  227.05299377    1.34000003    2.34999990
   13.87750053  234.09100342    1.34000003    2.32999992
   13.88000011  225.83500671    1.34000003    2.32999992
   13.88333321  260.10800171    1.34000003    2.32999992
   13.88666630  204.77299500    1.34000003    2.34999990
   13.88972187  196.66700745    1.34000003    2.34999990
   13.89305496  251.62300110    1.34000003    2.34999990
   13.89611053  195.91499329    1.34000003    2.34999990
   13.90249920  195.91499329    1.36000001    2.34999990
   13.90666676  198.80700684    1.36000001    2.34999990
   13.90999985  216.03500366    1.36000001    2.34999990
   13.91083336  217.00999451    1.36000001    2.34999990
   13.91333294  199.47900391    1.36000001    2.34999990
   13.91666698  201.11799622    1.36000001    2.34999990
   13.92000008  204.63800049    1.36000001    2.34999990
   13.92305565  202.40100098    1.34000003    2.34999990
   13.92638874  191.30799866    1.34000003    2.34999990
   13.92972279  196.93899536    1.34000003    2.34999990
   13.93277836  198.88699341    1.34000003    2.34999990
   13.93611145  188.26699829    1.33000004    2.34999990
   13.93916702  213.79699707    1.33000004    2.34999990
   13.94527817  213.79699707    1.33000004    2.36999989
   13.94944477  210.01199341    1.30999994    2.36999989
   13.95249939  205.01800537    1.30999994    2.34999990
   13.95583344  206.78300476    1.30999994    2.34999990
   13.95916653  214.11900330    1.30999994    2.34999990
   13.96222210  209.42700195    1.30999994    2.36999989
   13.96555519  203.31199646    1.30999994    2.34999990
   13.96888828  193.41900635    1.30999994    2.36999989
   13.97194386  186.40899658    1.30999994    2.34999990
   13.97527695  185.67999268    1.28999996    2.34999990
   13.97749996  189.35400391    1.28999996    2.34999990
   13.97861099  194.22099304    1.28999996    2.36999989
   13.98194408  188.72900391    1.30999994    2.36999989
   13.98805618  188.72900391    1.28999996    2.36999989
   13.99250031  192.16600037    1.28999996    2.36999989
   13.99555588  199.92100525    1.28999996    2.36999989
   13.99888897  177.72599792    1.30999994    2.36999989
   14.00194454  193.83299255    1.30999994    2.36999989
   14.00527763  203.38800049    1.28999996    2.36999989
   14.00861073  205.68699646    1.28999996    2.34999990
   14.01083374  191.93200684    1.28999996    2.34999990
   14.01194477  197.69200134    1.28999996    2.36999989
   14.01527786  203.30599976    1.28999996    2.36999989
   14.01861095  187.59300232    1.26999998    2.36999989
   14.02166653  184.28799438    1.26999998    2.36999989
   14.02499962  173.35299683    1.28999996    2.36999989
   14.03083324  173.35299683    1.26999998    2.39000010
   14.03500080  196.54800415    1.26999998    2.36999989
   14.03833389  182.42900085    1.26999998    2.36999989
   14.04166698  202.82800293    1.28999996    2.36999989
   14.04416752  188.64399719    1.28999996    2.36999989
   14.04527855  194.51800537    1.26999998    2.36999989
   14.04861164  200.85600281    1.26999998    2.36999989
   14.05166721  185.97000122    1.28999996    2.39000010
   14.05500031  189.70199585    1.26999998    2.36999989
   14.05805588  190.50799561    1.26999998    2.36999989
   14.06138897  192.16200256    1.26999998    2.39000010
   14.06472206  192.24400330    1.26999998    2.36999989
   14.06805515  174.61799622    1.26999998    2.36999989
   14.07388878  174.61799622    1.25000000    2.36999989
   14.07777786  222.02099609    1.26999998    2.39000010
   14.08111095  216.16499329    1.25000000    2.39000010
   14.08444405  200.79499817    1.25000000    2.39000010
   14.08749962  196.92599487    1.25000000    2.39000010
   14.09083271  223.59399414    1.25000000    2.39000010
   14.09416676  215.35000610    1.25000000    2.39000010
   14.09722233  180.90299988    1.25000000    2.39000010
   14.10055637  217.75100708    1.23000002    2.39000010
   14.10361195  241.56500244    1.23000002    2.39000010
   14.10694504  235.97099304    1.25000000    2.39000010
   14.11027813  180.00700378    1.25000000    2.39000010
   14.11083412  180.26800537    1.25000000    2.39000010
   14.11666679  180.26800537    1.25000000    2.39000010
   14.12083340  234.71699524    1.25000000    2.39000010
   14.12388897  203.48199463    1.23000002    2.39000010
   14.12722206  223.72500610    1.23000002    2.40000010
   14.13055611  198.28399658    1.23000002    2.36999989
   14.13361073  219.30299377    1.23000002    2.39000010
   14.13694477  208.39399719    1.23000002    2.39000010
   14.14000034  206.67199707    1.23000002    2.40000010
   14.14333344  206.53599548    1.23000002    2.39000010
   14.14416695  195.02499390    1.23000002    2.39000010
   14.14694405  194.54600525    1.23000002    2.40000010
   14.14999962  189.81900024    1.23000002    2.39000010
   14.15333271  198.34599304    1.25000000    2.40000010
   14.15944386  198.34599304    1.23000002    2.40000010
   14.16361046  215.49899292    1.23000002    2.39000010
   14.16666698  220.40800476    1.23000002    2.39000010
   14.17000008  184.84700012    1.25000000    2.39000010
   14.17333412  212.80299377    1.23000002    2.39000010
   14.17638874  213.21400452    1.23000002    2.40000010
   14.17750072  190.66000366    1.23000002    2.40000010
   14.18027782  197.99400330    1.25000000    2.39000010
   14.18333340  177.72900391    1.23000002    2.40000010
   14.18666649  193.09199524    1.23000002    2.40000010
   14.18972206  209.66600037    1.23000002    2.40000010
   14.19305515  172.88499451    1.23000002    2.40000010
   14.19638920  189.42799377    1.23000002    2.40000010
   14.20222187  189.42799377    1.23000002    2.40000010
   14.20638847  209.72300720    1.21000004    2.40000010
   14.20972157  173.48899841    1.21000004    2.40000010
   14.21083355  172.80799866    1.23000002    2.39000010
   14.21333313  190.04600525    1.23000002    2.39000010
   14.21638870  180.95300293    1.21000004    2.40000010
   14.21972179  187.55599976    1.21000004    2.40000010
   14.22305489  174.06100464    1.21000004    2.40000010
   14.22611046  182.51300049    1.21000004    2.40000010
   14.22944355  181.87600708    1.21000004    2.40000010
   14.23249912  178.24000549    1.21000004    2.40000010
   14.23583317  192.24000549    1.21000004    2.39000010
   14.23916721  186.91400146    1.21000004    2.40000010
   14.24499989  186.91400146    1.21000004    2.40000010
   14.24916649  159.93400574    1.21000004    2.40000010
   14.25249958  177.37600708    1.21000004    2.40000010
   14.25583363  183.83599854    1.21000004    2.40000010
   14.25888920  163.86300659    1.19000006    2.40000010
   14.26222229  185.96899414    1.19000006    2.40000010
   14.26527786  193.66999817    1.19000006    2.42000008
   14.26861095  180.87399292    1.19000006    2.40000010
   14.27194405  161.21200562    1.19000006    2.40000010
   14.27499962  174.30400085    1.19000006    2.42000008
   14.27750015  177.29600525    1.19000006    2.42000008
   14.27888870  182.93899536    1.21000004    2.42000008
   14.28194427  179.78500366    1.21000004    2.42000008
   14.28805637  179.78500366    1.21000004    2.40000010
   14.29222298  184.35299683    1.16999996    2.40000010
   14.29527855  166.96299744    1.16999996    2.40000010
   14.29861164  198.70300293    1.16999996    2.42000008
   14.30194473  149.72300720    1.16999996    2.40000010
   14.30500031  162.93299866    1.16999996    2.40000010
   14.30833340  159.70899963    1.16999996    2.40000010
   14.31083393  163.85800171    1.16999996    2.44000006
   14.31194496  165.14799500    1.16999996    2.44000006
   14.31500053  161.72000122    1.16999996    2.42000008
   14.31833363  167.36199951    1.16999996    2.40000010
   14.32138920  161.47000122    1.16999996    2.40000010
   14.32472229  171.83399963    1.16999996    2.42000008
   14.33083344  171.83399963    1.16999996    2.42000008
   14.33500004  163.41700745    1.14999998    2.42000008
   14.33833313  185.93099976    1.14999998    2.42000008
   14.34138870  171.76499939    1.13000000    2.40000010
   14.34416676  189.53199768    1.14999998    2.42000008
   14.34527779  191.07099915    1.14999998    2.42000008
   14.34833336  182.49699402    1.14999998    2.40000010
   14.35166740  196.72900391    1.14999998    2.40000010
   14.35500050  164.40299988    1.14999998    2.42000008
   14.35805607  185.42799377    1.16999996    2.42000008
   14.36138916  189.76300049    1.19000006    2.42000008
   14.36444473  210.35299683    1.19000006    2.42000008
   14.36777782  207.27200317    1.21000004    2.42000008
   14.37361145  207.27200317    1.21000004    2.42000008
   14.37777805  212.66799927    1.19000006    2.42000008
   14.38111115  220.23399353    1.19000006    2.42000008
   14.38416672  205.05499268    1.19000006    2.42000008
   14.38749981  178.74499512    1.19000006    2.42000008
   14.39083290  179.81599426    1.19000006    2.42000008
   14.39388847  165.84100342    1.16999996    2.44000006
   14.39722252  206.45399475    1.16999996    2.44000006
   14.40055561  200.96899414    1.16999996    2.42000008
   14.40361118  223.29400635    1.16999996    2.42000008
   14.40694427  198.53399658    1.16999996    2.42000008
   14.40999985  205.61300659    1.16999996    2.42000008
   14.41083336  224.96899414    1.16999996    2.42000008
   14.41666698  224.96899414    1.19000006    2.44000006
   14.42055607  216.16400146    1.19000006    2.44000006
   14.42388916  199.26899719    1.16999996    2.44000006
   14.42722225  201.11999512    1.16999996    2.42000008
   14.43055630  201.05999756    1.16999996    2.42000008
   14.43361092  188.00399780    1.16999996    2.44000006
   14.43694496  195.34500122    1.16999996    2.44000006
   14.44027805  163.44099426    1.14999998    2.42000008
   14.44333363  195.73199463    1.14999998    2.42000008
   14.44416714  237.24800110    1.14999998    2.42000008
   14.44722271  192.59100342    1.14999998    2.42000008
   14.45027733  210.59599304    1.14999998    2.42000008
   14.45361137  200.30999756    1.23000002    2.42000008
   14.45944405  200.30999756    1.25000000    2.42000008
   14.46361065  179.18600464    1.28999996    2.44000006
   14.46666622  188.37600708    1.30999994    2.42000008
   14.46999931  180.10299683    1.30999994    2.44000006
   14.47333336  215.89599609    1.30999994    2.42000008
   14.47638798  204.45399475    1.30999994    2.42000008
   14.47749996  184.08700562    1.30999994    2.42000008
   14.47999954  199.88200378    1.30999994    2.42000008
   14.48305511  211.27799988    1.28999996    2.42000008
   14.48638916  192.81799316    1.21000004    2.42000008
   14.48972225  195.52900696    1.16999996    2.42000008
   14.49277782  193.75399780    1.16999996    2.42000008
   14.49611092  202.19000244    1.13000000    2.44000006
   14.50222206  202.19000244    1.13000000    2.44000006
   14.50638866  196.69000244    1.11000001    2.44000006
   14.50972176  177.58900452    1.07000005    2.44000006
   14.51083374  179.03999329    1.07000005    2.44000006
   14.51333332  193.14399719    1.09000003    2.44000006
   14.51638889  180.04699707    1.09000003    2.44000006
   14.51972198  185.02699280    1.09000003    2.44000006
   14.52305508  197.32000732    1.09000003    2.44000006
   14.52611065  184.90699768    1.09000003    2.44000006
   14.52944374  201.66499329    1.09000003    2.44000006
   14.53249931  200.04499817    1.13000000    2.44000006
   14.53583336  164.82200623    1.13000000    2.44000006
   14.53916740  168.58799744    1.13000000    2.44000006
   14.54500008  168.58799744    1.11000001    2.44000006
   14.54916668  205.04200745    1.11000001    2.44000006
   14.55249977  202.86000061    1.11000001    2.44000006
   14.55555534  176.99099731    1.13000000    2.44000006
   14.55888939  208.06700134    1.13000000    2.44000006
   14.56222248  190.77099609    1.14999998    2.44000006
   14.56527805  196.85800171    1.14999998    2.42000008
   14.56861115  200.11399841    1.16999996    2.44000006
   14.57194424  198.15899658    1.14999998    2.46000004
   14.57499981  210.58099365    1.14999998    2.46000004
   14.57750034  228.77900696    1.13000000    2.46000004
   14.57861137  204.56100464    1.13000000    2.46000004
   14.58166695  206.02099609    1.14999998    2.46000004
   14.58805561  206.02099609    1.13000000    2.46000004
   14.59222221  187.05700684    1.11000001    2.46000004
   14.59527779  199.48599243    1.11000001    2.44000006
   14.59861088  204.63699341    1.11000001    2.44000006
   14.60166740  173.57899475    1.11000001    2.44000006
   14.60500050  194.23300171    1.13000000    2.44000006
   14.60833359  194.58500671    1.13000000    2.46000004
   14.61083412  185.46099854    1.13000000    2.46000004
   14.61194515  195.91799927    1.13000000    2.46000004
   14.61500072  193.50799561    1.13000000    2.46000004
   14.61833382  185.50599670    1.11000001    2.46000004
   14.62166691  188.18099976    1.09000003    2.46000004
   14.62472248  183.12300110    1.09000003    2.46000004
   14.63083363  183.12300110    1.07000005    2.44000006
   14.63500023  188.74499512    1.05999994    2.46000004
   14.63805580  170.21400452    1.05999994    2.46000004
   14.64138889  182.49899292    1.07000005    2.46000004
   14.64416695  186.84700012    1.07000005    2.46000004
   14.64499950  174.69900513    1.07000005    2.46000004
   14.64805508  170.61900330    1.09000003    2.46000004
   14.65138817  189.46899414    1.11000001    2.46000004
   14.65472221  183.40199280    1.13000000    2.46000004
   14.65777779  185.10400391    1.11000001    2.46000004
   14.66111088  169.09800720    1.11000001    2.46000004
   14.66416645  171.98899841    1.11000001    2.46000004
   14.66750050  171.15800476    1.11000001    2.44000006
   14.67361164  171.15800476    1.11000001    2.46000004
   14.67777824  165.02000427    1.13000000    2.44000006
   14.68111134  182.65800476    1.13000000    2.46000004
   14.68416691  181.99400330    1.13000000    2.46000004
   14.68750000  168.86099243    1.13000000    2.46000004
   14.69083309  169.95599365    1.11000001    2.46000004
   14.69388866  192.08399963    1.13000000    2.46000004
   14.69722271  179.70199585    1.11000001    2.46000004
   14.70027733  171.86399841    1.11000001    2.46000004
   14.70361137  184.92599487    1.09000003    2.46000004
   14.70694447  173.72000122    1.07000005    2.46000004
   14.71000004  179.82499695    1.09000003    2.46000004
   14.71083355  174.01499939    1.09000003    2.46000004
   14.71638870  174.01499939    1.09000003    2.46000004
   14.72055531  174.02200317    1.09000003    2.46000004
   14.72388840  185.91900635    1.09000003    2.46000004
   14.72694397  171.03399658    1.11000001    2.46000004
   14.74472237  184.70500183    1.09000003    2.48000002
   14.74722290  194.61599731    1.09000003    2.46000004
   14.75027752  177.44500732    1.09000003    2.46000004
   14.75361156  171.61700439    1.09000003    2.46000004
   14.75944424  171.61700439    1.01999998    2.46000004
   14.76361084  174.88299561    1.01999998    2.46000004
   14.76694393  178.98699951    1.01999998    2.46000004
   14.76999950  160.97599792    1.01999998    2.46000004
   14.77333355  161.42300415    1.00000000    2.46000004
   14.77638817  167.58099365    1.01999998    2.46000004
   14.77777767  173.80900574    1.01999998    2.46000004
   14.77999973  178.44299316    1.03999996    2.46000004
   14.78333378  163.41400146    1.05999994    2.46000004
   14.78638935  174.37300110    1.07000005    2.46000004
   14.78972244  170.86399841    1.07000005    2.46000004
   14.79305553  173.85099792    1.09000003    2.48000002
   14.79611111  156.61000061    1.09000003    2.46000004
   14.80222225  156.61000061    1.11000001    2.48000002
   14.80638885  175.40899658    1.13000000    2.48000002
   14.80972195  179.67700195    1.13000000    2.48000002
   14.81111145  203.68899536    1.13000000    2.48000002
   14.81333351  176.30000305    1.11000001    2.46000004
   14.81666660  174.04600525    1.11000001    2.46000004
   14.81972218  174.01199341    1.09000003    2.46000004
   14.82305527  166.18499756    1.09000003    2.46000004
   14.82638836  161.07600403    1.09000003    2.46000004
   14.82972240  182.90499878    1.09000003    2.48000002
   14.83277798  192.03599548    1.09000003    2.48000002
   14.83611107  184.63699341    1.09000003    2.46000004
   14.83944416  191.51899719    1.07000005    2.46000004
   14.84527779  191.51899719    1.07000005    2.46000004
   14.84916592  186.81700134    1.07000005    2.46000004
   14.85249996  189.47099304    1.07000005    2.46000004
   14.85583401  179.51699829    1.07000005    2.46000004
   14.85888958  190.14799500    1.05999994    2.48000002
   14.86222267  180.26300049    1.05999994    2.48000002
   14.86555576  174.25900269    1.05999994    2.48000002
   14.86861134  162.83799744    1.07000005    2.46000004
   14.87194443  164.38299561    1.07000005    2.46000004
   14.87500000  170.95199585    1.07000005    2.46000004
   14.87805557  184.41799927    1.09000003    2.46000004
   14.87861156  174.96099854    1.09000003    2.46000004
   14.88194466  172.27699280    1.09000003    2.46000004
   14.88805580  172.27699280    1.05999994    2.46000004
   14.89222240  184.22500610    1.05999994    2.46000004
   14.89527798  174.72599792    1.05999994    2.48000002
   14.89861107  175.74800110    1.05999994    2.48000002
   14.90194416  172.46000671    1.03999996    2.48000002
   14.90499973  192.25199890    1.03999996    2.48000002
   14.90833282  174.91299438    1.03999996    2.48000002
   14.91138840  177.03599548    1.01999998    2.48000002
   14.91194439  190.66799927    1.01999998    2.48000002
   14.91527748  193.40699768    1.01999998    2.46000004
   14.91833401  180.03999329    1.01999998    2.48000002
   14.92166710  185.25700378    1.01999998    2.48000002
   14.92500019  195.00500488    1.01999998    2.48000002
   14.93083382  195.00500488    1.01999998    2.48000002
   14.93500042  169.45599365    1.03999996    2.46000004
   14.93833351  185.30000305    1.03999996    2.48000002
   14.94138908  180.94400024    1.05999994    2.46000004
   14.94472218  178.50500488    1.05999994    2.46000004
   14.94499969  178.08000183    1.03999996    2.46000004
   14.94833374  177.79400635    1.03999996    2.46000004
   14.95138836  174.49299622    1.03999996    2.48000002
   14.95472240  180.40400696    1.03999996    2.46000004
   14.95805550  145.00599670    1.03999996    2.46000004
   14.96111107  170.16400146    1.05999994    2.46000004
   14.96444416  169.44500732    1.05999994    2.46000004
   14.96777725  169.23899841    1.03999996    2.48000002
   14.97361088  169.23899841    1.05999994    2.48000002
   14.97777748  174.47500610    1.07000005    2.48000002
   14.97833252  157.22099304    1.07000005    2.48000002
   14.98166656  166.45300293    1.05999994    2.48000002
   14.98472214  160.04100037    1.05999994    2.48000002
   14.98805618  164.53799438    1.05999994    2.48000002
   14.99138927  170.72200012    1.05999994    2.48000002
   14.99444485  174.07200623    1.03999996    2.48000002
   14.99777794  165.18800354    1.05999994    2.48000002
   15.00111103  172.63000488    1.07000005    2.48000002
   15.00416660  144.72300720    1.09000003    2.48000002
   15.00749969  167.58399963    1.11000001    2.48000002
   15.01083374  168.38099670    1.13000000    2.48000002
   15.01166630  156.68699646    1.13000000    2.48000002
   15.01666641  156.68699646    1.13000000    2.48000002
   15.02055550  161.47200012    1.09000003    2.48000002
   15.02388859  160.41099548    1.07000005    2.48000002
   15.02722168  155.81199646    1.07000005    2.46000004
   15.03027725  159.20399475    1.09000003    2.48000002
   15.03361130  152.73899841    1.11000001    2.48000002
   15.03694534  158.28700256    1.11000001    2.48000002
   15.04000092  161.62300110    1.07000005    2.48000002
   15.04333401  157.39900208    1.07000005    2.48000002
   15.04500008  158.90899658    1.05999994    2.48000002
   15.04694462  153.03300476    1.05999994    2.48000002
   15.05000019  161.82699585    1.03999996    2.48000002
   15.05333328  159.88200378    1.07000005    2.48000002
   15.05944443  159.88200378    1.09000003    2.48000002
   15.06361103  156.38200378    1.13000000    2.48000002
   15.06666660  161.82600403    1.14999998    2.48000002
   15.06999969  159.79299927    1.14999998    2.48000002
   15.07333374  153.03599548    1.13000000    2.48000002
   15.07638836  174.30299377    1.13000000    2.48000002
   15.07833290  169.46800232    1.14999998    2.48000002
   15.08027744  150.07299805    1.14999998    2.48000002
   15.08333302  164.14799500    1.19000006    2.48000002
   15.08666611  166.80400085    1.21000004    2.46000004
   15.09000015  158.05900574    1.23000002    2.48000002
   15.09305477  163.59800720    1.23000002    2.48000002
   15.09638882  160.14500427    1.25000000    2.48000002
   15.10222244  160.14500427    1.26999998    2.48000002
   15.10638905  169.16099548    1.28999996    2.48000002
   15.10972214  158.55900574    1.28999996    2.48000002
   15.11166668  157.41400146    1.28999996    2.48000002
   15.11333370  168.40100098    1.28999996    2.48000002
   15.11638927  159.18699646    1.28999996    2.48000002
   15.11972237  159.05700684    1.26999998    2.48000002
   15.12305546  163.36199951    1.26999998    2.48000002
   15.12611103  170.08500671    1.26999998    2.50000000
   15.12944412  154.02900696    1.26999998    2.48000002
   15.13277817  171.19900513    1.26999998    2.48000002
   15.13583279  155.00799561    1.25000000    2.48000002
   15.13916683  167.30200195    1.25000000    2.48000002
   15.14499950  167.30200195    1.25000000    2.48000002
   15.14916611  160.45100403    1.21000004    2.48000002
   15.15249920  162.02400208    1.16999996    2.48000002
   15.15555477  156.49699402    1.14999998    2.48000002
   15.15888882  164.62800598    1.13000000    2.48000002
   15.16222191  170.83799744    1.11000001    2.50000000
   15.16527748  156.35000610    1.13000000    2.50000000
   15.16861153  161.24099731    1.11000001    2.50000000
   15.17194462  178.85800171    1.13000000    2.48000002
   15.17500019  153.11300659    1.11000001    2.48000002
   15.17833328  164.08200073    1.09000003    2.48000002
   15.17888927  166.68699646    1.09000003    2.48000002
   15.18194485  172.62500000    1.09000003    2.50000000
   15.18805599  172.62500000    1.07000005    2.48000002
   15.19194412  153.84599304    1.05999994    2.48000002
   15.19527817  143.96600342    1.03999996    2.48000002
   15.19861126  165.90199280    1.01999998    2.50000000
   15.20166683  169.51499939    1.00000000    2.50000000
   15.20499992  157.04699707    1.00000000    2.50000000
   15.20833302  160.28500366    1.03999996    2.48000002
   15.21138859  154.01899719    1.05999994    2.50000000
   15.21194458  160.53700256    1.05999994    2.50000000
   15.21527767  165.65899658    1.05999994    2.50000000
   15.21833324  153.56799316    1.05999994    2.50000000
   15.22166634  156.43899536    1.01999998    2.50000000
   15.22499943  158.39599609    1.05999994    2.48000002
   15.23083305  158.39599609    1.07000005    2.50000000
   15.23500061  165.03900146    1.07000005    2.48000002
   15.23805618  156.97999573    1.07000005    2.50000000
   15.24138927  184.82800293    1.05999994    2.50000000
   15.24472237  156.39399719    1.05999994    2.50000000
   15.24527836  159.27600098    1.05999994    2.48000002
   15.24833393  165.45899963    1.05999994    2.48000002
   15.25138855  158.87399292    1.03999996    2.48000002
   15.25472260  150.52900696    1.03999996    2.50000000
   15.25805569  158.15699768    1.05999994    2.50000000
   15.26111126  155.90199280    1.05999994    2.50000000
   15.26444435  153.37500000    1.03999996    2.48000002
   15.26777744  147.63200378    1.05999994    2.50000000
   15.27361107  147.63200378    1.05999994    2.50000000
   15.27777767  151.43600464    1.03999996    2.50000000
   15.27861118  157.19799805    1.03999996    2.50000000
   15.28138828  151.33200073    1.03999996    2.50000000
   15.28444481  160.15199280    1.03999996    2.50000000
   15.28777790  159.39799500    1.03999996    2.50000000
   15.29111195  153.48300171    1.03999996    2.50000000
   15.29416752  160.64300537    1.05999994    2.50000000
   15.29750061  135.92100525    1.05999994    2.50000000
   15.30055618  154.25900269    1.09000003    2.50000000
   15.30388927  143.14300537    1.11000001    2.50000000
   15.30722237  152.98399353    1.11000001    2.50000000
   15.31027794  148.45399475    1.11000001    2.48000002
   15.31194496  183.96000671    1.11000001    2.48000002
   15.31638908  183.96000671    1.09000003    2.50000000
   15.32055569  175.02000427    1.11000001    2.50000000
   15.32388878  151.38499451    1.11000001    2.50000000
   15.32694435  159.63200378    1.13000000    2.50000000
   15.33027744  170.61999512    1.13000000    2.50000000
   15.33361053  155.80299377    1.14999998    2.50000000
   15.33694458  164.09300232    1.07000005    2.51999998
   15.34000015  166.92500305    1.07000005    2.51999998
   15.34333324  168.42599487    1.03999996    2.51999998
   15.34527779  153.34399414    1.03999996    2.50000000
   15.34694386  164.31500244    1.03999996    2.50000000
   15.35000038  170.30799866    1.03999996    2.50000000
   15.35333347  163.25599670    1.01999998    2.50000000
   15.35944462  163.25599670    1.00000000    2.50000000
   15.36333370  155.94299316    0.98000002    2.50000000
   15.36666679  187.21400452    1.00000000    2.51999998
   15.36999989  161.53300476    0.98000002    2.50000000
   15.37305546  162.93499756    0.98000002    2.50000000
   15.37638855  160.03399658    1.00000000    2.48000002
   15.37861156  158.25900269    1.00000000    2.50000000
   15.38000011  171.34599304    1.00000000    2.50000000
   15.38305569  164.87699890    0.98000002    2.50000000
   15.38638878  180.69000244    1.03999996    2.50000000
   15.38944435  153.59800720    1.05999994    2.50000000
   15.39277744  154.10400391    1.09000003    2.50000000
   15.39611053  153.42500305    1.07000005    2.50000000
   15.40222168  153.42500305    1.07000005    2.51999998
   15.40638828  152.98300171    1.07000005    2.50000000
   15.40944386  159.58099365    1.05999994    2.50000000
   15.41194439  159.14799500    1.05999994    2.50000000
   15.41333294  176.66799927    1.05999994    2.50000000
   15.41638851  152.82000732    1.03999996    2.50000000
   15.41972256  164.32899475    1.01999998    2.50000000
   15.42305565  151.40400696    1.01999998    2.50000000
   15.42611122  155.50100708    1.03999996    2.50000000
   15.42944431  161.86900330    1.03999996    2.50000000
   15.43249989  158.67300415    1.03999996    2.51999998
   15.43583298  149.88999939    1.03999996    2.51999998
   15.43916702  152.74299622    1.03999996    2.50000000
   15.44499969  152.74299622    1.03999996    2.50000000
   15.44916630  167.26400757    1.03999996    2.50000000
   15.45249939  171.59300232    1.01999998    2.50000000
   15.45555496  162.88299561    1.01999998    2.50000000
   15.45888901  171.93400574    1.00000000    2.50000000
   15.46222210  154.31500244    1.00000000    2.50000000
   15.46527767  176.39300537    1.01999998    2.50000000
   15.46861076  161.24299622    1.00000000    2.50000000
   15.47166634  166.87300110    0.98000002    2.51999998
   15.47499943  181.50700378    1.00000000    2.50000000
   15.57972240   -1.00000000   -1.00000000   -1.00000000
   15.67722225   -1.00000000   -1.00000000   -1.00000000
   15.81305599   -1.00000000   -1.00000000   -1.00000000
   15.87416649  106.02400208    0.92000002    2.51999998
   15.87750053  194.65899658    0.88000000    2.51999998
   15.88083363  181.56799316    0.86000001    2.51999998
   15.88388920  177.52900696    0.81999999    2.53999996
   15.88722229  163.27600098    0.81999999    2.53999996
   15.89027786  184.89199829    0.81999999    2.53999996
   15.89444447  184.89199829    0.81999999    2.53999996
   15.89861107  192.50100708    0.83999997    2.53999996
   15.90194416  216.52499390    0.86000001    2.53999996
   15.90499973  206.91000366    0.86000001    2.53999996
   15.90749931  206.63999939    0.86000001    2.51999998
   15.90861034  203.49899292    0.86000001    2.51999998
   15.91194439  174.11399841    0.88000000    2.53999996
   15.91499996  182.75399780    0.89999998    2.51999998
   15.91833401  185.86599731    0.89999998    2.51999998
   15.92138958  188.71600342    0.89999998    2.53999996
   15.92472267  174.60699463    0.89999998    2.51999998
   15.92805576  200.53500366    0.88000000    2.51999998
   15.93111134  206.45100403    0.88000000    2.51999998
   15.93750000  206.45100403    0.88000000    2.53999996
   15.94138908  198.22700500    0.86000001    2.53999996
   15.94472218  202.00300598    0.86000001    2.51999998
   15.94805527  183.90400696    0.86000001    2.51999998
   15.95111084  222.06700134    0.86000001    2.53999996
   15.95444393  230.58200073    0.86000001    2.53999996
   15.95777798  208.05400085    0.83999997    2.51999998
   15.96083355  216.94299316    0.81999999    2.51999998
   15.96416664  184.91000366    0.80000001    2.53999996
   15.96749973  222.18600464    0.80000001    2.51999998
   15.97055531  231.79699707    0.79000002    2.53999996
   15.97388840  184.68499756    0.79000002    2.51999998
   15.97444439  213.92399597    0.79000002    2.51999998
   15.98027706  213.92399597    0.79000002    2.53999996
   15.98444462  198.57000732    0.79000002    2.53999996
   15.98750019  197.05700684    0.79000002    2.51999998
   15.99083328  180.59199524    0.79000002    2.53999996
   15.99416733  207.19700623    0.79000002    2.53999996
   15.99722290  177.94900513    0.79000002    2.53999996
   16.00055504  191.09300232    0.79000002    2.53999996
   16.00388908  205.15800476    0.79000002    2.53999996
   16.00694466  209.01699829    0.79000002    2.53999996
   16.00777817  212.03700256    0.79000002    2.53999996
   16.01055527  203.07000732    0.80000001    2.53999996
   16.01388931  206.24699402    0.80000001    2.53999996
   16.01694489  196.64900208    0.80000001    2.51999998
   16.02305603  196.64900208    0.80000001    2.53999996
   16.02722168  186.85899353    0.80000001    2.53999996
   16.03055573  204.81100464    0.80000001    2.53999996
   16.03361130  195.20399475    0.79000002    2.53999996
   16.03694344  206.05499268    0.79000002    2.51999998
   16.03999901  190.96299744    0.79000002    2.51999998
   16.04111099  207.90100098    0.79000002    2.51999998
   16.04361153  208.79699707    0.79000002    2.51999998
   16.04694366  209.30999756    0.80000001    2.53999996
   16.04999924  237.00500488    0.80000001    2.53999996
   16.05333328  185.19500732    0.80000001    2.53999996
   16.05666542  169.63600159    0.81999999    2.53999996
   16.05999947  190.54699707    0.83999997    2.53999996
   16.06583214  190.54699707    0.86000001    2.53999996
   16.07000160  192.22700500    0.86000001    2.51999998
   16.07333374  199.19299316    0.83999997    2.53999996
   16.07444572  196.82699585    0.83999997    2.53999996
   16.07694626  177.16900635    0.81999999    2.53999996
   16.08027840  190.82899475    0.80000001    2.53999996
   16.08333397  204.33999634    0.80000001    2.53999996
   16.08666801  189.24099731    0.80000001    2.53999996
   16.09000015  199.56399536    0.81999999    2.53999996
   16.09305573  172.16999817    0.83999997    2.53999996
   16.09638977  182.82699585    0.86000001    2.53999996
   16.09972191  194.86799622    0.83999997    2.51999998
   16.10277748  182.73500061    0.83999997    2.53999996
   16.10888863  182.73500061    0.80000001    2.53999996
   16.11277771  202.77900696    0.79000002    2.53999996
   16.11611176  172.44999695    0.76999998    2.53999996
   16.11944389  185.18299866    0.79000002    2.53999996
   16.12249947  168.88999939    0.76999998    2.53999996
   16.12583351  171.95100403    0.76999998    2.53999996
   16.12916756  193.16799927    0.75000000    2.53999996
   16.13222313  181.49499512    0.75000000    2.53999996
   16.13555527  182.69099426    0.73000002    2.53999996
   16.13861084  167.27000427    0.75000000    2.53999996
   16.14111137  168.93400574    0.75000000    2.53999996
   16.14222145  167.76800537    0.75000000    2.53999996
   16.14555550  176.51899719    0.75000000    2.53999996
   16.15166664  176.51899719    0.76999998    2.53999996
   16.15583229  174.63600159    0.75000000    2.53999996
   16.15888786  177.00500488    0.75000000    2.53999996
   16.16222191  174.94099426    0.75000000    2.53999996
   16.16555595  178.83200073    0.73000002    2.53999996
   16.16860962  181.69200134    0.73000002    2.55999994
   16.17194366  171.34700012    0.69000000    2.53999996
   16.17444420  175.64999390    0.69000000    2.53999996
   16.17555428  166.20599365    0.67000002    2.53999996
   16.17888832  185.82899475    0.67000002    2.53999996
   16.18194389  179.63299561    0.67000002    2.53999996
   16.18527603  183.76800537    0.64999998    2.53999996
   16.18861008  199.86399841    0.64999998    2.53999996
   16.19444275  199.86399841    0.70999998    2.53999996
   16.19861031  187.59899902    0.75000000    2.53999996
   16.20194435  193.32400513    0.75000000    2.53999996
   16.20499992  191.59500122    0.76999998    2.53999996
   16.20777893  174.28100586    0.79000002    2.53999996
   16.20861244  180.22599792    0.79000002    2.53999996
   16.21222305  185.42199707    0.81999999    2.53999996
   16.21527863  166.16999817    0.86000001    2.53999996
   16.21861076  152.20500183    0.86000001    2.53999996
   16.22194481  158.08700562    0.88000000    2.53999996
   16.22500038  154.12699890    0.88000000    2.53999996
   16.22833443  189.46099854    0.86000001    2.53999996
   16.23166656  161.49899292    0.86000001    2.53999996
   16.23722267  161.49899292    0.86000001    2.51999998
   16.24138832  172.69700623    0.81999999    2.53999996
   16.24472237  180.43200684    0.80000001    2.55999994
   16.24777794  169.66900635    0.79000002    2.53999996
   16.25111198  171.16700745    0.79000002    2.53999996
   16.25444412  185.93099976    0.79000002    2.53999996
   16.25749969  156.42799377    0.79000002    2.53999996
   16.26083374  159.23800659    0.79000002    2.53999996
   16.26416588  175.00900269    0.79000002    2.53999996
   16.26722145  202.66999817    0.79000002    2.53999996
   16.27055550  170.96200562    0.79000002    2.53999996
   16.27361107  219.94400024    0.79000002    2.53999996
   16.27444458  158.19400024    0.79000002    2.53999996
   16.28027725  158.19400024    0.81999999    2.53999996
   16.28444481  167.03700256    0.81999999    2.53999996
   16.28750038  174.10499573    0.83999997    2.53999996
   16.29083252  188.37399292    0.83999997    2.53999996
   16.29388809  147.06100464    0.88000000    2.53999996
   16.29722214  167.03700256    0.89999998    2.53999996
   16.30055428  184.90699768    0.89999998    2.53999996
   16.30360985  179.16499329    1.00000000    2.53999996
   16.30694389  174.24200439    1.01999998    2.53999996
   16.30777740  166.72500610    1.01999998    2.53999996
   16.31055450  181.76100159    0.95999998    2.55999994
   16.31388855  179.68099976    0.92000002    2.53999996
   16.31694603  175.89700317    0.92000002    2.53999996
   16.32305717  175.89700317    0.89999998    2.53999996
   16.32722282  162.99899292    0.86000001    2.55999994
   16.33027840  155.42999268    0.86000001    2.53999996
   16.33361244  195.11300659    0.86000001    2.53999996
   16.33694458  149.60699463    0.86000001    2.53999996
   16.34000015  191.44299316    0.83999997    2.53999996
   16.34111214  166.96899414    0.83999997    2.53999996
   16.34361267  160.02900696    0.83999997    2.53999996
   16.34694481  172.57200623    0.81999999    2.55999994
   16.35027885  162.60800171    0.80000001    2.53999996
   16.35333443  173.81900024    0.81999999    2.53999996
   16.35666656  174.46499634    0.86000001    2.55999994
   16.35972214  169.94099426    0.86000001    2.55999994
   16.36583328  169.94099426    0.94000000    2.55999994
   16.37000084  163.85400391    1.00000000    2.53999996
   16.37333298  159.53799438    0.98000002    2.53999996
   16.37444496  145.77099609    0.98000002    2.53999996
   16.37666702  142.54800415    1.00000000    2.55999994
   16.38000107  158.31399536    0.95999998    2.55999994
   16.38333321  152.31599426    0.95999998    2.55999994
   16.38638878  158.00300598    0.95999998    2.55999994
   16.38972282  153.10800171    0.95999998    2.53999996
   16.39277840  152.48500061    1.03999996    2.53999996
   16.39611053  158.69400024    1.03999996    2.53999996
   16.39944458  135.13099670    1.03999996    2.53999996
   16.40250015  150.58599854    1.03999996    2.53999996
   16.40861130  150.58599854    0.98000002    2.53999996
   16.41277695  158.19299316    0.95999998    2.53999996
   16.41611099  169.84599304    0.83999997    2.53999996
   16.41916656  177.69599915    0.81999999    2.53999996
   16.42249870  154.90600586    0.79000002    2.53999996
   16.42583275  160.57699585    0.76999998    2.55999994
   16.42888832  147.83900452    0.76999998    2.53999996
   16.43222237  132.16999817    0.76999998    2.53999996
   16.43555450  140.13900757    0.76999998    2.53999996
   16.43861008  156.25199890    0.75000000    2.55999994
   16.44111061  132.50300598    0.75000000    2.53999996
   16.44222069  146.50399780    0.75000000    2.53999996
   16.44555473  147.60699463    0.73000002    2.53999996
   16.45166779  147.60699463    0.75000000    2.53999996
   16.45555687  157.02699280    0.75000000    2.53999996
   16.45888901  154.23300171    0.75000000    2.53999996
   16.46222305  155.30499268    0.76999998    2.55999994
   16.46527863  147.92999268    0.79000002    2.53999996
   16.46861076  175.99200439    0.79000002    2.55999994
   16.47194481  158.04800415    0.80000001    2.53999996
   16.47444534  169.77600098    0.80000001    2.53999996
   16.47527885  163.74200439    0.81999999    2.55999994
   16.47861099  157.76400757    0.80000001    2.55999994
   16.48194504  146.13900757    0.80000001    2.53999996
   16.48500061  159.64900208    0.80000001    2.53999996
   16.48833275  170.96499634    0.80000001    2.55999994
   16.49444389  170.96499634    0.81999999    2.53999996
   16.49861145  160.09300232    0.80000001    2.53999996
   16.50166702  164.54100037    0.80000001    2.55999994
   16.50499916  176.67799377    0.79000002    2.55999994
   16.50777817  159.35699463    0.79000002    2.53999996
   16.50861168  168.45700073    0.79000002    2.53999996
   16.51194382  160.69400024    0.79000002    2.55999994
   16.51527786  178.60600281    0.79000002    2.55999994
   16.51833344  182.86599731    0.79000002    2.55999994
   16.52166557  183.89700317    0.79000002    2.55999994
   16.52472115  181.43600464    0.76999998    2.53999996
   16.52805519  194.36599731    0.79000002    2.53999996
   16.53138924  195.89700317    0.79000002    2.53999996
   16.53722191  195.89700317    0.79000002    2.53999996
   16.54138756  171.60400391    0.79000002    2.55999994
   16.54472160  168.10200500    0.76999998    2.53999996
   16.54777718  165.75900269    0.76999998    2.53999996
   16.55111122  174.70100403    0.76999998    2.55999994
   16.55416679  170.06599426    0.75000000    2.53999996
   16.55749893  164.58599854    0.73000002    2.53999996
   16.56083298  167.64700317    0.70999998    2.53999996
   16.56416512  165.70700073    0.73000002    2.53999996
   16.56722260  164.22200012    0.73000002    2.53999996
   16.57055664  163.59500122    0.73000002    2.53999996
   16.57361221  163.78799438    0.73000002    2.53999996
   16.57444572  162.89100647    0.73000002    2.53999996
   16.58000183  162.89100647    0.73000002    2.55999994
   16.58416748  162.74899292    0.73000002    2.55999994
   16.58750153  152.23500061    0.75000000    2.55999994
   16.59055710  158.61700439    0.79000002    2.55999994
   16.59388924  169.77400208    0.79000002    2.55999994
   16.59722328  157.48899841    0.80000001    2.53999996
   16.60027885  155.86799622    0.83999997    2.55999994
   16.60361099  142.44900513    0.83999997    2.53999996
   16.60694504  165.08500671    0.86000001    2.55999994
   16.60777855  176.93099976    0.86000001    2.55999994
   16.61027908  127.85900116    0.86000001    2.53999996
   16.61361122  151.98100281    0.83999997    2.55999994
   16.61694527  164.76199341    0.86000001    2.55999994
   16.62305641  164.76199341    0.86000001    2.55999994
   16.62694550  157.23199463    0.83999997    2.53999996
   16.63027763  147.93499756    0.83999997    2.53999996
   16.63361168  143.85499573    0.83999997    2.53999996
   16.63666725  158.14999390    0.86000001    2.53999996
   16.63999939  162.05000305    0.86000001    2.55999994
   16.64111137  145.87500000    0.86000001    2.55999994
   16.64361191  144.65899658    0.86000001    2.53999996
   16.64666748  152.55599976    0.83999997    2.53999996
   16.64999962  168.20799255    0.83999997    2.53999996
   16.65333366  167.88299561    0.83999997    2.53999996
   16.65638924  160.68499756    0.83999997    2.55999994
   16.65972137  147.87800598    0.83999997    2.55999994
   16.66583252  147.87800598    0.86000001    2.53999996
   16.67000008  159.19099426    0.86000001    2.55999994
   16.67305565  157.15100098    0.88000000    2.53999996
   16.67444420  153.87399292    0.88000000    2.53999996
   16.67666626  149.73399353    0.88000000    2.53999996
   16.68000031  143.74299622    0.88000000    2.55999994
   16.68333244  152.70300293    0.88000000    2.53999996
   16.68666649  141.57299805    0.86000001    2.55999994
   16.68972206  162.52400208    0.83999997    2.53999996
   16.69305420  148.49200439    0.83999997    2.53999996
   16.69610977  140.52799988    0.81999999    2.53999996
   16.69944382  149.27299500    0.81999999    2.55999994
   16.70277786  142.35200500    0.80000001    2.53999996
   16.70861244  142.35200500    0.80000001    2.55999994
   16.71277809  141.30099487    0.80000001    2.55999994
   16.71611214  155.25900269    0.79000002    2.55999994
   16.71944427  145.09399414    0.76999998    2.53999996
   16.72249985  132.10200500    0.76999998    2.53999996
   16.72583389  147.35600281    0.76999998    2.53999996
   16.72916794  148.83500671    0.75000000    2.53999996
   16.73222351  144.79100037    0.75000000    2.53999996
   16.73555565  158.24600220    0.76999998    2.53999996
   16.73888969  140.18699646    0.76999998    2.53999996
   16.74111176  147.58900452    0.75000000    2.53999996
   16.74250031  143.46600342    0.75000000    2.53999996
   16.74583435  160.21899414    0.75000000    2.55999994
   16.75138855  160.21899414    0.76999998    2.55999994
   16.75555611  177.98300171    0.79000002    2.53999996
   16.75888824  159.51300049    0.79000002    2.53999996
   16.76194382  173.01300049    0.80000001    2.55999994
   16.76527786  158.21600342    0.80000001    2.53999996
   16.76861000  148.71400452    0.80000001    2.55999994
   16.77166557  164.85600281    0.80000001    2.53999996
   16.77444458  150.64500427    0.80000001    2.55999994
   16.77527809  143.80900574    0.80000001    2.55999994
   16.77861023  143.43099976    0.80000001    2.53999996
   16.78194427  150.89900208    0.81999999    2.55999994
   16.78499985  152.89500427    0.81999999    2.55999994
   16.78833199  151.91000366    0.81999999    2.53999996
   16.79444313  151.91000366    0.80000001    2.53999996
   16.79833221  147.98899841    0.79000002    2.53999996
   16.80166626  145.55599976    0.80000001    2.55999994
   16.80499840  144.56399536    0.79000002    2.53999996
   16.80777740  150.55200195    0.79000002    2.53999996
   16.80833244  144.70500183    0.79000002    2.55999994
   16.81166649  143.61999512    0.76999998    2.55999994
   16.81499863  155.99400330    0.76999998    2.55999994
   16.81833458  137.51800537    0.76999998    2.55999994
   16.82139015  140.50100708    0.75000000    2.55999994
   16.82472229  144.88499451    0.75000000    2.53999996
   16.82805634  137.33799744    0.73000002    2.53999996
   16.83111191  148.29600525    0.73000002    2.53999996
   16.83722305  148.29600525    0.73000002    2.53999996
   16.84138870  142.07899475    0.73000002    2.55999994
   16.84444427  142.58900452    0.73000002    2.53999996
   16.84777832  144.24200439    0.70999998    2.55999994
   16.85111237  146.18899536    0.70999998    2.55999994
   16.85416794  152.01400757    0.70999998    2.55999994
   16.85750008  145.85499573    0.70999998    2.53999996
   16.86055565  139.25700378    0.70999998    2.53999996
   16.86388969  149.58000183    0.70999998    2.53999996
   16.86722183  147.75599670    0.70999998    2.55999994
   16.87055588  128.66299438    0.70999998    2.53999996
   16.87388992  136.63499451    0.73000002    2.55999994
   16.87444496  137.40899658    0.73000002    2.55999994
   16.89500046  137.40899658    0.75000000    2.53999996
   16.89916611  161.21600342    0.76999998    2.55999994
   16.90250015  155.60200500    0.76999998    2.55999994
   16.90555573  166.01699829    0.80000001    2.53999996
   16.90777779  162.24499512    0.80000001    2.53999996
   16.90944481  165.29299927    0.80000001    2.53999996
   16.91250038  164.12899780    0.81999999    2.55999994
   16.91583252  151.36599731    0.86000001    2.55999994
   16.91916656  143.62899780    0.89999998    2.55999994
   16.92222214  139.20199585    0.92000002    2.55999994
   16.92555428  147.48199463    0.92000002    2.53999996
   16.92888832  145.27699280    0.92000002    2.53999996
   16.93194389  150.99600220    0.94000000    2.53999996
   16.93777657  150.99600220    0.92000002    2.55999994
   16.94194412  160.53100586    0.89999998    2.53999996
   16.94527626  150.60499573    0.88000000    2.55999994
   16.94833183  154.22300720    0.88000000    2.55999994
   16.95166779  150.25199890    0.88000000    2.57999992
   16.95499992  148.55000305    0.88000000    2.57999992
   16.95805550  145.90299988    0.88000000    2.57999992
   16.96138954  144.50700378    0.88000000    2.57999992
   16.96444511  138.24699402    0.88000000    2.57999992
   16.96777916  145.08999634    0.88000000    2.57999992
   16.97111130  153.20599365    0.88000000    2.57999992
   16.97416687  146.44200134    0.88000000    2.57999992
   16.97472191  155.61199951    0.88000000    2.57999992
   16.98055649  155.61199951    0.88000000    2.57999992
   16.98472214  160.07899475    0.88000000    2.57999992
   16.98805618  145.81399536    0.88000000    2.57999992
   16.99138832  147.87899780    0.88000000    2.57999992
   16.99444389  143.93499756    0.88000000    2.57999992
   16.99777794  146.95100403    0.88000000    2.57999992
   17.00083351  137.58200073    0.88000000    2.57999992
   17.00416756  145.59899902    0.88000000    2.57999992
   17.00749969  137.79400635    0.88000000    2.57999992
   17.00805473  142.31700134    0.88000000    2.57999992
   17.01111031  146.67599487    0.88000000    2.57999992
   17.01416588  149.83799744    0.88000000    2.57999992
   17.01749992  142.59599304    0.88000000    2.57999992
   17.02361107  142.59599304    0.88000000    2.57999992
   17.02777672  137.46699524    0.88000000    2.57999992
   17.03083229  132.24200439    0.88000000    2.57999992
   17.03416634  139.74800110    0.88000000    2.57999992
   17.03722191  140.51899719    0.88000000    2.57999992
   17.04055595  133.27099609    0.88000000    2.57999992
   17.04138756  131.60099792    0.88000000    2.57999992
   17.04416656  134.56100464    0.88000000    2.57999992
   17.04722214  139.76800537    0.88000000    2.57999992
   17.05055428  136.05099487    0.88000000    2.57999992
   17.05388832  142.28100586    0.88000000    2.57999992
   17.05694389  141.68800354    0.88000000    2.57999992
   17.06027794  142.00799561    0.88000000    2.57999992
   17.06638718  142.00799561    0.88000000    2.57999992
   17.07055664  137.03700256    0.88000000    2.57999992
   17.07361221  152.61700439    0.88000000    2.57999992
   17.07472229  147.07800293    0.88000000    2.57999992
   17.07750130  144.71800232    0.88000000    2.57999992
   17.08055687  155.18699646    0.88000000    2.57999992
   17.08388901  146.31700134    0.88000000    2.57999992
   17.08722305  152.90899658    0.88000000    2.57999992
   17.09027863  156.61099243    0.88000000    2.57999992
   17.09361267  147.45300293    0.88000000    2.57999992
   17.09694481  147.69999695    0.88000000    2.57999992
   17.10027885  147.03300476    0.88000000    2.57999992
   17.10361099  145.35699463    0.88000000    2.57999992
   17.10916710  145.35699463    0.88000000    2.57999992
   17.11333466  135.78700256    0.88000000    2.57999992
   17.11666679  159.15100098    0.88000000    2.57999992
   17.11972237  149.33700562    0.88000000    2.57999992
   17.12305641  142.14900208    0.88000000    2.57999992
   17.12638855  146.40899658    0.88000000    2.57999992
   17.12944412  150.41099548    0.88000000    2.57999992
   17.13277817  142.71800232    0.88000000    2.57999992
   17.13583374  117.79499817    0.88000000    2.57999992
   17.13916588  147.76199341    0.88000000    2.57999992
   17.14138794  135.28100586    0.88000000    2.57999992
   17.14277840  159.68299866    0.88000000    2.57999992
   17.14583397  176.27400208    0.88000000    2.57999992
   17.15194321  176.27400208    0.88000000    2.57999992
   17.15611076  185.02200317    0.88000000    2.57999992
   17.15944481  193.12500000    0.88000000    2.57999992
   17.16277695  193.14399719    0.88000000    2.57999992
   17.16583252  195.58200073    0.88000000    2.57999992
   17.16916656  179.42599487    0.88000000    2.57999992
   17.17222214  196.05499268    0.88000000    2.57999992
   17.17472076  189.67999268    0.88000000    2.57999992
   17.17611122  160.12199402    0.88000000    2.57999992
   17.17916679  207.32899475    0.88000000    2.57999992
   17.18249893  176.03999329    0.88000000    2.57999992
   17.18583298  203.45300293    0.88000000    2.57999992
   17.18888855  212.82299805    0.88000000    2.57999992
   17.19499969  212.82299805    0.88000000    2.57999992
   17.19916534  210.03999329    0.88000000    2.57999992
   17.20222282  233.56500244    0.88000000    2.57999992
   17.20555687  219.72500610    0.88000000    2.57999992
   17.20805550  237.77600098    0.88000000    2.57999992
   17.20916748  178.31700134    0.88000000    2.57999992
   17.21222305  228.56799316    0.88000000    2.57999992
   17.21555710  181.06500244    0.88000000    2.57999992
   17.21888924  207.15400696    0.88000000    2.57999992
   17.22194481  214.77600098    0.88000000    2.57999992
   17.22527885  184.81199646    0.88000000    2.57999992
   17.22861099  183.69099426    0.88000000    2.57999992
   17.23166656  196.82899475    0.88000000    2.57999992
   17.23777771  196.82899475    0.88000000    2.57999992
   17.24194527  163.65899658    0.88000000    2.57999992
   17.24500084  177.80700684    0.88000000    2.57999992
   17.24833298  137.92999268    0.88000000    2.57999992
   17.25166702  163.13999939    0.88000000    2.57999992
   17.25472260  157.07699585    0.88000000    2.57999992
   17.25805473  164.54299927    0.88000000    2.57999992
   17.26138878  185.64399719    0.88000000    2.57999992
   17.26444435  157.37699890    0.88000000    2.57999992
   17.26777840  159.20199585    0.88000000    2.57999992
   17.27083397  152.20899963    0.88000000    2.57999992
   17.27416611  153.46400452    0.88000000    2.57999992
   17.27472115  149.32400513    0.88000000    2.57999992
   17.28055573  149.32400513    0.88000000    2.57999992
   17.28472137  141.70799255    0.88000000    2.57999992
   17.28805542  146.72700500    0.88000000    2.57999992
   17.29111099  153.76600647    0.88000000    2.57999992
   17.29444313  151.12699890    0.88000000    2.57999992
   17.29777718  158.52000427    0.88000000    2.57999992
   17.30083275  162.63800049    0.88000000    2.57999992
   17.30416679  177.44099426    0.88000000    2.57999992
   17.30722237  184.17700195    0.88000000    2.57999992
   17.30805397  170.98699951    0.88000000    2.57999992
   17.31083298  170.49200439    0.88000000    2.57999992
   17.31416512  181.99499512    0.88000000    2.57999992
   17.31722260  159.96099854    0.88000000    2.57999992
   17.32333374  159.96099854    0.88000000    2.57999992
   17.32750130  148.85200500    0.88000000    2.57999992
   17.33083344  151.55200195    0.88000000    2.57999992
   17.33388901  124.44599915    0.88000000    2.57999992
   17.33722305  160.96800232    0.88000000    2.57999992
   17.34055710  143.78399658    0.88000000    2.57999992
   17.34138870  143.68299866    0.88000000    2.57999992
   17.34416771  134.27799988    0.88000000    2.57999992
   17.34749985  129.21299744    0.88000000    2.57999992
   17.35055542  142.59100342    0.88000000    2.57999992
   17.35388947  133.19400024    0.88000000    2.57999992
   17.35694504  134.16400146    0.88000000    2.57999992
   17.36027908  148.30499268    0.88000000    2.57999992
   17.36638832  148.30499268    0.88000000    2.57999992
   17.37055588  146.02699280    0.88000000    2.57999992
   17.37361145  175.87800598    0.88000000    2.57999992
   17.37472153  151.71299744    0.88000000    2.57999992
   17.37722206  157.81100464    0.88000000    2.57999992
   17.38055611  159.66999817    0.88000000    2.57999992
   17.38361168  154.71899414    0.88000000    2.57999992
   17.38694382  170.51600647    0.88000000    2.57999992
   17.38999939  135.72500610    0.88000000    2.57999992
   17.39333344  149.27200317    0.88000000    2.57999992
   17.39666748  150.32400513    0.88000000    2.57999992
   17.39972115  164.20500183    0.88000000    2.57999992
   17.40305519  134.29100037    0.88000000    2.57999992
   17.40916634  134.29100037    0.88000000    2.57999992
   17.41333389  148.45100403    0.88000000    2.57999992
   17.41638756  135.14199829    0.88000000    2.57999992
   17.41972160  136.47599792    0.88000000    2.57999992
   17.42305565  145.30999756    0.88000000    2.57999992
   17.42611122  144.43600464    0.88000000    2.57999992
   17.42944336  142.49800110    0.88000000    2.57999992
   17.43277740  142.07899475    0.88000000    2.57999992
   17.43583298  145.40899658    0.88000000    2.57999992
   17.43916512  141.53900146    0.88000000    2.57999992
   17.44138718  146.35800171    0.88000000    2.57999992
   17.44277763  155.85800171    0.88000000    2.57999992
   17.44610977  138.83500671    0.88000000    2.57999992
   17.45194435  138.83500671    0.88000000    2.57999992
   17.45611191  133.61599731    0.88000000    2.57999992
   17.45944595  136.32899475    0.88000000    2.57999992
   17.46250153  130.28900146    0.88000000    2.57999992
   17.46583366  145.37399292    0.88000000    2.57999992
   17.46916771  159.89300537    0.88000000    2.57999992
   17.47222328  155.25000000    0.88000000    2.57999992
   17.47472191  159.74299622    0.88000000    2.57999992
   17.47583389  150.70899963    0.88000000    2.57999992
   17.47916794  154.41900635    0.88000000    2.57999992
   17.48222351  145.93099976    0.88000000    2.57999992
   17.48555565  148.36399841    0.88000000    2.57999992
   17.48861122  159.42100525    0.88000000    2.57999992
   17.49472237  159.42100525    0.88000000    2.57999992
   17.49888992  149.61199951    0.88000000    2.57999992
   17.50222206  148.35800171    0.88000000    2.57999992
   17.50555611  144.85699463    0.88000000    2.57999992
   17.50805473  155.07000732    0.88000000    2.57999992
   17.50916672  148.45899963    0.88000000    2.57999992
   17.51250076  145.68099976    0.88000000    2.57999992
   17.51555634  158.65499878    0.88000000    2.57999992
   17.51888847  155.99400330    0.88000000    2.57999992
   17.52194405  166.55499268    0.88000000    2.57999992
   17.52527809  138.17300415    0.88000000    2.57999992
   17.52861023  146.53599548    0.88000000    2.57999992
   17.53166580  149.97099304    0.88000000    2.57999992
   17.53777695  149.97099304    0.88000000    2.57999992
   17.54194450  152.99600220    0.88000000    2.57999992
   17.54500008  159.32899475    0.88000000    2.57999992
   17.54833221  148.27000427    0.88000000    2.57999992
   17.55166626  168.46000671    0.88000000    2.57999992
   17.55472183  146.13299561    0.88000000    2.57999992
   17.55805397  152.75500488    0.88000000    2.57999992
   17.56110954  150.46899414    0.88000000    2.57999992
   17.56444359  152.71099854    0.88000000    2.57999992
   17.56777954  150.58999634    0.88000000    2.57999992
   17.57083511  151.19200134    0.88000000    2.57999992
   17.57416725  150.25900269    0.88000000    2.57999992
   17.57472229  153.82600403    0.88000000    2.57999992
   17.58055687  153.82600403    0.88000000    2.57999992
   17.58472252  155.02299500    0.88000000    2.57999992
   17.58777809  160.36300659    0.88000000    2.57999992
   17.59111214  164.18600464    0.88000000    2.57999992
   17.59444427  143.16999817    0.88000000    2.57999992
   17.59777832  137.57000732    0.88000000    2.57999992
   17.60083389  154.88299561    0.88000000    2.57999992
   17.60416794  146.74899292    0.88000000    2.57999992
   17.60722351  149.05799866    0.88000000    2.57999992
   17.60805511  158.68099976    0.88000000    2.57999992
   17.61083412  143.14199829    0.88000000    2.57999992
   17.61416626  161.33000183    0.88000000    2.57999992
   17.61722183  157.38400269    0.88000000    2.57999992
   17.62333298  157.38400269    0.88000000    2.57999992
   17.62750053  143.03900146    0.88000000    2.57999992
   17.63083267  150.44799805    0.88000000    2.57999992
   17.63388824  151.93699646    0.88000000    2.57999992
   17.63722229  151.61099243    0.88000000    2.57999992
   17.64055634  150.61199951    0.88000000    2.57999992
   17.64138794  156.50999451    0.88000000    2.57999992
   17.64388847  152.08399963    0.88000000    2.57999992
   17.64722252  161.15299988    0.88000000    2.57999992
   17.65027809  154.88800049    0.88000000    2.57999992
   17.65361023  159.09800720    0.88000000    2.57999992
   17.65694427  189.46400452    0.88000000    2.57999992
   17.65999985  176.92900085    0.88000000    2.57999992
   17.66611099  176.92900085    0.88000000    2.57999992
   17.67027664  177.45799255    0.88000000    2.57999992
   17.67361069  184.86199951    0.88000000    2.57999992
   17.67472076  171.03500366    0.88000000    2.57999992
   17.67722130  186.34599304    0.88000000    2.57999992
   17.68055534  196.99600220    0.88000000    2.57999992
   17.68388748  171.19999695    0.88000000    2.57999992
   17.68694305  158.23899841    0.88000000    2.57999992
   17.69027710  174.85899353    0.88000000    2.57999992
   17.69333267  176.14999390    0.88000000    2.57999992
   17.69666672  193.28999329    0.88000000    2.57999992
   17.70000076  160.62300110    0.88000000    2.57999992
   17.70305634  156.55999756    0.88000000    2.57999992
   17.70916748  156.55999756    0.88000000    2.57999992
   17.71333504  166.97300720    0.88000000    2.57999992
   17.71638870  169.98300171    0.88000000    2.57999992
   17.71972275  188.46099854    0.88000000    2.57999992
   17.72277832  186.96699524    0.88000000    2.57999992
   17.72611237  195.92100525    0.88000000    2.57999992
   17.72944450  172.15100098    0.88000000    2.57999992
   17.73250008  169.11300659    0.88000000    2.57999992
   17.73583412  169.50599670    0.88000000    2.57999992
   17.73916626  176.14599609    0.88000000    2.57999992
   17.74138832  165.41099548    0.88000000    2.57999992
   17.74250031  164.60000610    0.88000000    2.57999992
   17.74583435  185.92199707    0.88000000    2.57999992
   17.75194359  185.92199707    0.88000000    2.57999992
   17.75611115  180.76100159    0.88000000    2.57999992
   17.75916672  162.54899597    0.88000000    2.57999992
   17.76250076  178.88499451    0.88000000    2.57999992
   17.76583290  153.29200745    0.88000000    2.57999992
   17.76916695  166.76800537    0.88000000    2.57999992
   17.77222252  168.54499817    0.88000000    2.57999992
   17.77472115  177.78999329    0.88000000    2.57999992
   17.77583313  171.08200073    0.88000000    2.57999992
   17.77916718  177.76899719    0.88000000    2.57999992
   17.78222275  171.00000000    0.88000000    2.57999992
   17.78555489  193.31199646    0.88000000    2.57999992
   17.78888893  171.61300659    0.88000000    2.57999992
   17.79472160  171.61300659    0.88000000    2.57999992
   17.79888916  163.85800171    0.88000000    2.57999992
   17.80222130  171.43800354    0.88000000    2.57999992
   17.80527687  165.00599670    0.88000000    2.57999992
   17.80805397  154.72099304    0.88000000    2.57999992
   17.80888748  153.37100220    0.88000000    2.57999992
   17.81222153  150.84300232    0.88000000    2.57999992
   17.81527710  156.57800293    0.88000000    2.57999992
   17.81861115  153.77999878    0.88000000    2.57999992
   17.82194519  170.72700500    0.88000000    2.57999992
   17.82500076  167.87300110    0.88000000    2.57999992
   17.82833481  174.72500610    0.88000000    2.57999992
   17.83139038  171.42599487    0.88000000    2.57999992
   17.83750153  171.42599487    0.88000000    2.57999992
   17.84166718  161.17999268    0.88000000    2.57999992
   17.84500122  176.51600647    0.88000000    2.57999992
   17.84833336  145.39199829    0.88000000    2.57999992
   17.85138893  164.49600220    0.88000000    2.57999992
   17.85472298  163.04499817    0.88000000    2.57999992
   17.85777855  174.71000671    0.88000000    2.57999992
   17.86111069  160.60299683    0.88000000    2.57999992
   17.86444473  162.67799377    0.88000000    2.57999992
   17.86750031  168.06599426    0.88000000    2.57999992
   17.87083435  167.14799500    0.88000000    2.57999992
   17.87416649  146.25799561    0.88000000    2.57999992
   17.87472153  159.80299377    0.88000000    2.57999992
   17.88055611  159.80299377    0.88000000    2.57999992
   17.88472176  176.55799866    0.88000000    2.57999992
   17.88777733  150.83900452    0.88000000    2.57999992
   17.89111137  156.28599548    0.88000000    2.57999992
   17.90861130  172.42500305    0.88000000    2.57999992
   17.91083336  151.59300232    0.88000000    2.57999992
   17.91416550  177.23199463    0.88000000    2.57999992
   17.91749954  164.00700378    0.88000000    2.57999992
   17.92333221  164.00700378    0.88000000    2.57999992
   17.92749977  179.65299988    0.88000000    2.57999992
   17.93083191  172.66999817    0.88000000    2.57999992
   17.93416595  172.20599365    0.88000000    2.57999992
   17.93722153  150.28900146    0.88000000    2.57999992
   17.94055557  160.52000427    0.88000000    2.57999992
   17.94194412  185.48699951    0.88000000    2.57999992
   17.94388771  192.19299316    0.88000000    2.57999992
   17.94722176  160.14599609    0.88000000    2.57999992
   17.95055580  162.00500488    0.88000000    2.57999992
   17.95361137  169.75199890    0.88000000    2.57999992
   17.95694542  158.22599792    0.88000000    2.57999992
   17.96027946  157.46200562    0.88000000    2.57999992
   17.96638870  157.46200562    0.88000000    2.57999992
   17.97027779  159.84500122    0.88000000    2.57999992
   17.97361183  150.45399475    0.88000000    2.57999992
   17.97527885  149.36999512    0.88000000    2.57999992
   17.97722244  139.19700623    0.88000000    2.57999992
   17.98055649  158.92799377    0.88000000    2.57999992
   17.98388863  161.75399780    0.88000000    2.57999992
   17.98694420  148.74499512    0.88000000    2.57999992
   17.99027824  145.86900330    0.88000000    2.57999992
   17.99361229  157.93299866    0.88000000    2.57999992
   17.99666786  161.65299988    0.88000000    2.57999992
   18.00000000  159.34700012    0.88000000    2.57999992
   18.00305557  160.18600464    0.88000000    2.57999992
   18.00916672  160.18600464    0.88000000    2.57999992
   18.01333427  153.69500732    0.88000000    2.57999992
   18.01638794  152.69299316    0.88000000    2.57999992
   18.01972198  149.03999329    0.88000000    2.57999992
   18.02305603  171.82200623    0.88000000    2.57999992
   18.02611160  156.03700256    0.88000000    2.57999992
   18.02944374  144.71000671    0.88000000    2.57999992
   18.03249931  143.54800415    0.88000000    2.57999992
   18.03583336  157.07800293    0.88000000    2.57999992
   18.03916550  155.16400146    0.88000000    2.57999992
   18.04194450  143.43899536    0.88000000    2.57999992
   18.04249954  145.03199768    0.88000000    2.57999992
   18.04583359  162.21699524    0.88000000    2.57999992
   18.05194283  162.21699524    0.88000000    2.57999992
   18.05611038  135.72500610    0.88000000    2.57999992
   18.05944443  142.90600586    0.88000000    2.57999992
   18.06250000  145.39700317    0.88000000    2.57999992
   18.06583214  154.23100281    0.88000000    2.57999992
   18.06916809  157.68499756    0.88000000    2.57999992
   18.07222366  157.39500427    0.88000000    2.57999992
   18.07527924  157.60400391    0.88000000    2.57999992
   18.07583427  160.74499512    0.88000000    2.57999992
   18.07916832  170.63600159    0.88000000    2.57999992
   18.08250046  150.23300171    0.88000000    2.57999992
   18.08555603  168.64999390    0.88000000    2.57999992
   18.08889008  158.83999634    0.88000000    2.57999992
   18.09472275  158.83999634    0.88000000    2.57999992
   18.09889030  154.49000549    0.88000000    2.57999992
   18.10222244  142.76499939    0.88000000    2.57999992
   18.10555649  154.38600159    0.88000000    2.57999992
   18.10861206  160.11900330    0.88000000    2.57999992
   18.10888863  154.54600525    0.88000000    2.57999992
   18.11222267  153.18699646    0.88000000    2.57999992
   18.11555672  139.35299683    0.88000000    2.57999992
   18.11888885  142.20500183    0.88000000    2.57999992
   18.12194443  134.61599731    0.88000000    2.57999992
   18.12527847  165.80799866    0.88000000    2.57999992
   18.12833405  149.38900757    0.88000000    2.57999992
   18.13166618  143.50700378    0.88000000    2.57999992
   18.13777733  143.50700378    0.88000000    2.57999992
   18.14194489  154.56799316    0.88000000    2.57999992
   18.14222145  168.81900024    0.88000000    2.57999992
   18.14555550  150.37300110    0.88000000    2.57999992
   18.14888954  167.72900391    0.88000000    2.57999992
   18.15194321  165.77900696    0.88000000    2.57999992
   18.15527725  169.64300537    0.88000000    2.57999992
   18.15833282  173.47900391    0.88000000    2.57999992
   18.16166687  150.27000427    0.88000000    2.57999992
   18.16499901  161.68600464    0.88000000    2.57999992
   18.16805458  150.97999573    0.88000000    2.57999992
   18.17138863  180.49400330    0.88000000    2.57999992
   18.17472076  180.50100708    0.88000000    2.57999992
   18.17555428  149.58900452    0.88000000    2.57999992
   18.18055534  149.58900452    0.88000000    2.57999992
   18.18472099  151.84700012    0.88000000    2.57999992
   18.18777657  141.14599609    0.88000000    2.57999992
   18.19111061  147.78799438    0.88000000    2.57999992
   18.19444275  145.31300354    0.88000000    2.57999992
   18.19749832  143.26499939    0.88000000    2.57999992
   18.20083427  142.51199341    0.88000000    2.57999992
   18.20388985  148.99499512    0.88000000    2.57999992
   18.20722389  147.95899963    0.88000000    2.57999992
   18.20888901  146.38600159    0.88000000    2.57999992
   18.21083450  130.60600281    0.88000000    2.57999992
   18.21389008  148.62300110    0.88000000    2.57999992
   18.21722221  141.10400391    0.88000000    2.57999992
   18.22333336  141.10400391    0.88000000    2.57999992
   18.22750092  156.41499329    0.88000000    2.57999992
   18.23083305  167.99099731    0.88000000    2.57999992
   18.23388863  150.25000000    0.88000000    2.57999992
   18.23722267  154.09599304    0.88000000    2.57999992
   18.24027824  149.77499390    0.88000000    2.57999992
   18.24222183  141.96499634    0.88000000    2.57999992
   18.24388885  148.94000244    0.88000000    2.57999992
   18.24694443  150.94500732    0.88000000    2.57999992
   18.25027847  146.44700623    0.88000000    2.57999992
   18.25361061  141.87899780    0.88000000    2.57999992
   18.25666618  151.50399780    0.88000000    2.57999992
   18.26000023  155.97900391    0.88000000    2.57999992
   18.26611137  155.97900391    0.88000000    2.57999992
   18.27027702  146.92199707    0.88000000    2.57999992
   18.27361107  147.28999329    0.88000000    2.57999992
   18.27555466  146.16200256    0.88000000    2.57999992
   18.27722168  150.26600647    0.88000000    2.57999992
   18.28055573  141.73399353    0.88000000    2.57999992
   18.28361130  156.89900208    0.88000000    2.57999992
   18.28694344  153.01800537    0.88000000    2.57999992
   18.28999901  156.53700256    0.88000000    2.57999992
   18.29333305  153.67799377    0.88000000    2.57999992
   18.29666710  143.51300049    0.88000000    2.57999992
   18.29972076  153.72799683    0.88000000    2.57999992
   18.30305481  155.66900635    0.88000000    2.57999992
   18.30916595  155.66900635    0.88000000    2.57999992
   18.31333351  150.00999451    0.88000000    2.57999992
   18.31638718  147.72799683    0.88000000    2.57999992
   18.31972313  158.13600159    0.88000000    2.57999992
   18.32277870  151.35200500    0.88000000    2.57999992
   18.32611275  152.01800537    0.88000000    2.57999992
   18.32944489  156.60499573    0.88000000    2.57999992
   18.33250046  134.42199707    0.88000000    2.57999992
   18.33583450  130.28399658    0.88000000    2.57999992
   18.33916664  145.26100159    0.88000000    2.57999992
   18.34222221  139.03500366    0.88000000    2.57999992
   18.34277916  137.76699829    0.88000000    2.57999992
   18.34611130  146.36099243    0.88000000    2.57999992
   18.35194397  146.36099243    0.88000000    2.57999992
   18.35611153  157.48500061    0.88000000    2.57999992
   18.35916710  131.36099243    0.88000000    2.57999992
   18.36250114  141.11599731    0.88000000    2.57999992
   18.36583328  133.03799438    0.88000000    2.57999992
   18.36888885  139.00700378    0.88000000    2.57999992
   18.37222290  134.41299438    0.88000000    2.57999992
   18.37527847  133.15199280    0.88000000    2.57999992
   18.37611198  144.57499695    0.88000000    2.57999992
   18.37916756  134.83900452    0.88000000    2.57999992
   18.38222313  139.47000122    0.88000000    2.57999992
   18.38555527  142.62100220    0.88000000    2.57999992
   18.38861084  149.14599609    0.88000000    2.57999992
   18.39472198  149.14599609    0.88000000    2.57999992
   18.39888954  135.99800110    0.88000000    2.57999992
   18.40222168  144.92999268    0.88000000    2.57999992
   18.40527725  143.85000610    0.88000000    2.57999992
   18.40861130  129.87600708    0.88000000    2.57999992
   18.40944481  138.95300293    0.88000000    2.57999992
   18.41222191  133.64399719    0.88000000    2.57999992
   18.41527748  147.17199707    0.88000000    2.57999992
   18.41860962  135.47700500    0.88000000    2.57999992
   18.42166519  144.14799500    0.88000000    2.57999992
   18.42499924  134.30299377    0.88000000    2.57999992
   18.42833328  131.16400146    0.88000000    2.57999992
   18.43138885  142.49000549    0.88000000    2.57999992
   18.43750000  142.49000549    0.88000000    2.57999992
   18.44166565  141.01600647    0.88000000    2.57999992
   18.44277763  146.61799622    0.88000000    2.57999992
   18.44555473  133.33200073    0.88000000    2.57999992
   18.44861031  137.61199951    0.88000000    2.57999992
   18.45194435  141.16999817    0.88000000    2.57999992
   18.45499992  136.08999634    0.88000000    2.57999992
   18.45833397  137.97900391    0.88000000    2.57999992
   18.46166801  146.09599304    0.88000000    2.57999992
   18.46472359  140.54299927    0.88000000    2.57999992
   18.46805573  139.36799622    0.88000000    2.57999992
   18.47111130  138.38900757    0.88000000    2.57999992
   18.47444534  141.31599426    0.88000000    2.57999992
   18.47611237  141.63200378    0.88000000    2.57999992
   18.48055649  141.63200378    0.88000000    2.57999992
   18.48444557  138.42599487    0.88000000    2.57999992
   18.48777771  134.41999817    0.88000000    2.57999992
   18.49111176  143.59599304    0.88000000    2.57999992
   18.49416733  145.66400146    0.88000000    2.57999992
   18.49749947  140.17799377    0.88000000    2.57999992
   18.50083351  145.87300110    0.88000000    2.57999992
   18.50388908  143.05799866    0.88000000    2.57999992
   18.50722313  146.89300537    0.88000000    2.57999992
   18.50944519  142.55799866    0.88000000    2.57999992
   18.51083374  146.52200317    0.88000000    2.57999992
   18.51388931  146.90699768    0.88000000    2.57999992
   18.51722145  150.22999573    0.88000000    2.57999992
   18.52333260  150.22999573    0.88000000    2.57999992
   18.52750015  157.03599548    0.88000000    2.57999992
   18.53055573  143.18899536    0.88000000    2.57999992
   18.53388786  149.90400696    0.88000000    2.57999992
   18.53722191  144.40600586    0.88000000    2.57999992
   18.54027748  141.27299500    0.88000000    2.57999992
   18.54277802  139.50700378    0.88000000    2.57999992
   18.54416656  148.05700684    0.88000000    2.57999992
   18.54722214  148.44900513    0.88000000    2.57999992
   18.55055428  150.07899475    0.88000000    2.57999992
   18.55360985  152.02799988    0.88000000    2.57999992
   18.55694389  152.28700256    0.88000000    2.57999992
   18.56027794  156.76699829    0.88000000    2.57999992
   18.56611061  156.76699829    0.88000000    2.57999992
   18.57027817  147.26899719    0.88000000    2.57999992
   18.57361221  146.04699707    0.88000000    2.57999992
   18.57611275  137.35000610    0.88000000    2.57999992
   18.57722282  144.45500183    0.88000000    2.57999992
   18.58027840  147.88299561    0.88000000    2.57999992
   18.58361244  156.03300476    0.88000000    2.57999992
   18.58666801  157.22900391    0.88000000    2.57999992
   18.59000015  133.04299927    0.88000000    2.57999992
   18.59333420  132.99600220    0.88000000    2.57999992
   18.59638977  139.33200073    0.88000000    2.57999992
   18.59972191  134.74299622    0.88000000    2.57999992
   18.60305595  137.08900452    0.88000000    2.57999992
   18.60888863  137.08900452    0.88000000    2.57999992
   18.61305618  145.11399841    0.88000000    2.57999992
   18.61638832  138.44999695    0.88000000    2.57999992
   18.61944389  143.54100037    0.88000000    2.57999992
   18.62277794  138.85600281    0.88000000    2.57999992
   18.62611198  148.34899902    0.88000000    2.57999992
   18.62916756  138.38499451    0.88000000    2.57999992
   18.63249969  152.02400208    0.88000000    2.57999992
   18.63583374  148.22900391    0.88000000    2.57999992
   18.63888931  150.03399658    0.88000000    2.57999992
   18.64222145  150.11099243    0.88000000    2.57999992
   18.64388847  145.20100403    0.88000000    2.57999992
   18.64583397  141.59199524    0.88000000    2.57999992
   18.65194321  141.59199524    0.88000000    2.57999992
   18.65583229  145.90600586    0.88000000    2.57999992
   18.65916634  139.07000732    0.88000000    2.57999992
   18.66250038  135.71699524    0.88000000    2.57999992
   18.66555595  138.90600586    0.88000000    2.57999992
   18.66888809  137.25199890    0.88000000    2.57999992
   18.67194366  135.73899841    0.88000000    2.57999992
   18.67527771  138.83599854    0.88000000    2.57999992
   18.67722130  134.70500183    0.88000000    2.57999992
   18.67888832  138.49400330    0.88000000    2.57999992
   18.68222237  147.61300659    0.88000000    2.57999992
   18.68527603  137.50399780    0.88000000    2.57999992
   18.68861008  143.14199829    0.88000000    2.57999992
   18.69472122  143.14199829    0.88000000    2.57999992
   18.69888878  147.74800110    0.88000000    2.57999992
   18.70194435  139.46400452    0.88000000    2.57999992
   18.70527840  152.94000244    0.88000000    2.57999992
   18.70861244  150.71299744    0.88000000    2.57999992
   18.71083450  139.66600037    0.88000000    2.57999992
   18.71222305  133.85099792    0.88000000    2.57999992
   18.71527863  143.01600647    0.88000000    2.57999992
   18.71861076  141.18800354    0.88000000    2.57999992
   18.72194481  130.08500671    0.88000000    2.57999992
   18.72500038  139.76600647    0.88000000    2.57999992
   18.72833443  139.30299377    0.88000000    2.57999992
   18.73139000  143.69500732    0.88000000    2.57999992
   18.73750114  143.69500732    0.88000000    2.57999992
   18.74166679  141.54200745    0.88000000    2.57999992
   18.74416733  140.15400696    0.88000000    2.57999992
   18.74527740  153.46899414    0.88000000    2.57999992
   18.74833298  146.19500732    0.88000000    2.57999992
   18.75166702  148.07400513    0.88000000    2.57999992
   18.75499916  144.81599426    0.88000000    2.57999992
   18.75805473  140.15499878    0.88000000    2.57999992
   18.76138878  140.28799438    0.88000000    2.57999992
   18.76444435  151.39399719    0.88000000    2.57999992
   18.76777840  133.11999512    0.88000000    2.57999992
   18.77111053  140.66900635    0.88000000    2.57999992
   18.77416611  134.69299316    0.88000000    2.57999992
   18.78027725  134.69299316    0.88000000    2.57999992
   18.78444481  138.38900757    0.88000000    2.57999992
   18.78777695  135.39900208    0.88000000    2.57999992
   18.79083252  140.94900513    0.88000000    2.57999992
   18.79416656  148.82299805    0.88000000    2.57999992
   18.79749870  142.54100037    0.88000000    2.57999992
   18.80083275  133.44299316    0.88000000    2.57999992
   18.80388832  137.74899292    0.88000000    2.57999992
   18.80722237  144.67100525    0.88000000    2.57999992
   18.81055450  138.28300476    0.88000000    2.57999992
   18.81138802  141.86700439    0.88000000    2.57999992
   18.81388855  140.55299377    0.88000000    2.57999992
   18.81722260  146.08399963    0.88000000    2.57999992
   18.82333374  146.08399963    0.88000000    2.57999992
   18.82722282  133.72399902    0.88000000    2.57999992
   18.83055687  141.08500671    0.88000000    2.57999992
   18.83388901  138.81900024    0.88000000    2.57999992
   18.83694458  141.36799622    0.88000000    2.57999992
   18.84027863  139.22700500    0.88000000    2.57999992
   18.84361267  132.41499329    0.88000000    2.57999992
   18.84472275  134.65699768    0.88000000    2.57999992
   18.84694481  150.07600403    0.88000000    2.57999992
   18.85027885  146.32400513    0.88000000    2.57999992
   18.85333443  137.60000610    0.88000000    2.57999992
   18.85666656  139.88999939    0.88000000    2.57999992
   18.86000061  132.42799377    0.88000000    2.57999992
   18.86611176  132.42799377    0.88000000    2.57999992
   18.87027740  131.30400085    0.88000000    2.57999992
   18.87333298  125.55000305    0.88000000    2.57999992
   18.87666702  140.96400452    0.88000000    2.57999992
   18.87805557  142.76400757    0.88000000    2.57999992
   18.88027763  138.46899414    0.88000000    2.57999992
   18.88361168  141.34700012    0.88000000    2.57999992
   18.88666725  140.07699585    0.88000000    2.57999992
   18.88999939  140.64599609    0.88000000    2.57999992
   18.89333344  139.05200195    0.88000000    2.57999992
   18.89638901  141.54200745    0.88000000    2.57999992
   18.89972115  146.10000610    0.88000000    2.57999992
   18.90305519  144.83900452    0.88000000    2.57999992
   18.90888786  144.83900452    0.88000000    2.57999992
   18.92722130  138.32299805    0.88000000    2.57999992
   18.93055534  146.25300598    0.88000000    2.57999992
   18.93388748  145.88999939    0.88000000    2.57999992
   18.93694305  131.99200439    0.88000000    2.57999992
   18.94027710  140.60400391    0.88000000    2.57999992
   18.94333267  143.06599426    0.88000000    2.57999992
   18.94666672  133.55599976    0.88000000    2.57999992
   18.95194435  133.55599976    0.88000000    2.57999992
   18.95611191  146.63200378    0.88000000    2.57999992
   18.95916748  142.59399414    0.88000000    2.57999992
   18.96027946  138.19500732    0.88000000    2.57999992
   18.96305656  147.60000610    0.88000000    2.57999992
   18.96611214  132.42199707    0.88000000    2.57999992
   18.96944427  135.35200500    0.88000000    2.57999992
   18.97277832  141.04899597    0.88000000    2.57999992
   18.97583389  148.63600159    0.88000000    2.57999992
   18.97916794  144.23599243    0.88000000    2.57999992
   18.98250008  144.72700500    0.88000000    2.57999992
   18.98555565  131.57400513    0.88000000    2.57999992
   18.98888969  142.53700256    0.88000000    2.57999992
   18.99472237  142.53700256    0.88000000    2.57999992
   18.99888992  132.91299438    0.88000000    2.57999992
   19.00222206  142.56399536    0.88000000    2.57999992
   19.00527763  139.38800049    0.88000000    2.57999992
   19.00861168  132.06500244    0.88000000    2.57999992
   19.01194382  140.56300354    0.88000000    2.57999992
   19.01499939  142.93299866    0.88000000    2.57999992
   19.01833344  149.05499268    0.88000000    2.57999992
   19.02166557  148.36700439    0.88000000    2.57999992
   19.02472115  147.38099670    0.88000000    2.57999992
   19.02694511  156.36799622    0.88000000    2.57999992
   19.02833366  138.23100281    0.88000000    2.57999992
   19.03138924  146.44999695    0.88000000    2.57999992
   19.03777695  146.44999695    0.88000000    2.57999992
   19.04166603  143.78999329    0.88000000    2.57999992
   19.04500008  157.93400574    0.88000000    2.57999992
   19.04833221  146.96299744    0.88000000    2.57999992
   19.05138779  139.10200500    0.88000000    2.57999992
   19.05472183  142.92399597    0.88000000    2.57999992
   19.05805397  138.74099731    0.88000000    2.57999992
   19.06027794  157.05299377    0.88000000    2.57999992
   19.06166649  148.20300293    0.88000000    2.57999992
   19.06499863  151.26300049    0.88000000    2.57999992
   19.06805611  144.86000061    0.88000000    2.57999992
   19.07139015  145.86099243    0.88000000    2.57999992
   19.07444572  146.89999390    0.88000000    2.57999992
   19.08055687  146.89999390    0.88000000    2.57999992
   19.08472252  148.61599731    0.88000000    2.57999992
   19.08777809  152.14500427    0.88000000    2.57999992
   19.09111214  148.90400696    0.88000000    2.57999992
   19.09361267  143.17199707    0.88000000    2.57999992
   19.09472275  140.28300476    0.88000000    2.57999992
   19.09777832  138.24800110    0.88000000    2.57999992
   19.10111237  146.05999756    0.88000000    2.57999992
   19.10444450  136.14700317    0.88000000    2.57999992
   19.10750008  137.03199768    0.88000000    2.57999992
   19.11083412  143.27400208    0.88000000    2.57999992
   19.11416626  145.40899658    0.88000000    2.57999992
   19.11722183  140.14300537    0.88000000    2.57999992
   19.12333298  140.14300537    0.88000000    2.57999992
   19.12750053  141.80400085    0.88000000    2.57999992
   19.13083267  162.29299927    0.88000000    2.57999992
   19.13388824  147.52400208    0.88000000    2.57999992
   19.13722229  148.36099243    0.88000000    2.57999992
   19.14027786  135.33000183    0.88000000    2.57999992
   19.14361191  145.90600586    0.88000000    2.57999992
   19.14694405  148.27400208    0.88000000    2.57999992
   19.14999962  165.17799377    0.88000000    2.57999992
   19.15333366  171.06199646    0.88000000    2.57999992
   19.15666580  150.24000549    0.88000000    2.57999992
   19.15972137  151.05099487    0.88000000    2.57999992
   19.16055489  149.38299561    0.88000000    2.57999992
   19.16611099  149.38299561    0.88000000    2.57999992
   19.17027664  153.46400452    0.88000000    2.57999992
   19.17361069  148.43699646    0.88000000    2.57999992
   19.17666626  166.88200378    0.88000000    2.57999992
   19.18000031  138.21200562    0.88000000    2.57999992
   19.18333244  174.14100647    0.88000000    2.57999992
   19.18638802  147.08799744    0.88000000    2.57999992
   19.18972206  158.78100586    0.88000000    2.57999992
   19.19305420  153.11199951    0.88000000    2.57999992
   19.19361115  151.31300354    0.88000000    2.57999992
   19.19638824  152.43400574    0.88000000    2.57999992
   19.19972038  149.01199341    0.88000000    2.57999992
   19.20277786  152.76600647    0.88000000    2.57999992
   19.20916748  152.76600647    0.88000000    2.57999992
   19.21305656  144.18200684    0.88000000    2.57999992
   19.21638870  145.79299927    0.88000000    2.57999992
   19.21972275  142.41999817    0.88000000    2.57999992
   19.22277832  135.33299255    0.88000000    2.57999992
   19.22611237  140.68499756    0.88000000    2.57999992
   19.22694588  142.01699829    0.88000000    2.57999992
   19.22972298  143.34899902    0.88000000    2.57999992
   19.23305511  157.22200012    0.88000000    2.57999992
   19.23611069  145.50000000    0.88000000    2.57999992
   19.23944473  144.56900024    0.88000000    2.57999992
   19.24277878  141.06100464    0.88000000    2.57999992
   19.24583435  153.17100525    0.88000000    2.57999992
   19.25194359  153.17100525    0.88000000    2.57999992
   19.25611115  145.00599670    0.88000000    2.57999992
   19.25916672  143.57800293    0.88000000    2.57999992
   19.26055527  148.88299561    0.88000000    2.57999992
   19.26277733  144.13600159    0.88000000    2.57999992
   19.26611137  141.19400024    0.88000000    2.57999992
   19.26916695  152.07200623    0.88000000    2.57999992
   19.27249908  142.45199585    0.88000000    2.57999992
   19.27583313  142.92999268    0.88000000    2.57999992
   19.27888870  146.00700378    0.88000000    2.57999992
   19.28222275  141.48100281    0.88000000    2.57999992
   19.28527641  151.61700439    0.88000000    2.57999992
   19.28861046  140.05400085    0.88000000    2.57999992
   19.29472160  140.05400085    0.88000000    2.57999992
   19.29888916  146.04899597    0.88000000    2.57999992
   19.30222130  145.75399780    0.88000000    2.57999992
   19.30527687  137.83900452    0.88000000    2.57999992
   19.30861092  147.09899902    0.88000000    2.57999992
   19.31166649  150.77299500    0.88000000    2.57999992
   19.31499863  142.22900391    0.88000000    2.57999992
   19.31833458  148.65899658    0.88000000    2.57999992
   19.32139015  140.54100037    0.88000000    2.57999992
   19.32472229  141.05999756    0.88000000    2.57999992
   19.32694626  146.40800476    0.88000000    2.57999992
   19.32833481  141.26899719    0.88000000    2.57999992
   19.33166695  140.84199524    0.88000000    2.57999992
   19.33750153  140.84199524    0.88000000    2.57999992
   19.34166718  147.18899536    0.88000000    2.57999992
   19.34500122  134.53399658    0.88000000    2.57999992
   19.34805679  140.24299622    0.88000000    2.57999992
   19.35138893  136.63999939    0.88000000    2.57999992
   19.35472298  137.51800537    0.88000000    2.57999992
   19.35777855  146.85000610    0.88000000    2.57999992
   19.36027908  136.74499512    0.88000000    2.57999992
   19.36138916  136.05900574    0.88000000    2.57999992
   19.36472321  134.30499268    0.88000000    2.57999992
   19.36777878  133.74000549    0.88000000    2.57999992
   19.37111092  137.07200623    0.88000000    2.57999992
   19.37444496  144.75799561    0.88000000    2.57999992
   19.38055611  144.75799561    0.88000000    2.57999992
   19.38444519  140.11799622    0.88000000    2.57999992
   19.38777733  138.94200134    0.88000000    2.57999992
   19.39111137  136.69400024    0.88000000    2.57999992
   19.39361191  146.25300598    0.88000000    2.57999992
   19.39472198  134.38400269    0.88000000    2.57999992
   19.39805603  141.75399780    0.88000000    2.57999992
   19.40111160  144.66200256    0.88000000    2.57999992
   19.40444374  133.45399475    0.88000000    2.57999992
   19.40777779  132.37199402    0.88000000    2.57999992
   19.41083336  147.34599304    0.88000000    2.57999992
   19.41416550  148.16299438    0.88000000    2.57999992
   19.41722107  144.56399536    0.88000000    2.57999992
   19.42333221  144.56399536    0.88000000    2.57999992
   19.42749977  140.02200317    0.88000000    2.57999992
   19.43055534  140.36599731    0.88000000    2.57999992
   19.43388748  142.41499329    0.88000000    2.57999992
   19.43722153  148.87300110    0.88000000    2.57999992
   19.44027710  141.22099304    0.88000000    2.57999992
   19.44361115  139.41000366    0.88000000    2.57999992
   19.44666672  146.10400391    0.88000000    2.57999992
   19.45000076  139.64300537    0.88000000    2.57999992
   19.45333481  142.98199463    0.88000000    2.57999992
   19.45639038  143.01800537    0.88000000    2.57999992
   19.45972252  135.57299805    0.88000000    2.57999992
   19.46055603  139.75199890    0.88000000    2.57999992
   19.46611214  139.75199890    0.88000000    2.57999992
   19.47027779  132.56300354    0.88000000    2.57999992
   19.47361183  130.88600159    0.88000000    2.57999992
   19.47666740  136.17700195    0.88000000    2.57999992
   19.48000145  133.31900024    0.88000000    2.57999992
   19.48333359  136.42300415    0.88000000    2.57999992
   19.48638916  133.14599609    0.88000000    2.57999992
   19.48972321  138.33599854    0.88000000    2.57999992
   19.49305534  138.40199280    0.88000000    2.57999992
   19.49388885  132.03199768    0.88000000    2.57999992
   19.49638939  142.16799927    0.88000000    2.57999992
   19.49972153  149.12699890    0.88000000    2.57999992
   19.50277710  141.50500488    0.88000000    2.57999992
   19.50888824  141.50500488    0.88000000    2.57999992
   19.51305580  134.16499329    0.88000000    2.57999992
   19.51638794  138.63000488    0.88000000    2.57999992
   19.51944351  144.12500000    0.88000000    2.57999992
   19.52277756  143.09500122    0.88000000    2.57999992
   19.52611160  134.89799500    0.88000000    2.57999992
   19.52722168  141.35800171    0.88000000    2.57999992
   19.52944374  135.77000427    0.88000000    2.57999992
   19.53277779  138.04600525    0.88000000    2.57999992
   19.53583336  138.08700562    0.88000000    2.57999992
   19.53916550  138.49299622    0.88000000    2.57999992
   19.54249954  134.06599426    0.88000000    2.57999992
   19.54555511  139.59800720    0.88000000    2.57999992
   19.55194283  139.59800720    0.88000000    2.57999992
   19.55583191  151.97500610    0.88000000    2.57999992
   19.55916595  138.01899719    0.88000000    2.57999992
   19.56055450  146.80999756    0.88000000    2.57999992
   19.56277657  155.52799988    0.88000000    2.57999992
   19.56611061  148.53100586    0.88000000    2.57999992
   19.56944466  149.71400452    0.88000000    2.57999992
   19.57250023  148.57299805    0.88000000    2.57999992
   19.57583427  148.21299744    0.88000000    2.57999992
   19.57916832  133.35899353    0.88000000    2.57999992
   19.58222389  145.55599976    0.88000000    2.57999992
   19.58555603  136.20599365    0.88000000    2.57999992
   19.58861160  137.13299561    0.88000000    2.57999992
   19.59472275  137.13299561    0.88000000    2.57999992
   19.59889030  141.23199463    0.88000000    2.57999992
   19.60194397  132.13200378    0.88000000    2.57999992
   19.60527802  140.95100403    0.88000000    2.57999992
   19.60861206  135.28900146    0.88000000    2.57999992
   19.61166763  137.36700439    0.88000000    2.57999992
   19.61499977  141.30400085    0.88000000    2.57999992
   19.61805534  142.08200073    0.88000000    2.57999992
   19.62138939  134.50799561    0.88000000    2.57999992
   19.62472153  137.40899658    0.88000000    2.57999992
   19.62722206  138.07899475    0.88000000    2.57999992
   19.62805557  138.38000488    0.88000000    2.57999992
   19.63138962  147.54499817    0.88000000    2.57999992
   19.63750076  147.54499817    0.88000000    2.57999992
   19.64166641  136.33599854    0.88000000    2.57999992
   19.64500046  134.41000366    0.88000000    2.57999992
   19.64805603  135.57800293    0.88000000    2.57999992
   19.65138817  146.10699463    0.88000000    2.57999992
   19.65472221  142.63200378    0.88000000    2.57999992
   19.65777779  154.13299561    0.88000000    2.57999992
   19.66055489  160.47599792    0.88000000    2.57999992
   19.66138840  167.03700256    0.88000000    2.57999992
   19.66472244  170.67500305    0.88000000    2.57999992
   19.66777802  192.86300659    0.88000000    2.57999992
   19.67111015  240.36799622    0.88000000    2.57999992
   19.67444420  362.59698486    0.88000000    2.57999992
   19.67638779  115.13300323    0.88000000    2.57999992
   19.67638779  135.57800293    0.88000000    2.57999992
   19.67638779  146.10699463    0.88000000    2.57999992
   19.67638779  142.63200378    0.88000000    2.57999992
   19.67666626  154.13299561    0.88000000    2.57999992
   19.67666626  167.03700256    0.88000000    2.57999992
   19.67666626  170.67500305    0.88000000    2.57999992
   19.67666626  192.86300659    0.88000000    2.57999992
   19.67666626  240.36799622    0.88000000    2.57999992
   19.68111038  240.36799622    0.88000000    2.57999992
   19.68499947   -1.00000000    0.88000000    2.57999992
   19.68833160   -1.00000000    0.88000000    2.57999992
   19.69166565   -1.00000000    0.88000000    2.57999992
   19.69472122   -1.00000000    0.88000000    2.57999992
   19.69805527   -1.00000000    0.88000000    2.57999992
   19.70111275   -1.00000000    0.88000000    2.57999992
   19.70444489   -1.00000000    0.88000000    2.57999992
   19.70777893   -1.00000000    0.88000000    2.57999992
   19.71111107   -1.00000000    0.88000000    2.57999992
   19.71444511   -1.00000000    0.88000000    2.57999992
   19.71750069   -1.00000000    0.88000000    2.57999992
   19.72777748   -1.00000000    0.88000000    2.57999992
   19.73111153   -1.00000000    0.88000000    2.57999992
   19.73416710   -1.00000000    0.88000000    2.57999992
   19.73750114   -1.00000000    0.88000000    2.57999992
   19.74083328   -1.00000000    0.88000000    2.57999992
   19.74416733   -1.00000000    0.88000000    2.57999992
   19.74749947   -1.00000000    0.88000000    2.57999992
   19.75055504   -1.00000000    0.88000000    2.57999992
   19.75388908   -1.00000000    0.88000000    2.57999992
   19.75722313   -1.00000000    0.88000000    2.57999992
   19.76027870   -1.00000000    0.88000000    2.57999992
   19.77055550   -1.00000000    0.88000000    2.57999992
   19.77388954   -1.00000000    0.88000000    2.57999992
   19.77750015   -1.00000000    0.88000000    2.57999992
   19.78083229   -1.00000000    0.88000000    2.57999992
   19.78388786   -1.00000000    0.88000000    2.57999992
   19.78722191   -1.00000000    0.88000000    2.57999992
   19.79055595   -1.00000000    0.88000000    2.57999992
   19.79361153   -1.00000000    0.88000000    2.57999992
   19.79694366   -1.00000000    0.88000000    2.57999992
   19.79999924   -1.00000000    0.88000000    2.57999992
   19.80333328   -1.00000000    0.88000000    2.57999992
   19.81361008   -1.00000000    0.88000000    2.57999992
   19.81666756   -1.00000000    0.88000000    2.57999992
   19.82000160   -1.00000000    0.88000000    2.57999992
   19.82305717   -1.00000000    0.88000000    2.57999992
   19.82638931   -1.00000000    0.88000000    2.57999992
   19.82972336   -1.00000000    0.88000000    2.57999992
   19.83277893   -1.00000000    0.88000000    2.57999992
   19.83611107   -1.00000000    0.88000000    2.57999992
   19.83944511   -1.00000000    0.88000000    2.57999992
   19.84250069   -1.00000000    0.88000000    2.57999992
   19.84611130   -1.00000000    0.88000000    2.57999992
   19.85639000   -1.00000000    0.88000000    2.57999992
   19.85944557   -1.00000000    0.88000000    2.57999992
   19.86277771   -1.00000000    0.88000000    2.57999992
   19.86611176   -1.00000000    0.88000000    2.57999992
   19.86916733   -1.00000000    0.88000000    2.57999992
   19.87249947   -1.00000000    0.88000000    2.57999992
   19.87583351   -1.00000000    0.88000000    2.57999992
   19.87916756   -1.00000000    0.88000000    2.57999992
   19.88249969   -1.00000000    0.88000000    2.57999992
   19.88583374   -1.00000000    0.88000000    2.57999992
   19.88888931   -1.00000000    0.88000000    2.57999992
   19.89916611   -1.00000000    0.88000000    2.57999992
   19.90250015   -1.00000000    0.88000000    2.57999992
   19.90555573   -1.00000000    0.88000000    2.57999992
   19.90888786   -1.00000000    0.88000000    2.57999992
   19.91250038   -1.00000000    0.88000000    2.57999992
   19.91583252   -1.00000000    0.88000000    2.57999992
   19.91888809   -1.00000000    0.88000000    2.57999992
   19.92222214   -1.00000000    0.88000000    2.57999992
   19.92527771   -1.00000000    0.88000000    2.57999992
   19.95166779   -1.00000000    0.88000000    2.57999992
   19.95499992   -1.00000000    0.88000000    2.57999992
   19.95833397   -1.00000000    0.88000000    2.57999992
   19.96138954   -1.00000000    0.88000000    2.57999992
   19.96472359   -1.00000000    0.88000000    2.57999992
   19.96777916   -1.00000000    0.88000000    2.57999992
   19.97111130   -1.00000000    0.88000000    2.57999992
   19.97444534   -1.00000000    0.88000000    2.57999992
   19.97750092   -1.00000000    0.88000000    2.57999992
   19.98111153   -1.00000000    0.88000000    2.57999992
   19.98444557   -1.00000000    0.88000000    2.57999992
   19.99444389   -1.00000000    0.88000000    2.57999992
   19.99777794   -1.00000000    0.88000000    2.57999992
   20.00111198   -1.00000000    0.88000000    2.57999992
   20.00416756   -1.00000000    0.88000000    2.57999992
   20.00749969   -1.00000000    0.88000000    2.57999992
   20.01055527   -1.00000000    0.88000000    2.57999992
   20.01416588   -1.00000000    0.88000000    2.57999992
   20.01749992   -1.00000000    0.88000000    2.57999992
   20.02055550   -1.00000000    0.88000000    2.57999992
   20.02388954   -1.00000000    0.88000000    2.57999992
   20.02722168   -1.00000000    0.88000000    2.57999992
   20.03750038   -1.00000000    0.88000000    2.57999992
   20.04055595   -1.00000000    0.88000000    2.57999992
   20.04388809   -1.00000000    0.88000000    2.57999992
   20.04749870   -1.00000000    0.88000000    2.57999992
   20.05055428   -1.00000000    0.88000000    2.57999992
   20.05388832   -1.00000000    0.88000000    2.57999992
   20.05722237   -1.00000000    0.88000000    2.57999992
   20.06027794   -1.00000000    0.88000000    2.57999992
   20.06361008   -1.00000000    0.88000000    2.57999992
   20.06694603   -1.00000000    0.88000000    2.57999992
   20.07000160   -1.00000000    0.88000000    2.57999992
   20.08027840   -1.00000000    0.88000000    2.57999992
   20.08333397   -1.00000000    0.88000000    2.57999992
   20.08666801   -1.00000000    0.88000000    2.57999992
   20.09000015   -1.00000000    0.88000000    2.57999992
   20.09305573   -1.00000000    0.88000000    2.57999992
   20.09638977   -1.00000000    0.88000000    2.57999992
   20.09972191   -1.00000000    0.88000000    2.57999992
   20.10277748   -1.00000000    0.88000000    2.57999992
   20.10611153   -1.00000000    0.88000000    2.57999992
   20.10916710   -1.00000000    0.88000000    2.57999992
   20.11277771   -1.00000000    0.88000000    2.57999992
   20.12305641   -1.00000000    0.88000000    2.57999992
   20.12638855   -1.00000000    0.88000000    2.57999992
   20.12944412   -1.00000000    0.88000000    2.57999992
   20.13277817   -1.00000000    0.88000000    2.57999992
   20.13611031   -1.00000000    0.88000000    2.57999992
   20.13916588   -1.00000000    0.88000000    2.57999992
   20.14249992   -1.00000000    0.88000000    2.57999992
   20.14611053   -1.00000000    0.88000000    2.57999992
   20.14916611   -1.00000000    0.88000000    2.57999992
   20.15250015   -1.00000000    0.88000000    2.57999992
   20.15583229   -1.00000000    0.88000000    2.57999992
   20.16583252   -1.00000000    0.88000000    2.57999992
   20.16916656   -1.00000000    0.88000000    2.57999992
   20.17222214   -1.00000000    0.88000000    2.57999992
   20.17555428   -1.00000000    0.88000000    2.57999992
   20.17916679   -1.00000000    0.88000000    2.57999992
   20.18222237   -1.00000000    0.88000000    2.57999992
   20.18555450   -1.00000000    0.88000000    2.57999992
   20.18888855   -1.00000000    0.88000000    2.57999992
   20.19194412   -1.00000000    0.88000000    2.57999992
   20.19527626   -1.00000000    0.88000000    2.57999992
   20.19861031   -1.00000000    0.88000000    2.57999992
   20.20888901   -1.00000000    0.88000000    2.57999992
   20.21194458   -1.00000000    0.88000000    2.57999992
   20.21555710   -1.00000000    0.88000000    2.57999992
   20.21888924   -1.00000000    0.88000000    2.57999992
   20.22222328   -1.00000000    0.88000000    2.57999992
   20.22527885   -1.00000000    0.88000000    2.57999992
   20.22861099   -1.00000000    0.88000000    2.57999992
   20.23194504   -1.00000000    0.88000000    2.57999992
   20.23500061   -1.00000000    0.88000000    2.57999992
   20.23833275   -1.00000000    0.88000000    2.57999992
   20.24138832   -1.00000000    0.88000000    2.57999992
   20.25166702   -1.00000000    0.88000000    2.57999992
   20.25472260   -1.00000000    0.88000000    2.57999992
   20.25805473   -1.00000000    0.88000000    2.57999992
   20.26138878   -1.00000000    0.88000000    2.57999992
   20.26444435   -1.00000000    0.88000000    2.57999992
   20.26777840   -1.00000000    0.88000000    2.57999992
   20.27083397   -1.00000000    0.88000000    2.57999992
   20.27416611   -1.00000000    0.88000000    2.57999992
   20.27750015   -1.00000000    0.88000000    2.57999992
   20.28083229   -1.00000000    0.88000000    2.57999992
   20.28416634   -1.00000000    0.88000000    2.57999992
   20.29444313   -1.00000000    0.88000000    2.57999992
   20.29777718   -1.00000000    0.88000000    2.57999992
   20.30083275   -1.00000000    0.88000000    2.57999992
   20.30416679   -1.00000000    0.88000000    2.57999992
   20.30722237   -1.00000000    0.88000000    2.57999992
   20.31055450   -1.00000000    0.88000000    2.57999992
   20.31388855   -1.00000000    0.88000000    2.57999992
   20.31722260   -1.00000000    0.88000000    2.57999992
   20.32055664   -1.00000000    0.88000000    2.57999992
   20.32361221   -1.00000000    0.88000000    2.57999992
   20.32694626   -1.00000000    0.88000000    2.57999992
   20.33722305   -1.00000000    0.88000000    2.57999992
   20.34055710   -1.00000000    0.88000000    2.57999992
   20.34361267   -1.00000000    0.88000000    2.57999992
   20.34749985   -1.00000000    0.88000000    2.57999992
   20.35055542   -1.00000000    0.88000000    2.57999992
   20.35388947   -1.00000000    0.88000000    2.57999992
   20.35694504   -1.00000000    0.88000000    2.57999992
   20.36027908   -1.00000000    0.88000000    2.57999992
   20.36361122   -1.00000000    0.88000000    2.57999992
   20.36666679   -1.00000000    0.88000000    2.57999992
   20.37000084   -1.00000000    0.88000000    2.57999992
   20.38000107   -1.00000000    0.88000000    2.57999992
   20.38333321   -1.00000000    0.88000000    2.57999992
   20.38666725   -1.00000000    0.88000000    2.57999992
   20.38972282   -1.00000000    0.88000000    2.57999992
   20.39305496   -1.00000000    0.88000000    2.57999992
   20.39638901   -1.00000000    0.88000000    2.57999992
   20.39944458   -1.00000000    0.88000000    2.57999992
   20.40277672   -1.00000000    0.88000000    2.57999992
   20.40583229   -1.00000000    0.88000000    2.57999992
   20.40916634   -1.00000000    0.88000000    2.57999992
   20.41250038   -1.00000000    0.88000000    2.57999992
   20.42305565   -1.00000000    0.88000000    2.57999992
   20.42611122   -1.00000000    0.88000000    2.57999992
   20.42944336   -1.00000000    0.88000000    2.57999992
   20.43277740   -1.00000000    0.88000000    2.57999992
   20.43583298   -1.00000000    0.88000000    2.57999992
   20.43916512   -1.00000000    0.88000000    2.57999992
   20.44222069   -1.00000000    0.88000000    2.57999992
   20.44555473   -1.00000000    0.88000000    2.57999992
   20.44916534   -1.00000000    0.88000000    2.57999992
   20.45250130   -1.00000000    0.88000000    2.57999992
   20.45555687   -1.00000000    0.88000000    2.57999992
   20.46583366   -1.00000000    0.88000000    2.57999992
   20.46916771   -1.00000000    0.88000000    2.57999992
   20.47222328   -1.00000000    0.88000000    2.57999992
   20.47555542   -1.00000000    0.88000000    2.57999992
   20.47861099   -1.00000000    0.88000000    2.57999992
   20.48222351   -1.00000000    0.88000000    2.57999992
   20.48555565   -1.00000000    0.88000000    2.57999992
   20.48861122   -1.00000000    0.88000000    2.57999992
   20.49194527   -1.00000000    0.88000000    2.57999992
   20.49500084   -1.00000000    0.88000000    2.57999992
   20.49833298   -1.00000000    0.88000000    2.57999992
   20.50861168   -1.00000000    0.88000000    2.57999992
   20.51194382   -1.00000000    0.88000000    2.57999992
   20.51555634   -1.00000000    0.88000000    2.57999992
   20.51888847   -1.00000000    0.88000000    2.57999992
   20.52194405   -1.00000000    0.88000000    2.57999992
   20.52527809   -1.00000000    0.88000000    2.57999992
   20.52833366   -1.00000000    0.88000000    2.57999992
   20.53166580   -1.00000000    0.88000000    2.57999992
   20.53499985   -1.00000000    0.88000000    2.57999992
   20.53805542   -1.00000000    0.88000000    2.57999992
   20.54138756   -1.00000000    0.88000000    2.57999992
   20.55138779   -1.00000000    0.88000000    2.57999992
   20.55472183   -1.00000000    0.88000000    2.57999992
   20.55805397   -1.00000000    0.88000000    2.57999992
   20.56110954   -1.00000000    0.88000000    2.57999992
   20.56444359   -1.00000000    0.88000000    2.57999992
   20.56777954   -1.00000000    0.88000000    2.57999992
   20.57083511   -1.00000000    0.88000000    2.57999992
   20.57416725   -1.00000000    0.88000000    2.57999992
   20.57722282   -1.00000000    0.88000000    2.57999992
   20.58083344   -1.00000000    0.88000000    2.57999992
   20.58416748   -1.00000000    0.88000000    2.57999992
   20.59444427   -1.00000000    0.88000000    2.57999992
   20.59749985   -1.00000000    0.88000000    2.57999992
   20.60083389   -1.00000000    0.88000000    2.57999992
   20.60416794   -1.00000000    0.88000000    2.57999992
   20.60722351   -1.00000000    0.88000000    2.57999992
   20.61055565   -1.00000000    0.88000000    2.57999992
   20.61416626   -1.00000000    0.88000000    2.57999992
   20.61722183   -1.00000000    0.88000000    2.57999992
   20.62055588   -1.00000000    0.88000000    2.57999992
   20.62388992   -1.00000000    0.88000000    2.57999992
   20.62694550   -1.00000000    0.88000000    2.57999992
   20.63722229   -1.00000000    0.88000000    2.57999992
   20.64027786   -1.00000000    0.88000000    2.57999992
   20.64361191   -1.00000000    0.88000000    2.57999992
   20.64722252   -1.00000000    0.88000000    2.57999992
   20.65027809   -1.00000000    0.88000000    2.57999992
   20.65361023   -1.00000000    0.88000000    2.57999992
   20.65694427   -1.00000000    0.88000000    2.57999992
   20.65999985   -1.00000000    0.88000000    2.57999992
   20.66333389   -1.00000000    0.88000000    2.57999992
   20.66666603   -1.00000000    0.88000000    2.57999992
   20.66972160   -1.00000000    0.88000000    2.57999992
   20.68000031   -1.00000000    0.88000000    2.57999992
   20.68333244   -1.00000000    0.88000000    2.57999992
   20.68638802   -1.00000000    0.88000000    2.57999992
   20.68972206   -1.00000000    0.88000000    2.57999992
   20.69305420   -1.00000000    0.88000000    2.57999992
   20.69610977   -1.00000000    0.88000000    2.57999992
   20.69944382   -1.00000000    0.88000000    2.57999992
   20.70250130   -1.00000000    0.88000000    2.57999992
   20.70583344   -1.00000000    0.88000000    2.57999992
   20.70916748   -1.00000000    0.88000000    2.57999992
   20.71222305   -1.00000000    0.88000000    2.57999992
   20.72277832   -1.00000000    0.88000000    2.57999992
   20.72611237   -1.00000000    0.88000000    2.57999992
   20.72944450   -1.00000000    0.88000000    2.57999992
   20.73250008   -1.00000000    0.88000000    2.57999992
   20.73583412   -1.00000000    0.88000000    2.57999992
   20.73888969   -1.00000000    0.88000000    2.57999992
   20.74222183   -1.00000000    0.88000000    2.57999992
   20.74555588   -1.00000000    0.88000000    2.57999992
   20.74888992   -1.00000000    0.88000000    2.57999992
   20.75222206   -1.00000000    0.88000000    2.57999992
   20.75527763   -1.00000000    0.88000000    2.57999992
   20.76583290   -1.00000000    0.88000000    2.57999992
   20.76888847   -1.00000000    0.88000000    2.57999992
   20.77222252   -1.00000000    0.88000000    2.57999992
   20.77527809   -1.00000000    0.88000000    2.57999992
   20.77861023   -1.00000000    0.88000000    2.57999992
   20.78222275   -1.00000000    0.88000000    2.57999992
   20.78555489   -1.00000000    0.88000000    2.57999992
   20.78861046   -1.00000000    0.88000000    2.57999992
   20.79194450   -1.00000000    0.88000000    2.57999992
   20.79527664   -1.00000000    0.88000000    2.57999992
   20.79833221   -1.00000000    0.88000000    2.57999992
   20.80861092   -1.00000000    0.88000000    2.57999992
   20.81194305   -1.00000000    0.88000000    2.57999992
   20.81527710   -1.00000000    0.88000000    2.57999992
   20.81861115   -1.00000000    0.88000000    2.57999992
   20.82166672   -1.00000000    0.88000000    2.57999992
   20.82500076   -1.00000000    0.88000000    2.57999992
   20.82833481   -1.00000000    0.88000000    2.57999992
   20.83139038   -1.00000000    0.88000000    2.57999992
   20.83472252   -1.00000000    0.88000000    2.57999992
   20.83777809   -1.00000000    0.88000000    2.57999992
   20.84111214   -1.00000000    0.88000000    2.57999992
   20.85138893   -1.00000000    0.88000000    2.57999992
   20.85472298   -1.00000000    0.88000000    2.57999992
   20.85777855   -1.00000000    0.88000000    2.57999992
   20.86111069   -1.00000000    0.88000000    2.57999992
   20.86444473   -1.00000000    0.88000000    2.57999992
   20.86750031   -1.00000000    0.88000000    2.57999992
   20.87083435   -1.00000000    0.88000000    2.57999992
   20.87388992   -1.00000000    0.88000000    2.57999992
   20.87722206   -1.00000000    0.88000000    2.57999992
   20.88083267   -1.00000000    0.88000000    2.57999992
   20.88416672   -1.00000000    0.88000000    2.57999992
   20.89416695   -1.00000000    0.88000000    2.57999992
   20.89749908   -1.00000000    0.88000000    2.57999992
   20.90083313   -1.00000000    0.88000000    2.57999992
   20.90388870   -1.00000000    0.88000000    2.57999992
   20.90722275   -1.00000000    0.88000000    2.57999992
   20.91027832   -1.00000000    0.88000000    2.57999992
   20.91388893   -1.00000000    0.88000000    2.57999992
   20.91722107   -1.00000000    0.88000000    2.57999992
