    HOUR (UT)   FLARE FACTOR    SKY TESTER    SUN TESTER
   12.27138901   -1.00000000   -1.00000000   -1.00000000
   12.29194450  139.95399475    1.78999996    1.66999996
   12.29638958  119.29799652    2.51999998    1.80999994
   12.29972267  114.60299683    2.80999994    1.76999998
   12.30305576  107.29499817    3.25000000    1.78999996
   12.30611134  112.37500000    3.48000002    1.80999994
   12.30944443  176.55400085    3.45000005    1.83000004
   12.31250000   -1.00000000    3.59999990    1.28999996
   12.31583309  150.05999756    4.26000023    0.98000002
   12.31916618  206.19500732    4.90999985    1.01999998
   12.32222176  114.21199799    4.90999985    1.50000000
   12.32444477  242.88999939    4.90999985    1.69000006
   12.32611084  233.51899719    4.90999985    1.53999996
   12.32916641  165.74200439    4.90999985    1.39999998
   12.33222198  123.14700317    4.90999985    1.53999996
   12.33555508  118.67900085    4.90999985    1.71000004
   12.33888817  111.07800293    4.90999985    1.85000002
   12.34194374  131.63800049    4.90999985    1.75000000
   12.34527779  158.06599426    4.90999985    1.73000002
   12.34861088  121.94599915    4.90999985    1.80999994
   12.35166740  116.22399902    4.90999985    1.86000001
   12.35500050  106.25900269    4.90999985    1.89999998
   12.35777855  112.92700195    4.90999985    1.89999998
   12.35861111  111.44499969    4.90999985    1.89999998
   12.36194515  108.44400024    4.90999985    1.89999998
   12.36555576  114.63999939    4.90999985    1.85000002
   12.36861134  137.85600281    4.90999985    1.69000006
   12.37194443  126.48500061    4.90999985    1.78999996
   12.37527752  111.53399658    4.90999985    1.88000000
   12.37861156  112.25599670    4.90999985    1.88000000
   12.38166714  116.04599762    4.90999985    1.94000006
   12.38500023  103.40599823    4.90999985    1.89999998
   12.38805580  104.42400360    4.90999985    1.94000006
   12.39111137  103.30500031    4.90999985    1.96000004
   12.39166641   99.00460052    4.90999985    1.96000004
   12.39499950  100.23799896    4.90999985    1.94000006
   12.39833355  102.80200195    4.90999985    1.91999996
   12.40138817  100.56600189    4.90999985    1.94000006
   12.40472221  110.49600220    4.90999985    1.94000006
   12.40777779  102.31099701    4.90999985    1.91999996
   12.41111088  109.38300323    4.90999985    1.94000006
   12.41444397  113.05599976    4.90999985    1.91999996
   12.41777802  117.67199707    4.90999985    1.94000006
   12.42083359  112.98500061    4.90999985    1.94000006
   12.42416668  109.10800171    4.90999985    1.94000006
   12.42472267  114.85299683    4.90999985    1.94000006
   12.42777824  109.18000031    4.90999985    1.94000006
   12.43111134  120.67800140    4.86999989    1.94000006
   12.43444443  115.26000214    4.88999987    1.94000006
   12.43750000  111.84999847    4.78000021    1.94000006
   12.44083309  119.67299652    4.36999989    1.94000006
   12.44416714  120.63500214    3.78999996    1.94000006
   12.44722271  108.40499878    3.53999996    1.96000004
   12.45055580  103.25299835    3.28999996    1.96000004
   12.45361137  112.09300232    3.05999994    1.96000004
   12.45694447  100.12799835    2.84999990    1.96000004
   12.45805550  119.02100372    2.82999992    1.96000004
   12.46055508  106.22299957    2.84999990    1.96000004
   12.46388912  101.57299805    2.94000006    1.96000004
   12.46722221   98.60939789    2.96000004    1.96000004
   12.47027779  119.87899780    2.73000002    1.98000002
   12.47361088  111.95099640    2.25000000    1.98000002
   12.47666645  109.79299927    1.71000004    1.98000002
   12.47999954  112.29399872    1.44000006    1.98000002
   12.48333359  106.40299988    1.16999996    1.98000002
   12.48638916  105.86000061    1.05999994    1.98000002
   12.48972225  107.66000366    1.07000005    1.98000002
   12.49138927  111.53099823    1.14999998    1.98000002
   12.49333382  112.20999908    1.33000004    1.98000002
   12.49666691  113.10700226    1.39999998    1.98000002
   12.50000000  113.25700378    1.63000000    2.00000000
   12.50305557  106.30100250    1.85000002    2.00000000
   12.50638866  106.40100098    1.89999998    1.98000002
   12.50944424  109.38600159    2.21000004    2.00000000
   12.51277733  110.98300171    2.36999989    2.00000000
   12.51611137  109.62500000    2.71000004    2.00000000
   12.51916599  111.97000122    2.69000006    2.00000000
   12.52250004  110.41300201    2.67000008    2.01999998
   12.52472210  105.08100128    2.66000009    2.01999998
   12.52611065   97.76979828    2.66000009    2.01999998
   12.52944374  110.28299713    2.75000000    2.01999998
   12.53277779  107.19200134    2.93000007    2.01999998
   12.53583336  105.08999634    3.07999992    2.01999998
   12.53916740  109.70500183    3.26999998    2.01999998
   12.54222298  107.49400330    3.34999990    2.03999996
   12.54555607  121.47799683    3.28999996    2.03999996
   12.54888916  107.52600098    3.07999992    2.03999996
   12.55194473  115.74800110    2.80999994    2.03999996
   12.55527782  110.48400116    2.64000010    2.05999994
   12.55805588  107.05799866    2.67000008    2.05999994
   12.55888939  119.64099884    2.73000002    2.05999994
   12.56222248  107.75800323    2.91000009    1.94000006
   12.56555557  130.24299622    2.98000002    1.88000000
   12.56861115  134.71600342    2.98000002    1.85000002
   12.57194424  102.92900085    2.89000010    1.89999998
   12.57499981  112.54100037    2.59999990    2.00000000
   12.57861137  106.19499969    2.30999994    2.03999996
   12.58194447  105.85199738    1.83000004    2.03999996
   12.58500004   99.87750244    1.63000000    2.03999996
   12.58833313  103.59799957    1.34000003    2.03999996
   12.59138870  104.44000244    1.28999996    2.05999994
   12.59194374  111.43499756    1.13000000    2.05999994
   12.59527779  111.78399658    1.05999994    2.05999994
   12.59833336  115.58699799    0.98000002    2.05999994
   12.60166740  111.73699951    0.92000002    2.03999996
   12.60500050  108.59600067    0.92000002    2.03999996
   12.60805607  110.70600128    0.89999998    2.03999996
   12.61138916  104.67099762    0.83999997    2.03999996
   12.61472225  111.67199707    0.83999997    2.03999996
   12.61777782  114.14800262    0.81999999    2.03999996
   12.62111092  108.45099640    0.80000001    2.01999998
   12.62416649  121.30100250    0.79000002    2.03999996
   12.62472248  116.76499939    0.79000002    2.03999996
   12.62805557  108.73999786    0.76999998    2.05999994
   12.63138866  123.91300201    0.76999998    2.05999994
   12.63444424  114.76100159    0.76999998    2.07999992
   12.63777733  117.17700195    0.79000002    2.05999994
   12.64111137  109.12500000    0.75000000    2.07999992
   12.64416695  124.22499847    0.75000000    2.07999992
   12.64750004  120.69799805    0.75000000    2.07999992
   12.65055561  105.49099731    0.70999998    2.07999992
   12.65388870  103.13200378    0.67000002    2.07999992
   12.65722179  116.62699890    0.64999998    2.07999992
   12.65805531  115.78500366    0.64999998    2.07999992
   12.66083336  111.78199768    0.61000001    2.07999992
   12.66416645  123.31099701    0.58999997    2.07999992
   12.66722298  117.44100189    0.58999997    2.07999992
   12.67055607  105.78299713    0.61000001    2.07999992
   12.67388916  111.39399719    0.58999997    2.09999990
   12.67694473  108.02600098    0.56999999    2.09999990
   12.68027782  116.15599823    0.56999999    2.09999990
   12.68361092  114.45999908    0.58999997    2.09999990
   12.68666649  122.98600006    0.58999997    2.09999990
   12.69000053  112.59500122    0.64999998    2.09999990
   12.69138908  127.82399750    0.70999998    2.09999990
   12.69361115  109.54100037    0.70999998    2.09999990
   12.69694424  108.30300140    0.76999998    2.09999990
   12.69999981  105.51100159    0.83999997    2.09999990
   12.70333290  109.06800079    0.88000000    2.11999989
   12.70666695  110.71700287    0.92000002    2.11999989
   12.70972157  106.45600128    0.92000002    2.11999989
   12.71305561  118.46900177    0.95999998    2.11999989
   12.71638870  106.06400299    0.94000000    2.11999989
   12.71944427  121.40100098    0.83999997    2.11999989
   12.72277737  116.85600281    0.75000000    2.11999989
   12.72472191  116.96399689    0.75000000    2.11999989
   12.72638798  120.03299713    0.64999998    2.11999989
   12.72972202  112.69499969    0.64999998    2.11999989
   12.73277760  109.08599854    0.56999999    2.13000011
   12.73611164  109.44200134    0.51999998    2.13000011
   12.73944473  115.07800293    0.47999999    2.13000011
   12.74250031  124.70800018    0.47999999    2.13000011
   12.74583340  120.11799622    0.46000001    2.13000011
   12.74916649  109.75299835    0.44000000    2.13000011
   12.75222206  112.83499908    0.44000000    2.13000011
   12.75555515  116.76399994    0.44000000    2.13000011
   12.75833321  105.47299957    0.44000000    2.13000011
   12.75916672  106.04100037    0.44000000    2.13000011
   12.76249981  106.95099640    0.44000000    2.13000011
   12.76555538  109.83300018    0.44000000    2.15000010
   12.76888847  110.91699982    0.44000000    2.13000011
   12.77222157  108.39199829    0.41999999    2.15000010
   12.77527714  103.06300354    0.41999999    2.15000010
   12.77861118  116.36299896    0.44000000    2.13000011
   12.78194427  110.55599976    0.44000000    2.15000010
   12.78500080  115.10500336    0.41999999    2.15000010
   12.78833389  108.11000061    0.41999999    2.15000010
   12.79166698  114.38600159    0.41999999    2.15000010
   12.79194450  109.32800293    0.41999999    2.15000010
   12.79527855  104.95099640    0.41999999    2.15000010
   12.79833412  106.32099915    0.41999999    2.15000010
   12.80166721  108.91400146    0.41999999    2.15000010
   12.80500031  102.83000183    0.41999999    2.15000010
   12.80805588  101.61499786    0.41999999    2.15000010
   12.81138897  112.93599701    0.41999999    2.15000010
   12.81472206  106.46299744    0.41999999    2.17000008
   12.81777763  105.60600281    0.41999999    2.15000010
   12.82111073  108.48400116    0.41999999    2.15000010
   12.82416630  102.71700287    0.41999999    2.17000008
   12.82499981  102.19899750    0.41999999    2.17000008
   12.82777786  103.10500336    0.41999999    2.17000008
   12.83111095  104.22000122    0.41999999    2.17000008
   12.83416653  107.67500305    0.41999999    2.17000008
   12.83749962  115.41300201    0.41999999    2.17000008
   12.84083271  110.35800171    0.41999999    2.17000008
   12.84388828  112.97899628    0.41999999    2.17000008
   12.84722233  103.54499817    0.41999999    2.17000008
   12.85055637  113.82299805    0.41999999    2.17000008
   12.85361195  105.31900024    0.41999999    2.19000006
   12.85694504  102.76899719    0.41999999    2.19000006
   12.85833359  111.53800201    0.41999999    2.19000006
   12.86055565  114.82800293    0.41999999    2.19000006
   12.86388969  110.33699799    0.41999999    2.19000006
   12.86694431  107.54299927    0.41999999    2.19000006
   12.87027836   96.54640198    0.41999999    2.19000006
   12.87361145  101.17199707    0.41999999    2.19000006
   12.87666702  114.41400146    0.41999999    2.19000006
   12.88000011   97.32980347    0.41999999    2.19000006
   12.88333321  100.33399963    0.41999999    2.21000004
   12.88638878  103.61499786    0.41999999    2.21000004
   12.88972187  109.78700256    0.41999999    2.19000006
   12.89166641  104.29900360    0.41999999    2.19000006
   12.89333344   97.05799866    0.41999999    2.19000006
   12.89666653  107.98899841    0.41999999    2.21000004
   12.89972210  110.29199982    0.41999999    2.21000004
   12.90305519  104.41000366    0.41999999    2.21000004
   12.90638828  110.84300232    0.41999999    2.21000004
   12.90944386  105.87999725    0.41999999    2.21000004
   12.91277695   98.15789795    0.41999999    2.21000004
   12.91611099  107.95899963    0.41999999    2.21000004
   12.91916656  100.13300323    0.41999999    2.21000004
   12.92250061  103.25000000    0.41999999    2.21000004
   12.92500019  101.21800232    0.41999999    2.21000004
   12.92638874  103.22299957    0.41999999    2.21000004
   12.92944431  103.84899902    0.41999999    2.21000004
   12.93277836  103.24299622    0.41999999    2.21000004
   12.93611145  102.84700012    0.41999999    2.21000004
   12.93916702  102.06400299    0.41999999    2.21000004
   12.94250011  105.54599762    0.41999999    2.23000002
   12.94583321  116.84100342    0.41999999    2.23000002
   12.94888878  110.55100250    0.41999999    2.23000002
   12.95222187  106.49099731    0.41999999    2.23000002
   12.95527744   97.95860291    0.41999999    2.23000002
   12.95833302  101.13899994    0.41999999    2.23000002
   12.95888901  112.76999664    0.41999999    2.23000002
   12.96222210  104.72200012    0.41999999    2.23000002
   12.96527767  103.88099670    0.41999999    2.23000002
   12.96861076  105.11900330    0.41999999    2.23000002
   12.97194386   99.22579956    0.41999999    2.23000002
   12.97499943  107.25299835    0.41999999    2.23000002
   12.97833252  107.96199799    0.41999999    2.23000002
   12.98166656  103.28800201    0.40000001    2.25000000
   12.98472214   97.81610107    0.41999999    2.23000002
   12.98805618  107.23300171    0.40000001    2.23000002
   12.99111176  109.99099731    0.41999999    2.25000000
   12.99166679  110.27200317    0.41999999    2.25000000
   12.99472237  106.41600037    0.41999999    2.25000000
   12.99805546  110.01499939    0.41999999    2.25000000
   13.00138855  103.86900330    0.40000001    2.25000000
   13.00444412  102.48100281    0.40000001    2.25000000
   13.00777817  106.59300232    0.40000001    2.25000000
   13.01111126   99.25129700    0.40000001    2.25000000
   13.01416683  105.20700073    0.40000001    2.25000000
   13.01749992  103.01399994    0.40000001    2.25000000
   13.02083302  105.06900024    0.40000001    2.25000000
   13.02388859  100.62699890    0.40000001    2.25000000
   13.02499962  101.97599792    0.40000001    2.25000000
   13.02750015  106.17600250    0.40000001    2.25000000
   13.03083324  100.88500214    0.40000001    2.25000000
   13.03416729  111.00900269    0.38000000    2.26999998
   13.03722286  118.66200256    0.38000000    2.25000000
   13.04055595  102.29699707    0.38000000    2.25000000
   13.04388905  106.49400330    0.38000000    2.25000000
   13.04694462  108.81300354    0.38000000    2.25000000
   13.05027771  107.71700287    0.36000001    2.26999998
   13.05333328  107.80799866    0.38000000    2.25000000
   13.05666733  100.72299957    0.38000000    2.26999998
   13.05833340  104.79399872    0.38000000    2.26999998
   13.06027794  109.94899750    0.36000001    2.26999998
   13.06361103  112.98100281    0.36000001    2.26999998
   13.06694412  109.36699677    0.38000000    2.26999998
   13.06999969  112.34799957    0.38000000    2.26999998
   13.07333374  112.59500122    0.36000001    2.26999998
   13.07666683  107.51799774    0.36000001    2.26999998
   13.07972240   98.74359894    0.36000001    2.26999998
   13.08305550   98.85649872    0.36000001    2.26999998
   13.08638859   99.05339813    0.36000001    2.28999996
   13.08972168  113.40699768    0.36000001    2.26999998
   13.09166622  110.37899780    0.36000001    2.26999998
   13.09305477  106.79100037    0.36000001    2.26999998
   13.09638882  114.62000275    0.38000000    2.26999998
   13.09972191  107.38099670    0.36000001    2.28999996
   13.10277843  116.27600098    0.36000001    2.28999996
   13.10611153  118.01200104    0.36000001    2.28999996
   13.10944462  112.09799957    0.36000001    2.28999996
   13.11250019  110.05899811    0.36000001    2.28999996
   13.11583328  102.25900269    0.36000001    2.28999996
   13.11888885  111.44000244    0.36000001    2.28999996
   13.12222195  112.02400208    0.36000001    2.28999996
   13.12500000  103.51499939    0.36000001    2.28999996
   13.12583351  112.84799957    0.36000001    2.28999996
   13.12916660  107.01899719    0.36000001    2.28999996
   13.13249969  101.89800262    0.36000001    2.30999994
   13.13555527   98.06529999    0.36000001    2.28999996
   13.13888836  105.00900269    0.34000000    2.30999994
   13.14222240  106.48899841    0.34000000    2.30999994
   13.14527798  101.32299805    0.36000001    2.28999996
   13.14861107  111.29799652    0.36000001    2.28999996
   13.15222168  111.16600037    0.34000000    2.30999994
   13.15527725  110.25199890    0.34000000    2.30999994
   13.15833282   97.88690186    0.34000000    2.30999994
   13.15916634  105.93199921    0.34000000    2.30999994
   13.16222191  108.53399658    0.36000001    2.30999994
   13.16555500  108.82700348    0.34000000    2.30999994
   13.16861153  105.19100189    0.34000000    2.30999994
   13.17194462  117.57099915    0.36000001    2.30999994
   13.17527771  103.97100067    0.34000000    2.30999994
   13.17833328  107.72100067    0.34000000    2.30999994
   13.18166733  102.79299927    0.36000001    2.30999994
   13.18500042  100.33899689    0.34000000    2.32999992
   13.18805599  103.45999908    0.36000001    2.30999994
   13.19138908  109.04499817    0.36000001    2.30999994
   13.19194412  111.05699921    0.34000000    2.30999994
   13.19499969  108.88200378    0.34000000    2.30999994
   13.19833374  107.92299652    0.34000000    2.30999994
   13.20138836  105.42800140    0.34000000    2.32999992
   13.20472240  107.08399963    0.34000000    2.30999994
   13.20805550   97.95739746    0.34000000    2.30999994
   13.21111107   98.53739929    0.34000000    2.32999992
   13.21444416  108.34999847    0.34000000    2.32999992
   13.21777725  105.95200348    0.34000000    2.32999992
   13.22083282   75.25389862    0.34000000    2.30999994
   13.22416592   -1.00000000    0.36000001    2.32999992
   13.22749996   -1.00000000    0.34000000    2.30999994
   13.31472206   -1.00000000   -1.00000000   -1.00000000
   13.41861153   -1.00000000   -1.00000000   -1.00000000
   13.52055550   -1.00000000   -1.00000000   -1.00000000
   13.61722279   -1.00000000   -1.00000000   -1.00000000
   13.71583271   -1.00000000   -1.00000000   -1.00000000
   13.81555557   -1.00000000   -1.00000000   -1.00000000
   13.91249943   -1.00000000   -1.00000000   -1.00000000
   14.01138878   -1.00000000   -1.00000000   -1.00000000
   14.11111164   -1.00000000   -1.00000000   -1.00000000
   14.14361095   74.94429779    0.56999999    2.50000000
   14.14666653  104.69699860    0.55000001    2.50000000
   14.14999962  110.51399994    0.55000001    2.50000000
   14.15305519  113.67400360    0.55000001    2.50000000
   14.15638828  112.75199890    0.55000001    2.50000000
   14.15972137  108.13800049    0.51999998    2.50000000
   14.16388893  108.13800049    0.47999999    2.50000000
   14.16777802  112.72299957    0.46000001    2.51999998
   14.17111111  104.70500183    0.44000000    2.51999998
   14.17444515  115.16200256    0.44000000    2.50000000
   14.17666721  119.80300140    0.44000000    2.50000000
   14.17805576  112.71499634    0.44000000    2.50000000
   14.18138885  111.38800049    0.44000000    2.50000000
   14.18444443  117.14099884    0.44000000    2.50000000
   14.18777752  116.50499725    0.40000001    2.50000000
   14.19111156  107.86299896    0.40000001    2.50000000
   14.19416714  101.90799713    0.40000001    2.51999998
   14.19750023  118.69499969    0.40000001    2.51999998
   14.20055580  121.19899750    0.40000001    2.51999998
   14.20666695  121.19899750    0.40000001    2.51999998
   14.21083355  120.46700287    0.40000001    2.50000000
   14.21388912  112.73200226    0.40000001    2.50000000
   14.21722221  102.56999969    0.40000001    2.51999998
   14.22055531  123.66500092    0.38000000    2.51999998
   14.22361088  114.30999756    0.38000000    2.51999998
   14.22694397  109.54499817    0.38000000    2.51999998
   14.23027706  118.77500153    0.38000000    2.51999998
   14.23333359  108.43599701    0.38000000    2.51999998
   14.23666668  113.31199646    0.38000000    2.51999998
   14.23972225  109.39499664    0.38000000    2.51999998
   14.24305534  100.25900269    0.38000000    2.51999998
   14.24361134   95.41929626    0.38000000    2.51999998
   14.24944496   95.41929626    0.38000000    2.50000000
   14.25361156  104.73100281    0.41999999    2.51999998
   14.25666714  115.69100189    0.41999999    2.51999998
   14.26000023  120.60299683    0.40000001    2.51999998
   14.26305580  106.08799744    0.40000001    2.51999998
   14.26638889  109.24199677    0.40000001    2.51999998
   14.26972198  100.46800232    0.40000001    2.51999998
   14.27277756  112.10700226    0.40000001    2.51999998
   14.27611065  116.05899811    0.40000001    2.51999998
   14.27666664  116.63500214    0.40000001    2.51999998
   14.27972221  105.43000031    0.40000001    2.53999996
   14.28277779  120.25900269    0.40000001    2.53999996
   14.28638935  106.85900116    0.41999999    2.51999998
   14.29222298  106.85900116    0.41999999    2.53999996
   14.29638958  113.57199860    0.41999999    2.53999996
   14.29944515  117.18399811    0.44000000    2.51999998
   14.30277824  120.05500031    0.44000000    2.50000000
   14.30611134  115.14800262    0.47999999    2.51999998
   14.30916691  118.14900208    0.46000001    2.51999998
   14.31000042  115.61699677    0.47999999    2.53999996
   14.31277752  116.40799713    0.46000001    2.51999998
   14.31611156  113.89299774    0.46000001    2.51999998
   14.31916618  116.16400146    0.46000001    2.53999996
   14.32250023  104.11199951    0.44000000    2.51999998
   14.32555580  114.40799713    0.44000000    2.51999998
   14.32888889  101.39299774    0.44000000    2.51999998
   14.33500004  101.39299774    0.47999999    2.53999996
   14.33916664  111.65399933    0.46000001    2.53999996
   14.34249973  114.42500305    0.47999999    2.51999998
   14.34333324  111.09100342    0.47999999    2.51999998
   14.34611034  117.05300140    0.47999999    2.51999998
   14.34944439  104.65799713    0.50000000    2.51999998
   14.35249996  109.92500305    0.47999999    2.51999998
   14.35583401  109.59799957    0.47999999    2.51999998
   14.35916710  107.02400208    0.47999999    2.53999996
   14.36222267  112.05100250    0.47999999    2.51999998
   14.36555576  114.42099762    0.46000001    2.53999996
   14.36888885  102.01699829    0.46000001    2.53999996
   14.37194443  104.11399841    0.46000001    2.53999996
   14.37777805  104.11399841    0.47999999    2.53999996
   14.38194466  110.41100311    0.50000000    2.55999994
   14.38527775   98.99469757    0.52999997    2.53999996
   14.38861084  112.23899841    0.55000001    2.51999998
   14.39166641  108.20200348    0.55000001    2.51999998
   14.39499950  112.52799988    0.56999999    2.53999996
   14.39805508  101.51499939    0.56999999    2.53999996
   14.40138817  107.21600342    0.55000001    2.53999996
   14.40472221  111.02500153    0.55000001    2.53999996
   14.40777779  118.32099915    0.55000001    2.53999996
   14.40999985   99.35569763    0.56999999    2.53999996
   14.41138840  103.01100159    0.56999999    2.53999996
   14.41472149  104.39399719    0.55000001    2.53999996
   14.42083359  104.39399719    0.51999998    2.53999996
   14.42500019  100.88500214    0.51999998    2.53999996
   14.42833328  105.96299744    0.52999997    2.53999996
   14.43138885   93.38059998    0.51999998    2.55999994
   14.43472195  117.37400055    0.51999998    2.55999994
   14.43805599  102.51200104    0.51999998    2.53999996
   14.44111156  107.51999664    0.51999998    2.53999996
   14.44361115  102.35900116    0.51999998    2.53999996
   14.44472218   96.39270020    0.55000001    2.53999996
   14.44805527  108.76699829    0.55000001    2.53999996
   14.45138836  102.51300049    0.56999999    2.53999996
   14.45444393  102.20099640    0.58999997    2.53999996
   14.45777798  106.96499634    0.61000001    2.55999994
   14.46361065  106.96499634    0.63000000    2.53999996
   14.46777725  101.71199799    0.63000000    2.55999994
   14.47111034  102.89499664    0.63000000    2.55999994
   14.47416592  107.45400238    0.64999998    2.53999996
   14.47722149  107.41999817    0.64999998    2.53999996
   14.47833252   92.97650146    0.64999998    2.53999996
   14.48138809   99.27590179    0.63000000    2.53999996
   14.48472214   98.27749634    0.63000000    2.53999996
   14.48805618  103.10500336    0.61000001    2.53999996
   14.49111176  104.38099670    0.61000001    2.55999994
   14.49444485  111.14600372    0.61000001    2.55999994
   14.49750042  101.81999969    0.58999997    2.53999996
   14.50083351  103.85900116    0.58999997    2.53999996
   14.50666714  103.85900116    0.58999997    2.53999996
   14.51083374  108.25099945    0.51999998    2.53999996
   14.51388931  104.57399750    0.47999999    2.53999996
   14.51722240   99.47730255    0.44000000    2.53999996
   14.52027798   97.86569977    0.44000000    2.53999996
   14.52361107   97.10870361    0.46000001    2.55999994
   14.52694416  105.72299957    0.46000001    2.55999994
   14.52999973  100.06800079    0.47999999    2.55999994
   14.53333378   97.33419800    0.47999999    2.55999994
   14.53666687  104.20300293    0.47999999    2.55999994
   14.53972244  105.83899689    0.50000000    2.55999994
   14.54305553  106.09100342    0.51999998    2.53999996
   14.54361153  101.66400146    0.51999998    2.53999996
   14.54944515  101.66400146    0.51999998    2.53999996
   14.55333328  111.70999908    0.51999998    2.55999994
   14.55666733   97.79630280    0.52999997    2.55999994
   14.56000042  105.53700256    0.52999997    2.55999994
   14.56305599  100.23500061    0.55000001    2.55999994
   14.56638908  106.51599884    0.55000001    2.55999994
   14.56972218  114.16000366    0.56999999    2.55999994
   14.57277775  101.01399994    0.61000001    2.55999994
   14.57611084  106.42099762    0.64999998    2.53999996
   14.57694435   91.87409973    0.64999998    2.53999996
   14.57944393  100.60500336    0.63000000    2.55999994
   14.58277798   98.39839935    0.58999997    2.55999994
   14.58611107  101.11799622    0.58999997    2.55999994
   14.59222221  101.11799622    0.52999997    2.53999996
   14.59638882  111.76300049    0.50000000    2.55999994
   14.59944439  103.95800018    0.47999999    2.55999994
   14.60277843   98.63349915    0.46000001    2.55999994
   14.60611153   98.05919647    0.47999999    2.55999994
   14.60944462   98.48500061    0.47999999    2.55999994
   14.61027813  105.55400085    0.46000001    2.55999994
   14.61277771   98.03749847    0.46000001    2.55999994
   14.61611176  104.97000122    0.46000001    2.53999996
   14.61944485   97.21569824    0.44000000    2.57999992
   14.62250042   99.01249695    0.44000000    2.57999992
   14.62583351  107.14900208    0.44000000    2.57999992
   14.62888908  100.01499939    0.44000000    2.57999992
   14.63500023  100.01499939    0.44000000    2.55999994
   14.63916683   95.17420197    0.44000000    2.55999994
   14.64249992  109.09799957    0.44000000    2.55999994
   14.64361095   96.35690308    0.44000000    2.55999994
   14.64583302   94.40660095    0.44000000    2.55999994
   14.64916611  100.79499817    0.44000000    2.57999992
   14.65249920   98.99900055    0.44000000    2.55999994
   14.65555477  105.49199677    0.41999999    2.57999992
   14.65888882  110.87100220    0.41999999    2.57999992
   14.66194439  101.75599670    0.40000001    2.55999994
   14.66527748  101.15100098    0.38000000    2.55999994
   14.66833401   96.33180237    0.38000000    2.55999994
   14.67166710  100.60500336    0.36000001    2.57999992
   14.67777824  100.60500336    0.36000001    2.57999992
   14.68194485   97.90820313    0.36000001    2.57999992
   14.68527794   93.47519684    0.34000000    2.55999994
   14.68833351  103.17900085    0.34000000    2.55999994
   14.69166660  102.87000275    0.34000000    2.57999992
   14.69472218  105.11199951    0.34000000    2.57999992
   14.69805527   96.19020081    0.34000000    2.57999992
   14.70138836  108.05300140    0.34000000    2.57999992
   14.70444393  100.08499908    0.36000001    2.57999992
   14.70777798  106.89700317    0.38000000    2.57999992
   14.71000004  107.17800140    0.38000000    2.57999992
   14.71138859  102.36199951    0.40000001    2.57999992
   14.71472168  104.55300140    0.44000000    2.57999992
   14.72055531  104.55300140    0.44000000    2.57999992
   14.72472191  104.38500214    0.52999997    2.57999992
   14.72805500   95.99160004    0.50000000    2.55999994
   14.73111057  110.34899902    0.51999998    2.57999992
   14.73444462  102.90699768    0.46000001    2.57999992
   14.73777771   98.98819733    0.46000001    2.57999992
   14.74083328  102.96399689    0.58999997    2.55999994
   14.74333382  109.90799713    0.63000000    2.57999992
   14.74444485   96.39869690    0.64999998    2.57999992
   14.74777794  102.42400360    0.64999998    2.55999994
   14.75111103  104.71900177    0.64999998    2.57999992
   14.75416660  100.09700012    0.64999998    2.57999992
   14.75749969  109.32099915    0.67000002    2.57999992
   14.76361084  109.32099915    0.80000001    2.57999992
   14.76777744  101.83300018    0.88000000    2.57999992
   14.77111053  104.91300201    0.92000002    2.55999994
   14.77444458  104.10399628    0.92000002    2.55999994
   14.77694416  103.96099854    0.88000000    2.55999994
   14.77805519  103.75599670    0.88000000    2.55999994
   14.78111076  101.87699890    1.00000000    2.55999994
   14.78444481   99.96749878    1.00000000    2.55999994
   14.78750038  102.90599823    0.86000001    2.57999992
   14.79083347  102.51999664    0.63000000    2.57999992
   14.79416752   95.24520111    0.47999999    2.57999992
   14.79722309  103.29799652    0.50000000    2.57999992
   14.80055618   98.18019867    0.41999999    2.57999992
   14.80638885   98.18019867    0.41999999    2.57999992
   14.81055546  102.17099762    0.50000000    2.57999992
   14.81388950  106.56199646    0.50000000    2.57999992
   14.81694412   98.39969635    0.46000001    2.57999992
   14.82027817   98.35009766    0.47999999    2.57999992
   14.82361126   99.54959869    0.51999998    2.57999992
   14.82666683  107.55799866    0.51999998    2.57999992
   14.82999992  100.37300110    0.44000000    2.57999992
   14.83333302  106.94200134    0.40000001    2.57999992
   14.83638859  102.84600067    0.40000001    2.57999992
   14.83972168   94.82520294    0.38000000    2.57999992
   14.84277725   98.02359772    0.40000001    2.57999992
   14.84361076  103.57700348    0.40000001    2.57999992
   14.84944439  103.57700348    0.44000000    2.59999990
   14.85333347  102.39099884    0.47999999    2.59999990
   14.85666752   98.90000153    0.47999999    2.59999990
   14.86000061   96.67369843    0.47999999    2.57999992
   14.86305618   94.42910004    0.50000000    2.57999992
   14.86638927   99.75759888    0.61000001    2.59999990
   14.86972237  105.90000153    0.63000000    2.57999992
   14.87277794  105.68199921    0.67000002    2.57999992
   14.87611103  105.13600159    0.67000002    2.57999992
   14.87694454  105.65399933    0.67000002    2.57999992
   14.87972260  105.28700256    0.67000002    2.57999992
   14.88277817   96.15000153    0.73000002    2.57999992
   14.88611126   99.45909882    0.70999998    2.57999992
   14.89222240   99.45909882    0.69000000    2.57999992
   14.89638901  102.52100372    0.61000001    2.57999992
   14.89944458  101.45200348    0.52999997    2.59999990
   14.90277767  104.61499786    0.52999997    2.59999990
   14.90611076  106.97200012    0.52999997    2.59999990
   14.90916634  100.04499817    0.50000000    2.57999992
   14.91027737   97.89029694    0.50000000    2.57999992
   14.91277695   94.26039886    0.46000001    2.57999992
   14.91583252  104.90699768    0.40000001    2.57999992
   14.91916656  101.91100311    0.38000000    2.57999992
   14.92250061   98.14990234    0.36000001    2.57999992
   14.92555618  100.13500214    0.36000001    2.57999992
   14.92888927  104.00199890    0.36000001    2.57999992
   14.93500042  104.00199890    0.41999999    2.59999990
   14.93916702  101.85500336    0.40000001    2.59999990
   14.94250011  100.55200195    0.38000000    2.57999992
   14.94361115   99.74710083    0.38000000    2.57999992
   14.94611073  104.30699921    0.38000000    2.57999992
   14.94944477  105.74099731    0.38000000    2.57999992
   14.95249939   97.17070007    0.36000001    2.59999990
   14.95583344  106.72499847    0.36000001    2.59999990
   14.95916653  100.57399750    0.36000001    2.57999992
   14.96222210   99.05059814    0.36000001    2.57999992
   14.96555519   88.74549866    0.36000001    2.59999990
   14.96888828   96.48909760    0.34000000    2.59999990
   14.97194386   97.72959900    0.34000000    2.57999992
   14.97777748   97.72959900    0.36000001    2.57999992
   14.98194408   99.97370148    0.40000001    2.59999990
   14.98527813   95.15200043    0.38000000    2.57999992
   14.98833370   99.43869781    0.36000001    2.57999992
   14.99166679   95.35250092    0.34000000    2.57999992
   14.99499989   99.17330170    0.31999999    2.59999990
   14.99805546  102.81800079    0.31999999    2.59999990
   15.00138855   97.30380249    0.30000001    2.59999990
   15.00444412   97.55609894    0.25999999    2.59999990
   15.00777817  103.74500275    0.25999999    2.59999990
   15.01027775  102.73000336    0.41999999    2.59999990
   15.01111126   98.54869843    0.41999999    2.59999990
   15.01444435  103.56099701    0.52999997    2.59999990
   15.02055550  103.56099701    0.61000001    2.59999990
   15.02472210   97.75409698    0.61000001    2.57999992
   15.02805519   98.88349915    0.58999997    2.59999990
   15.03138828  100.22699738    0.61000001    2.57999992
   15.03444481  102.99199677    0.58999997    2.57999992
   15.03777790  101.08200073    0.56999999    2.59999990
   15.04083347  101.74199677    0.56999999    2.59999990
   15.04361153   96.68029785    0.55000001    2.59999990
   15.04472256   99.38009644    0.55000001    2.59999990
   15.04777813   99.43319702    0.52999997    2.59999990
   15.05111122   95.07720184    0.52999997    2.59999990
   15.05416679  104.51100159    0.46000001    2.59999990
   15.05749989   97.35630035    0.40000001    2.59999990
   15.06361103   97.35630035    0.31999999    2.59999990
   15.06777763   96.33730316    0.28000000    2.59999990
   15.07083321   93.07230377    0.25999999    2.59999990
   15.07416630   97.03720093    0.25999999    2.59999990
   15.07694435   93.79489899    0.28000000    2.59999990
   15.07777786   91.56639862    0.28000000    2.59999990
   15.08083344   94.28829956    0.25999999    2.59999990
   15.08416653   93.85189819    0.28000000    2.59999990
   15.08749962  100.42299652    0.28000000    2.59999990
   15.09055519  101.17900085    0.28000000    2.59999990
   15.09388828   99.52410126    0.28000000    2.59999990
   15.09694386   94.39409637    0.30000001    2.59999990
   15.10027790   93.45359802    0.30000001    2.59999990
   15.10638905   93.45359802    0.31999999    2.59999990
   15.11055565  101.69400024    0.34000000    2.59999990
   15.11388969   94.25229645    0.36000001    2.59999990
   15.11694431  102.09700012    0.36000001    2.59999990
   15.12027836  101.10600281    0.36000001    2.59999990
   15.12361145   93.65630341    0.36000001    2.59999990
   15.12666702   97.11789703    0.36000001    2.59999990
   15.13000011  105.62699890    0.36000001    2.59999990
   15.13333321   95.00849915    0.36000001    2.59999990
   15.13638878  101.04100037    0.36000001    2.59999990
   15.13972187   93.23760223    0.34000000    2.61999989
   15.14305496  100.04599762    0.34000000    2.61999989
   15.14361095   94.68959808    0.31999999    2.59999990
   15.16416645   94.68959808    0.30000001    2.59999990
   15.16833401  100.63600159    0.30000001    2.59999990
   15.17166710   96.62580109    0.31999999    2.59999990
   15.17472267   97.38050079    0.30000001    2.59999990
   15.17694473  100.72000122    0.30000001    2.59999990
   15.17861176   93.28720093    0.30000001    2.59999990
   15.18166733  100.61199951    0.31999999    2.61999989
   15.18500042   96.97669983    0.31999999    2.59999990
   15.18833351   94.49729919    0.31999999    2.59999990
   15.19138908   96.58709717    0.31999999    2.59999990
   15.19472218   89.46970367    0.31999999    2.59999990
   15.19805527   94.89530182    0.30000001    2.59999990
   15.20111084  101.08100128    0.30000001    2.61999989
   15.20694447  101.08100128    0.30000001    2.59999990
   15.21111107  108.66300201    0.31999999    2.61999989
   15.21444416  128.85699463    0.31999999    2.59999990
   15.21749973  125.41799927    0.31999999    2.59999990
   15.22083282  119.45700073    0.31999999    2.59999990
   15.22416592  139.13000488    0.30000001    2.59999990
   15.22722149  134.31599426    0.30000001    2.59999990
   15.23055553  134.47900391    0.30000001    2.59999990
   15.23388958  138.58000183    0.30000001    2.61999989
   15.23694515  126.91000366    0.30000001    2.61999989
   15.24027824  121.17400360    0.31999999    2.61999989
   15.24333382  143.99800110    0.31999999    2.61999989
   15.24388885  144.44799805    0.31999999    2.61999989
   15.24972248  144.44799805    0.34000000    2.59999990
   15.25388908  126.89499664    0.36000001    2.59999990
   15.25722218  132.22700500    0.36000001    2.59999990
   15.26055527  129.48100281    0.38000000    2.59999990
   15.26361084  144.51699829    0.38000000    2.59999990
   15.26694393  136.95300293    0.36000001    2.61999989
   15.26999950  140.76699829    0.38000000    2.59999990
   15.27333355  132.77000427    0.38000000    2.59999990
   15.27666664  124.53800201    0.38000000    2.61999989
   15.27722168  152.10499573    0.38000000    2.61999989
   15.28027725  132.16000366    0.38000000    2.59999990
   15.28361130  137.46200562    0.38000000    2.59999990
   15.28666687  138.87399292    0.34000000    2.59999990
   15.29277802  138.87399292    0.34000000    2.59999990
   15.29694462  117.69400024    0.34000000    2.61999989
   15.30000019  140.37100220    0.34000000    2.61999989
   15.30333328  138.14399719    0.34000000    2.61999989
   15.30666733  132.61700439    0.34000000    2.61999989
   15.30972195  126.69599915    0.36000001    2.59999990
   15.31055546  128.77000427    0.36000001    2.59999990
   15.31333351  121.47200012    0.36000001    2.59999990
   15.31666660  124.42199707    0.41999999    2.59999990
   15.31972218  110.35299683    0.44000000    2.59999990
   15.32305527  124.75199890    0.46000001    2.59999990
   15.32638836  112.76799774    0.44000000    2.59999990
   15.32944393  115.22799683    0.44000000    2.59999990
   15.33555508  115.22799683    0.47999999    2.59999990
   15.33944416  117.06099701    0.52999997    2.59999990
   15.34277725  108.98300171    0.61000001    2.59999990
   15.34388828  118.83000183    0.75000000    2.59999990
   15.34638882  122.31500244    0.75000000    2.59999990
   15.34944439  110.80999756    0.80000001    2.59999990
   15.35277843  112.22200012    0.80000001    2.59999990
   15.35583401   89.47180176    0.76999998    2.59999990
   15.35916710  102.53900146    0.69000000    2.59999990
   15.36250019  107.27999878    0.69000000    2.59999990
   15.36555576  106.79499817    0.69000000    2.59999990
   15.36888885   87.45140076    0.64999998    2.61999989
   15.37222195   98.44049835    0.67000002    2.59999990
   15.37833309   98.44049835    0.63000000    2.59999990
   15.38249969   95.61630249    0.67000002    2.61999989
   15.38555527  107.23100281    0.67000002    2.61999989
   15.38888836   96.86560059    0.69000000    2.59999990
   15.39222240  105.45500183    0.69000000    2.59999990
   15.39527798   93.53230286    0.67000002    2.61999989
   15.39861107  101.18699646    0.61000001    2.59999990
   15.40166664   91.40699768    0.55000001    2.59999990
   15.40499973  105.01300049    0.55000001    2.59999990
   15.40833282  107.63999939    0.52999997    2.61999989
   15.41055489   98.92839813    0.50000000    2.59999990
   15.41194439  101.81500244    0.50000000    2.59999990
   15.41499996   89.14409637    0.44000000    2.61999989
   15.42111111   89.14409637    0.44000000    2.61999989
   15.42527771   98.28130341    0.44000000    2.59999990
   15.42833328   90.51210022    0.40000001    2.61999989
   15.43166733   84.99379730    0.40000001    2.59999990
   15.43500042   89.70659637    0.38000000    2.61999989
   15.43805599   91.27870178    0.38000000    2.61999989
   15.44138908   98.48860168    0.36000001    2.61999989
   15.44388866   94.98680115    0.36000001    2.61999989
   15.44472218   90.61959839    0.36000001    2.61999989
   15.44805527   96.87039948    0.36000001    2.61999989
   15.45138836   94.60990143    0.36000001    2.61999989
   15.45472240   91.09069824    0.36000001    2.61999989
   15.45805550   95.70909882    0.36000001    2.61999989
   15.46416664   95.70909882    0.31999999    2.61999989
   15.46805477   85.68409729    0.31999999    2.61999989
   15.47138882   86.51820374    0.31999999    2.59999990
   15.47472191   90.71810150    0.30000001    2.61999989
   15.47722149   89.72470093    0.30000001    2.61999989
   15.47805500  101.54399872    0.30000001    2.61999989
   15.48138809   96.95459747    0.31999999    2.59999990
   15.48472214   99.01709747    0.34000000    2.61999989
   15.48805618   88.23210144    0.36000001    2.61999989
   15.49111176   96.22889709    0.38000000    2.61999989
   15.49444485   91.00969696    0.38000000    2.61999989
   15.49777794   86.31929779    0.40000001    2.61999989
   15.50111103   93.34790039    0.40000001    2.61999989
   15.50694466   93.34790039    0.40000001    2.59999990
   15.51111126   92.06199646    0.41999999    2.61999989
   15.51444435   93.86100006    0.44000000    2.59999990
   15.51749992   97.92530060    0.41999999    2.61999989
   15.52083302   92.02269745    0.41999999    2.61999989
   15.52416611   89.95659637    0.38000000    2.61999989
   15.52722168   90.72509766    0.38000000    2.59999990
   15.53055573   89.89520264    0.38000000    2.59999990
   15.53361130   87.57489777    0.36000001    2.61999989
   15.53694534   90.79889679    0.34000000    2.64000010
   15.54027843   99.22949982    0.31999999    2.64000010
   15.54333401   87.44619751    0.31999999    2.61999989
   15.54388905   94.77220154    0.31999999    2.61999989
   15.54972267   94.77220154    0.30000001    2.64000010
   15.55388927   92.96119690    0.30000001    2.61999989
   15.55722237   94.99369812    0.30000001    2.61999989
   15.56055546   90.10820007    0.30000001    2.61999989
   15.56361103   91.18240356    0.30000001    2.61999989
   15.56694412   93.53040314    0.30000001    2.61999989
   15.56999969   95.99960327    0.30000001    2.61999989
   15.57333374   97.28410339    0.30000001    2.61999989
   15.57666683   93.71269989    0.30000001    2.61999989
   15.57722187   90.69519806    0.30000001    2.61999989
   15.58027744   95.56179810    0.30000001    2.61999989
   15.58361053  103.51200104    0.30000001    2.61999989
   15.58666611   90.25469971    0.30000001    2.61999989
   15.59277725   90.25469971    0.30000001    2.61999989
   15.59694386   99.40830231    0.28000000    2.61999989
   15.60000038   93.49259949    0.28000000    2.61999989
   15.60333347   91.22399902    0.28000000    2.64000010
   15.60638905   98.03710175    0.28000000    2.61999989
   15.60972214   93.40599823    0.28000000    2.64000010
   15.61055565  101.67600250    0.28000000    2.64000010
   15.61333370   90.51959991    0.28000000    2.61999989
   15.61666679   88.86759949    0.30000001    2.61999989
   15.61972237   88.90270233    0.28000000    2.61999989
   15.62305546   93.68029785    0.30000001    2.61999989
   15.62611103   94.35179901    0.30000001    2.61999989
   15.62944412   91.68840027    0.30000001    2.61999989
   15.63555527   91.68840027    0.30000001    2.61999989
   15.63972187   95.14019775    0.30000001    2.61999989
   15.64305496   89.82080078    0.30000001    2.61999989
   15.64388847   88.42870331    0.30000001    2.61999989
   15.64666653   90.82839966    0.30000001    2.61999989
   15.64999962   90.95600128    0.30000001    2.61999989
   15.65305519   94.28869629    0.30000001    2.61999989
   15.65638828   94.84790039    0.30000001    2.61999989
   15.65944386   99.94300079    0.30000001    2.61999989
   15.66277695   92.97319794    0.30000001    2.61999989
   15.66611099   90.04090118    0.30000001    2.61999989
   15.66916656   94.73529816    0.30000001    2.61999989
   15.67250061   87.17379761    0.30000001    2.64000010
   15.67833328   87.17379761    0.30000001    2.61999989
   15.68249989   90.49859619    0.30000001    2.61999989
   15.68583298   86.87519836    0.30000001    2.59999990
   15.68888855   93.90550232    0.30000001    2.61999989
   15.69222260   89.81849670    0.31999999    2.64000010
   15.69555569   96.46610260    0.30000001    2.59999990
   15.69861126   98.14589691    0.30000001    2.59999990
   15.70194435   88.54519653    0.30000001    2.64000010
   15.70499992   94.93160248    0.30000001    2.61999989
   15.70833302   99.80200195    0.31999999    2.61999989
   15.71055508   97.04560089    0.30000001    2.61999989
   15.71194458   94.66780090    0.30000001    2.61999989
   15.71527767   91.59690094    0.30000001    2.64000010
   15.72111034   91.59690094    0.30000001    2.61999989
   15.72527695   93.72399902    0.30000001    2.61999989
   15.72861099   95.47679901    0.30000001    2.61999989
   15.73194408   92.83260345    0.28000000    2.61999989
   15.73500061   94.38259888    0.28000000    2.61999989
   15.73833370   99.22789764    0.28000000    2.61999989
   15.74138927   90.37429810    0.28000000    2.64000010
   15.74388885   97.48639679    0.28000000    2.64000010
   15.74499989   94.03520203    0.28000000    2.64000010
   15.74833393   99.54170227    0.28000000    2.61999989
   15.75138855   97.45400238    0.28000000    2.61999989
   15.75472260   93.90660095    0.28000000    2.61999989
   15.75777817   97.99710083    0.28000000    2.61999989
   15.76416683   97.99710083    0.28000000    2.61999989
   15.76833344   95.23650360    0.28000000    2.61999989
   15.77138901   88.60009766    0.28000000    2.61999989
   15.77472210   88.59110260    0.28000000    2.64000010
   15.77722168   94.03450012    0.28000000    2.64000010
   15.77833271   94.07869720    0.28000000    2.64000010
   15.78166676   94.78160095    0.28000000    2.64000010
   15.78472233   98.01770020    0.28000000    2.64000010
   15.78805637   93.83560181    0.28000000    2.64000010
   15.79111195   92.03160095    0.28000000    2.61999989
   15.79444504   93.23220062    0.28000000    2.61999989
   15.79777813   91.04060364    0.28000000    2.61999989
   15.80083370   94.85119629    0.28000000    2.61999989
   15.80694485   94.85119629    0.28000000    2.64000010
   15.81111145   93.48880005    0.28000000    2.64000010
   15.81444454   90.41390228    0.28000000    2.64000010
   15.81750011   93.60359955    0.28000000    2.61999989
   15.82083321   87.30799866    0.28000000    2.61999989
   15.82416630   89.64230347    0.28000000    2.61999989
   15.82722187   89.58149719    0.28000000    2.64000010
   15.83055592   91.74530029    0.30000001    2.61999989
   15.83361053   87.35369873    0.30000001    2.64000010
   15.83694458   91.12039948    0.31999999    2.61999989
   15.84027767   95.27490234    0.31999999    2.61999989
   15.84333324   94.36260223    0.31999999    2.64000010
   15.84388828   87.59169769    0.31999999    2.64000010
   15.84972191   87.59169769    0.31999999    2.64000010
   15.85388947   88.27140045    0.31999999    2.64000010
   15.85722256   94.32839966    0.34000000    2.64000010
   15.86027813   89.28389740    0.34000000    2.61999989
   15.86361122   89.85690308    0.31999999    2.61999989
   15.86666679   88.83519745    0.31999999    2.61999989
   15.86999989   89.58670044    0.31999999    2.64000010
   15.87333393   89.33589935    0.31999999    2.64000010
   15.87638855   90.79250336    0.31999999    2.64000010
   15.87722206   86.69259644    0.31999999    2.64000010
   15.88000011   89.05220032    0.31999999    2.64000010
   15.88333321   87.81580353    0.31999999    2.61999989
   15.88638878   93.93789673    0.30000001    2.61999989
   15.89249992   93.93789673    0.30000001    2.61999989
   15.89666653   89.66880035    0.31999999    2.61999989
   15.89999962   93.88210297    0.30000001    2.64000010
   15.90305519   90.35130310    0.30000001    2.61999989
   15.90638828   92.38870239    0.30000001    2.64000010
   15.90972137   90.78679657    0.28000000    2.64000010
   15.91055489   91.40039825    0.28000000    2.64000010
   15.91333294   92.13210297    0.28000000    2.61999989
   15.91666698   89.85070038    0.30000001    2.64000010
   15.91972256   90.95549774    0.28000000    2.64000010
   15.92305565   91.47619629    0.28000000    2.64000010
   15.92638874   93.91690063    0.28000000    2.64000010
   15.92944431   93.79380035    0.30000001    2.64000010
   15.93555546   93.79380035    0.28000000    2.64000010
   15.93972206   97.75289917    0.28000000    2.61999989
   15.94277763   97.63220215    0.28000000    2.61999989
   15.94416714   94.30290222    0.30000001    2.64000010
   15.94638920   92.99220276    0.30000001    2.64000010
   15.94972229   96.15299988    0.30000001    2.64000010
   15.95277786   93.88770294    0.28000000    2.61999989
   15.95611095   93.50720215    0.28000000    2.64000010
   15.95944405   96.91210175    0.28000000    2.64000010
   15.96249962   96.91419983    0.28000000    2.61999989
   15.96583271   90.01779938    0.28000000    2.64000010
   15.96916580   90.52239990    0.28000000    2.64000010
   15.97222137   88.54949951    0.28000000    2.64000010
   15.97833252   88.54949951    0.28000000    2.64000010
   15.98249912   96.81529999    0.28000000    2.64000010
   15.98583317   93.22070313    0.28000000    2.64000010
   15.98888874   87.18630219    0.28000000    2.64000010
   15.99222279   94.02899933    0.28000000    2.64000010
   15.99555588   96.57740021    0.28000000    2.61999989
   15.99861145   93.35769653    0.28000000    2.64000010
   16.00194359   93.70639801    0.28000000    2.64000010
   16.00499916   96.40170288    0.30000001    2.64000010
   16.00833321   86.86720276    0.30000001    2.64000010
   16.01083374   91.62190247    0.30000001    2.64000010
   16.01194382   92.81490326    0.30000001    2.64000010
   16.01527786   93.81520081    0.31999999    2.64000010
   16.02111053   93.81520081    0.31999999    2.64000010
   16.02527809   93.45510101    0.31999999    2.64000010
   16.02861023   97.12580109    0.34000000    2.64000010
   16.03166580   91.24530029    0.36000001    2.64000010
   16.03499985   95.82430267    0.40000001    2.64000010
   16.03833199   95.95300293    0.40000001    2.64000010
   16.04138756   97.94039917    0.41999999    2.61999989
   16.04416656  101.23100281    0.41999999    2.61999989
   16.04527664   98.22650146    0.41999999    2.64000010
   16.04833221   93.09030151    0.41999999    2.64000010
   16.05166626   85.95040131    0.41999999    2.64000010
   16.05499840   93.22329712    0.46000001    2.61999989
   16.05805397   94.45800018    0.46000001    2.64000010
   16.06416512   94.45800018    0.44000000    2.64000010
   16.06805611   88.52829742    0.44000000    2.64000010
   16.07139015   88.54229736    0.46000001    2.64000010
   16.07472229   87.58029938    0.46000001    2.64000010
   16.07750130   95.07180023    0.46000001    2.64000010
   16.07805634   91.95729828    0.46000001    2.61999989
   16.08139038   97.65339661    0.46000001    2.61999989
   16.08444595   90.96199799    0.46000001    2.64000010
   16.08777809   93.99490356    0.46000001    2.64000010
   16.09111214  102.15299988    0.46000001    2.64000010
   16.09416771   97.24320221    0.44000000    2.64000010
   16.09749985   92.38200378    0.44000000    2.64000010
   16.10083389   94.66190338    0.44000000    2.64000010
   16.10694504   94.66190338    0.44000000    2.64000010
   16.11111069   93.94400024    0.46000001    2.64000010
   16.11416626   93.67759705    0.46000001    2.64000010
   16.11750031   84.50019836    0.46000001    2.64000010
   16.12055588   89.58480072    0.46000001    2.61999989
   16.12388992   86.97419739    0.46000001    2.64000010
   16.12722206   90.42729950    0.46000001    2.64000010
   16.13027763   88.30899811    0.44000000    2.64000010
   16.13361168   97.27189636    0.44000000    2.64000010
   16.13694382   94.84239960    0.44000000    2.64000010
   16.13999939   93.93450165    0.44000000    2.64000010
   16.14333344   92.58270264    0.44000000    2.64000010
   16.14416695   86.58159637    0.44000000    2.64000010
   16.14972115   86.58159637    0.44000000    2.64000010
   16.15388870   96.19249725    0.44000000    2.64000010
   16.15694427  100.63300323    0.44000000    2.64000010
   16.16027832   92.56680298    0.44000000    2.64000010
   16.17777634   86.82499695    0.44000000    2.64000010
   16.18027687   89.93710327    0.41999999    2.64000010
   16.18361092   89.45999908    0.41999999    2.64000010
   16.18666649   86.74990082    0.41999999    2.61999989
   16.19277763   86.74990082    0.40000001    2.64000010
   16.19694328   92.27739716    0.40000001    2.64000010
   16.20000076   91.71080017    0.40000001    2.64000010
   16.20333481   92.46549988    0.40000001    2.64000010
   16.20639038   91.61900330    0.41999999    2.61999989
   16.20972252   84.37290192    0.41999999    2.64000010
   16.21111107   88.19629669    0.41999999    2.64000010
   16.21333504   92.33450317    0.40000001    2.64000010
   16.21638870   91.31289673    0.40000001    2.64000010
   16.21972275   84.78019714    0.40000001    2.64000010
   16.22305679   89.63860321    0.40000001    2.64000010
   16.22611237   90.91169739    0.40000001    2.61999989
   16.22944450   87.96890259    0.40000001    2.64000010
   16.23555565   87.96890259    0.41999999    2.64000010
   16.23972321   92.47760010    0.44000000    2.64000010
   16.24277878   87.90149689    0.46000001    2.64000010
   16.24444389   89.74099731    0.47999999    2.64000010
   16.24666786   91.53959656    0.47999999    2.64000010
   16.24972153   91.85649872    0.50000000    2.64000010
   16.25305557   88.10759735    0.51999998    2.64000010
   16.25638962   90.81719971    0.51999998    2.64000010
   16.25944519   93.85430145    0.51999998    2.64000010
   16.26277733   95.49939728    0.50000000    2.64000010
   16.26611137   92.70980072    0.50000000    2.64000010
   16.26916695   96.09889984    0.51999998    2.64000010
   16.27249908   91.99620056    0.55000001    2.64000010
   16.27833366   91.99620056    0.69000000    2.64000010
   16.28249931   88.37319946    0.86000001    2.61999989
   16.28583336   84.77449799    0.86000001    2.61999989
   16.28888893   83.16020203    1.03999996    2.61999989
   16.29222107   94.60109711    1.05999994    2.64000010
   16.29555511   89.95549774    1.07000005    2.64000010
   16.29861069   92.59200287    1.41999996    2.61999989
   16.30194283   91.93340302    1.48000002    2.61999989
   16.30527687   91.51840210    1.44000006    2.61999989
   16.30833244   88.44219971    1.44000006    2.61999989
   16.31110954   89.17849731    1.39999998    2.61999989
   16.31194305   94.66429901    1.39999998    2.61999989
   16.31499863   90.09490204    1.39999998    2.61999989
   16.32139015   90.09490204    1.33000004    2.64000010
   16.32527924   99.83000183    0.75000000    2.61999989
   16.32861137   95.23880005    0.75000000    2.61999989
   16.33194542   90.45010376    0.75000000    2.61999989
   16.33500099   89.90930176    0.75000000    2.61999989
   16.33833313   90.90380096    0.75000000    2.64000010
   16.34166718   92.19129944    0.70999998    2.64000010
   16.34444427   93.17839813    0.70999998    2.64000010
   16.34527779   84.22550201    0.70999998    2.64000010
   16.34833336   90.20320129    0.70999998    2.64000010
   16.35166740   85.37999725    0.70999998    2.64000010
   16.35499954   88.91690063    0.70999998    2.64000010
   16.35805511   88.02169800    0.73000002    2.64000010
   16.36416626   88.02169800    0.61000001    2.64000010
   16.36833382   85.77079773    0.56999999    2.64000010
   16.37138939   84.33409882    0.55000001    2.64000010
   16.37472153   89.47470093    0.55000001    2.64000010
   16.37777710   87.28220367    0.55000001    2.64000010
   16.37833405   87.13279724    0.55000001    2.64000010
   16.38138962   85.71920013    0.52999997    2.64000010
   16.38472176   87.35910034    0.52999997    2.64000010
   16.38805580   92.05349731    0.52999997    2.64000010
   16.39111137   90.37039948    0.52999997    2.64000010
   16.39444351   89.71499634    0.55000001    2.64000010
   16.39749908   86.94270325    0.58999997    2.64000010
   16.40083313   87.99330139    0.61000001    2.64000010
   16.40694427   87.99330139    0.63000000    2.64000010
   16.41110992   91.26490021    0.61000001    2.64000010
   16.41166687   92.28240204    0.61000001    2.64000010
   16.41499901   94.93419647    0.61000001    2.64000010
   16.41833305   87.34200287    0.61000001    2.64000010
   16.42138863   85.24389648    0.61000001    2.64000010
   16.42472076   88.30599976    0.61000001    2.64000010
   16.42805481   86.34329987    0.58999997    2.64000010
   16.43111038   88.17430115    0.55000001    2.64000010
   16.43444443   91.30829620    0.52999997    2.64000010
   16.43750000   91.90440369    0.51999998    2.64000010
   16.44083214   84.13400269    0.52999997    2.64000010
   16.44416618   91.50679779    0.52999997    2.64000010
   16.44499969   88.66300201    0.52999997    2.64000010
   16.44972038   88.66300201    0.55000001    2.64000010
   16.45388985   92.37079620    0.56999999    2.66000009
   16.45722389   92.83519745    0.63000000    2.64000010
   16.46027946   88.97949982    0.63000000    2.64000010
   16.46361160   89.45300293    0.61000001    2.64000010
   16.46694565   89.08570099    0.63000000    2.64000010
   16.47000122   90.37879944    0.61000001    2.64000010
   16.47333336   91.44439697    0.61000001    2.64000010
   16.47666740   86.53309631    0.61000001    2.64000010
   16.47833443   83.85579681    0.58999997    2.64000010
   16.48000145   83.90570068    0.58999997    2.64000010
   16.48333359   90.02860260    0.58999997    2.64000010
   16.48666763   89.13230133    0.58999997    2.64000010
   16.49277878   89.13230133    0.58999997    2.64000010
   16.49666786   94.71410370    0.56999999    2.64000010
   16.50000000   90.67420197    0.55000001    2.64000010
   16.50333405   91.70760345    0.55000001    2.64000010
   16.50638962   87.28430176    0.55000001    2.64000010
   16.50972176   87.75579834    0.55000001    2.64000010
   16.51166725   89.35890198    0.55000001    2.64000010
   16.51305580   90.93170166    0.55000001    2.64000010
   16.51638794   93.07550049    0.52999997    2.64000010
   16.51972198   99.65059662    0.55000001    2.64000010
   16.52277756   87.36869812    0.55000001    2.64000010
   16.52611160   84.15460205    0.55000001    2.64000010
   16.52944374   90.48919678    0.55000001    2.66000009
   16.53555489   90.48919678    0.55000001    2.64000010
   16.53972244   87.86869812    0.52999997    2.64000010
   16.54277802   88.43589783    0.52999997    2.64000010
   16.54500008   83.15129852    0.51999998    2.64000010
   16.54638863   85.02829742    0.51999998    2.64000010
   16.54972076   81.92389679    0.51999998    2.66000009
   16.55305481   84.30249786    0.51999998    2.64000010
   16.55611038   83.43409729    0.55000001    2.64000010
   16.55944443   83.73770142    0.55000001    2.64000010
   16.56277657   86.70259857    0.56999999    2.64000010
   16.56583214   89.30380249    0.58999997    2.64000010
   16.56916809   82.47740173    0.63000000    2.64000010
   16.57222366   87.55930328    0.69000000    2.64000010
   16.57833481   87.55930328    0.70999998    2.64000010
   16.58250046   90.04219818    0.73000002    2.64000010
   16.58555603   87.77390289    0.70999998    2.66000009
   16.58889008   86.31030273    0.73000002    2.64000010
   16.59222221   89.68299866    0.73000002    2.64000010
   16.59527779   87.86170197    0.80000001    2.64000010
   16.59861183   87.08599854    0.83999997    2.64000010
   16.60194397   91.31310272    0.80000001    2.64000010
   16.60499954   86.97409821    0.81999999    2.64000010
   16.60833359   85.65000153    0.81999999    2.64000010
   16.61166763   92.32420349    0.80000001    2.66000009
   16.61194420   93.80079651    0.80000001    2.66000009
   16.61527824   91.45310211    0.79000002    2.61999989
   16.62111092   91.45310211    0.73000002    2.64000010
   16.62527847   89.58580017    0.70999998    2.64000010
   16.62861061   91.18830109    0.73000002    2.64000010
   16.63166618   91.00599670    0.73000002    2.64000010
   16.63500023   92.85209656    0.75000000    2.66000009
   16.63833237   85.44819641    0.76999998    2.66000009
   16.64138794   87.36170197    0.76999998    2.66000009
   16.64472198   85.10060120    0.79000002    2.64000010
   16.64527702   90.96849823    0.79000002    2.64000010
   16.64833260   94.26370239    0.79000002    2.61999989
   16.65166664   93.52529907    0.80000001    2.64000010
   16.65499878   86.42710114    0.80000001    2.64000010
   16.65805435   87.43060303    0.76999998    2.64000010
   16.66388893   87.43060303    0.75000000    2.64000010
   16.66805458   85.06529999    0.69000000    2.61999989
   16.67138863   86.04900360    0.69000000    2.64000010
   16.67444420   93.09159851    0.64999998    2.64000010
   16.67777634   90.46309662    0.64999998    2.64000010
   16.67833328   89.04100037    0.64999998    2.64000010
   16.68138885   79.50289917    0.61000001    2.66000009
   16.68472099   86.18190002    0.56999999    2.66000009
   16.68805504   90.32289886    0.56999999    2.66000009
   16.69111061   91.12960052    0.58999997    2.64000010
   16.69444275   85.23719788    0.58999997    2.66000009
   16.69749832   88.10880280    0.56999999    2.61999989
   16.70083427   87.55010223    0.55000001    2.64000010
   16.70694542   87.55010223    0.56999999    2.64000010
   16.71083450   89.60520172    0.55000001    2.64000010
   16.71194458   90.76679993    0.56999999    2.64000010
   16.71444511   86.40940094    0.56999999    2.64000010
   16.71777916   89.06970215    0.58999997    2.66000009
   16.72083473   90.76210022    0.58999997    2.66000009
   16.72416687   85.55819702    0.63000000    2.64000010
   16.72750092   86.73519897    0.63000000    2.66000009
   16.73055649   82.22029877    0.63000000    2.64000010
   16.73388863   88.18029785    0.63000000    2.64000010
   16.73722267   87.16419983    0.64999998    2.64000010
   16.74027824   87.68379974    0.64999998    2.66000009
   16.74361229   86.33000183    0.70999998    2.64000010
   16.74527740   89.55370331    0.70999998    2.64000010
   16.74972153   89.55370331    0.75000000    2.64000010
   16.75388908   91.15809631    0.83999997    2.64000010
   16.75694466   87.14399719    0.83999997    2.64000010
   16.76027870   90.44309998    0.86000001    2.66000009
   16.76361084   85.71549988    0.86000001    2.66000009
   16.76694489   90.57520294    0.83999997    2.64000010
   16.77000046   91.37619781    0.79000002    2.64000010
   16.77333260   93.06359863    0.73000002    2.64000010
   16.77666664   96.39099884    0.70999998    2.64000010
   16.77861023   88.92769623    0.70999998    2.64000010
   16.78027725   93.52140045    0.70999998    2.64000010
   16.78361130   91.43820190    0.64999998    2.64000010
   16.78694344   88.32360077    0.58999997    2.66000009
   16.79249954   88.32360077    0.56999999    2.66000009
   16.79666710   87.60430145    0.56999999    2.64000010
   16.79999924   92.73320007    0.55000001    2.64000010
   16.80305481   91.50420380    0.55000001    2.66000009
   16.80638885   88.99890137    0.51999998    2.66000009
   16.80972099   89.63809967    0.51999998    2.66000009
   16.81194305   83.46720123    0.52999997    2.64000010
   16.81305504   85.90399933    0.52999997    2.64000010
   16.81638718   84.60260010    0.51999998    2.64000010
   16.81972313   86.84899902    0.50000000    2.64000010
   16.82305717   88.61419678    0.44000000    2.64000010
   16.82611275   97.65480042    0.41999999    2.66000009
   16.82944489   88.85230255    0.41999999    2.66000009
   16.83555603   88.85230255    0.40000001    2.64000010
   16.83944511   85.73999786    0.41999999    2.64000010
   16.84277916   89.00630188    0.40000001    2.66000009
   16.84527779   87.80519867    0.40000001    2.66000009
   16.84638977   83.25700378    0.38000000    2.64000010
   16.84972191   87.08799744    0.34000000    2.66000009
   16.85305595   91.97519684    0.34000000    2.66000009
   16.85639000   89.77159882    0.34000000    2.66000009
   16.85944557   90.45780182    0.34000000    2.66000009
   16.86277771   93.35710144    0.34000000    2.66000009
   16.86583328   98.05609894    0.34000000    2.64000010
   16.86916733   87.56990051    0.38000000    2.66000009
   16.87249947   94.60790253    0.38000000    2.64000010
   16.87833405   94.60790253    0.41999999    2.64000010
   16.88249969   93.93740082    0.41999999    2.66000009
   16.88555527   94.89309692    0.41999999    2.66000009
   16.88888931   89.10430145    0.41999999    2.64000010
   16.89222145   92.38970184    0.41999999    2.66000009
   16.89527702   97.78800201    0.44000000    2.64000010
   16.89861107   95.45429993    0.44000000    2.64000010
   16.90166664   91.44120026    0.41999999    2.66000009
   16.90499878   91.60649872    0.44000000    2.64000010
   16.90833282   90.21520233    0.46000001    2.66000009
   16.91138840   89.09179688    0.46000001    2.66000009
   16.91333389   95.27610016    0.46000001    2.64000010
   16.91499901   89.03489685    0.46000001    2.64000010
   16.92111015   89.03489685    0.58999997    2.61999989
   16.92527771   85.49130249    0.50000000    2.64000010
   16.92833328   96.20570374    0.50000000    2.64000010
   16.93166542   95.65509796    0.50000000    2.64000010
   16.93499947   91.82440186    0.50000000    2.64000010
   16.93805504   99.78649902    0.51999998    2.64000010
   16.94138718   95.90280151    0.40000001    2.66000009
   16.94472122   89.08670044    0.38000000    2.66000009
   16.94666672   98.21320343    0.38000000    2.66000009
   16.94805527   94.18170166    0.40000001    2.64000010
   16.95138931   92.96540070    0.38000000    2.66000009
   16.95472336   98.16200256    0.38000000    2.66000009
   16.95777893   96.46469879    0.40000001    2.66000009
   16.96389008   96.46469879    0.40000001    2.64000010
   16.96805573  100.74099731    0.38000000    2.64000010
   16.97138977   94.58159637    0.36000001    2.66000009
   16.97444534   93.87280273    0.36000001    2.66000009
   16.97777748   94.83239746    0.36000001    2.66000009
   16.98000145   91.85749817    0.38000000    2.64000010
   16.98139000   89.03880310    0.38000000    2.64000010
   16.98472214   91.01380157    0.40000001    2.66000009
   16.98777771   92.86039734    0.38000000    2.66000009
   16.99111176   93.87039948    0.38000000    2.64000010
   16.99444389   88.30410004    0.38000000    2.64000010
   16.99749947   93.51119995    0.38000000    2.66000009
   17.00083351   98.14759827    0.38000000    2.66000009
   17.00694466   98.14759827    0.38000000    2.66000009
   17.01083374   95.69650269    0.36000001    2.64000010
   17.01361084   90.64260101    0.40000001    2.66000009
   17.01444435   89.33119965    0.40000001    2.66000009
   17.01777840   95.33380127    0.41999999    2.66000009
   17.02083397   92.20059967    0.41999999    2.66000009
   17.02416611   91.90390015    0.41999999    2.66000009
   17.02750015  100.28500366    0.41999999    2.64000010
   17.03055573   90.94170380    0.41999999    2.66000009
   17.03388786   86.83820343    0.40000001    2.64000010
   17.03722191   89.86789703    0.40000001    2.64000010
   17.04027748   91.48069763    0.38000000    2.66000009
   17.04361153   92.67099762    0.38000000    2.66000009
   17.04972076   92.67099762    0.36000001    2.66000009
   17.05388832  100.47000122    0.36000001    2.64000010
   17.05694389   95.56459808    0.34000000    2.66000009
   17.06027794   87.10610199    0.34000000    2.66000009
   17.06333351   94.71929932    0.34000000    2.66000009
   17.06666756   99.33350372    0.34000000    2.66000009
   17.07000160   97.56009674    0.34000000    2.66000009
   17.07305717   94.80719757    0.31999999    2.66000009
   17.07638931   95.84799957    0.31999999    2.66000009
   17.07944489   87.97989655    0.34000000    2.66000009
   17.08055687   88.92759705    0.34000000    2.66000009
   17.08305550   87.34639740    0.34000000    2.66000009
   17.08638954   87.07640076    0.36000001    2.66000009
   17.09250069   87.07640076    0.40000001    2.64000010
   17.09666824   89.06159973    0.44000000    2.64000010
   17.10000038   92.02809906    0.46000001    2.64000010
   17.10305595   87.69589996    0.47999999    2.64000010
   17.10639000   89.50869751    0.47999999    2.64000010
   17.10972214   91.30220032    0.51999998    2.64000010
   17.11277771   88.61869812    0.51999998    2.64000010
   17.11388969   88.84600067    0.51999998    2.64000010
   17.11666679   91.85569763    0.55000001    2.66000009
   17.11972237   91.10659790    0.56999999    2.64000010
   17.12305641   90.54399872    0.58999997    2.64000010
   17.12611198   91.88919830    0.58999997    2.64000010
   17.12944412   93.56629944    0.55000001    2.64000010
   17.13527679   93.56629944    0.52999997    2.66000009
   17.13944435   89.34030151    0.52999997    2.66000009
   17.14277840   98.24160004    0.52999997    2.66000009
   17.14583397   96.34870148    0.56999999    2.64000010
   17.14749908   93.28759766    0.56999999    2.64000010
   17.14944458   91.16649628    0.64999998    2.64000010
   17.15277672   90.87729645    0.64999998    2.64000010
   17.15583229   92.31140137    0.73000002    2.66000009
   17.15916634   99.00180054    0.81999999    2.64000010
   17.16250038  103.58100128    0.83999997    2.66000009
   17.16555595   88.59390259    0.88000000    2.64000010
   17.16888809   95.22679901    0.86000001    2.64000010
   17.17222214   89.15440369    0.89999998    2.64000010
   17.17805481   89.15440369    0.94000000    2.64000010
   17.19666672   86.76159668    0.98000002    2.64000010
   17.19972038   89.90699768    0.95999998    2.64000010
   17.20305634   86.87190247    0.98000002    2.64000010
   17.20611191   83.75379944    0.98000002    2.66000009
   17.20944595   86.68440247    0.98000002    2.64000010
   17.21277809   91.97940063    0.98000002    2.64000010
   17.21583366   96.67469788    0.98000002    2.64000010
   17.22111130   96.67469788    0.94000000    2.64000010
   17.22527885   88.61100006    0.89999998    2.64000010
   17.22861099   91.70580292    0.83999997    2.64000010
   17.22944450   86.97899628    0.81999999    2.64000010
   17.23222351   85.08540344    0.81999999    2.64000010
   17.23555565   95.35690308    0.80000001    2.64000010
   17.23861122   87.31089783    0.79000002    2.64000010
   17.24194527   87.57109833    0.73000002    2.64000010
   17.24527740   89.13240051    0.69000000    2.64000010
   17.24833298   94.51219940    0.69000000    2.64000010
   17.25166702   87.39409637    0.64999998    2.64000010
   17.25472260   95.25150299    0.61000001    2.64000010
   17.25805473  107.55599976    0.58999997    2.64000010
   17.26416588  107.55599976    0.52999997    2.66000009
   17.26833344   90.38510132    0.51999998    2.64000010
   17.27138901   94.75060272    0.47999999    2.64000010
   17.27472115   93.48359680    0.47999999    2.64000010
   17.27777672   97.46170044    0.50000000    2.64000010
   17.28111076   92.90399933    0.50000000    2.64000010
   17.28444481   90.82430267    0.51999998    2.64000010
   17.28777695   91.70050049    0.51999998    2.64000010
   17.29083252   92.08519745    0.51999998    2.64000010
   17.29416656   91.09609985    0.47999999    2.64000010
   17.29611015   90.83209991    0.47999999    2.64000010
   17.29777718   86.22160339    0.44000000    2.66000009
   17.30111122   90.57559967    0.44000000    2.66000009
   17.30694389   90.57559967    0.44000000    2.66000009
   17.31110954   89.97429657    0.41999999    2.64000010
   17.31416512   86.08860016    0.44000000    2.64000010
   17.31750107   91.89749908    0.44000000    2.66000009
   17.32083511   88.44760132    0.41999999    2.64000010
   17.32389069   91.53589630    0.41999999    2.64000010
   17.32722282   86.37429810    0.40000001    2.64000010
   17.32944489   89.62419891    0.38000000    2.64000010
   17.33083344   86.75460052    0.38000000    2.64000010
   17.33388901   91.02339935    0.40000001    2.64000010
   17.33722305   95.27010345    0.40000001    2.64000010
   17.34055710   88.83779907    0.38000000    2.66000009
   17.34361267   89.03379822    0.36000001    2.64000010
   17.34972191   89.03379822    0.41999999    2.66000009
   17.35388947   88.31670380    0.38000000    2.64000010
   17.35694504   94.62830353    0.40000001    2.66000009
   17.36027908   99.14009857    0.40000001    2.64000010
   17.36277771   98.14640045    0.40000001    2.64000010
   17.36388969   84.87480164    0.40000001    2.64000010
   17.36722183   85.98000336    0.36000001    2.64000010
   17.37027740   85.87899780    0.31999999    2.64000010
   17.37361145   87.68499756    0.31999999    2.64000010
   17.37666702   91.92960358    0.34000000    2.64000010
   17.38000107   87.62159729    0.34000000    2.64000010
   17.38333321   90.31819916    0.36000001    2.64000010
   17.38638878   85.53260040    0.34000000    2.64000010
   17.39249992   85.53260040    0.36000001    2.64000010
   17.39666748   96.48580170    0.36000001    2.66000009
   17.39972115   94.12629700    0.38000000    2.66000009
   17.40305519   94.46669769    0.44000000    2.64000010
   17.40638924   92.57659912    0.44000000    2.64000010
   17.40944481   89.35700226    0.40000001    2.64000010
   17.41277695   89.14880371    0.38000000    2.64000010
   17.41583252   88.96250153    0.40000001    2.64000010
   17.41916656   96.05020142    0.40000001    2.64000010
   17.42249870   89.27970123    0.40000001    2.64000010
   17.42555428   91.30429840    0.40000001    2.64000010
   17.42888832   87.76239777    0.40000001    2.64000010
   17.42944336   87.50839996    0.40000001    2.64000010
   17.43527603   87.50839996    0.38000000    2.64000010
   17.43944359   88.01049805    0.38000000    2.64000010
   17.44277763   90.73840332    0.36000001    2.64000010
   17.44583321   88.47720337    0.36000001    2.64000010
   17.44916534   97.40879822    0.34000000    2.64000010
   17.45222282  124.38400269    0.34000000    2.64000010
   17.45555687  105.04799652    0.34000000    2.64000010
   17.45888901   86.88980103    0.36000001    2.64000010
   17.46194458  104.01999664    0.36000001    2.64000010
   17.46277809   95.19470215    0.36000001    2.64000010
   17.46583366   92.44809723    0.38000000    2.66000009
   17.46888924  120.21399689    0.38000000    2.66000009
   17.47222328  114.25299835    0.36000001    2.64000010
   17.47805595  114.25299835    0.36000001    2.64000010
   17.48222351  114.90799713    0.34000000    2.64000010
   17.48555565  109.91999817    0.36000001    2.64000010
   17.48861122  105.83799744    0.34000000    2.64000010
   17.49194527  127.92900085    0.31999999    2.64000010
   17.49527740  133.03599548    0.31999999    2.64000010
   17.49611092  144.27200317    0.31999999    2.64000010
   17.49888992  139.15800476    0.31999999    2.66000009
   17.50222206  118.98300171    0.31999999    2.66000009
   17.50527763   99.86109924    0.34000000    2.64000010
   17.50861168  113.44400024    0.34000000    2.64000010
   17.51166725   95.06919861    0.34000000    2.64000010
   17.51499939   98.34369659    0.38000000    2.64000010
   17.52111053   98.34369659    0.41999999    2.64000010
   17.52499962  136.57800293    0.44000000    2.64000010
   17.52833366  109.76499939    0.41999999    2.64000010
   17.52944374  117.47200012    0.41999999    2.64000010
   17.53194427  122.64800262    0.46000001    2.64000010
   17.53499985  122.85700226    0.47999999    2.64000010
   17.53833199  116.25700378    0.50000000    2.64000010
   17.54166603  111.37400055    0.52999997    2.64000010
   17.54472160  133.38299561    0.52999997    2.64000010
   17.54805565  118.40299988    0.52999997    2.64000010
   17.55111122  117.64499664    0.52999997    2.64000010
   17.55444336  119.21900177    0.55000001    2.64000010
   17.55777740  136.26899719    0.58999997    2.64000010
   17.56388855  136.26899719    0.61000001    2.64000010
   17.56805611  121.46499634    0.63000000    2.64000010
   17.57111168  131.72500610    0.63000000    2.64000010
   17.57444572  123.74600220    0.63000000    2.64000010
   17.57777786  130.42300415    0.64999998    2.61999989
   17.58111191  111.90599823    0.64999998    2.64000010
   17.58416748  109.69599915    0.64999998    2.61999989
   17.58750153  125.11799622    0.64999998    2.61999989
   17.59055710   96.54139709    0.63000000    2.64000010
   17.59388924   88.13400269    0.61000001    2.64000010
   17.59611130  100.41799927    0.58999997    2.64000010
   17.59749985   91.43129730    0.58999997    2.64000010
   17.60083389   97.55410004    0.58999997    2.64000010
   17.60666656   97.55410004    0.58999997    2.64000010
   17.61083412   89.86170197    0.55000001    2.64000010
   17.61416626  101.57299805    0.52999997    2.64000010
   17.61750031  105.58000183    0.52999997    2.64000010
   17.62055588  103.07199860    0.52999997    2.64000010
   17.62388992  103.54299927    0.51999998    2.64000010
   17.62694550   89.54759979    0.50000000    2.64000010
   17.62972260   99.13710022    0.50000000    2.64000010
   17.63055611   95.15080261    0.50000000    2.64000010
   17.63388824   89.76930237    0.47999999    2.64000010
   17.63694382   90.75550079    0.44000000    2.64000010
   17.64027786   96.05200195    0.46000001    2.64000010
   17.64361191  107.37500000    0.46000001    2.64000010
   17.64972115  107.37500000    0.44000000    2.64000010
   17.65388870   89.05100250    0.44000000    2.64000010
   17.65694427   98.69589996    0.44000000    2.64000010
   17.66027832   92.73159790    0.41999999    2.64000010
   17.66305542   87.55660248    0.41999999    2.64000010
   17.66388893   89.37100220    0.41999999    2.64000010
   17.66722107   86.97799683    0.40000001    2.64000010
   17.67027664   86.84980011    0.40000001    2.64000010
   17.67361069   89.65000153    0.40000001    2.64000010
   17.67694473   84.87539673    0.40000001    2.64000010
   17.68000031   89.30059814    0.40000001    2.64000010
   17.68333244   90.41760254    0.38000000    2.64000010
   17.68666649   90.43959808    0.40000001    2.64000010
   17.69249916   90.43959808    0.41999999    2.64000010
   17.69666672   82.56269836    0.40000001    2.64000010
   17.70000076   93.07510376    0.40000001    2.64000010
   17.70333481   90.49150085    0.40000001    2.61999989
   17.70639038   90.11109924    0.40000001    2.61999989
   17.70972252   90.71569824    0.40000001    2.64000010
   17.71277809   91.96659851    0.40000001    2.64000010
   17.71611214   88.88449860    0.40000001    2.64000010
   17.71944427   91.21099854    0.40000001    2.64000010
   17.72249985   89.17240143    0.40000001    2.64000010
   17.72583389   87.17579651    0.40000001    2.64000010
   17.72916794   88.85489655    0.40000001    2.64000010
   17.72972298   82.40799713    0.40000001    2.64000010
   17.73527718   82.40799713    0.40000001    2.64000010
   17.73944473   84.75589752    0.38000000    2.64000010
   17.74277878   88.57980347    0.38000000    2.64000010
   17.74583435   86.33599854    0.36000001    2.64000010
   17.74916649   91.84919739    0.36000001    2.64000010
   17.75250053   93.85520172    0.36000001    2.64000010
   17.75555611   97.05590057    0.36000001    2.64000010
   17.75888824   90.54840088    0.36000001    2.64000010
   17.76194382   99.29309845    0.36000001    2.64000010
   17.76305580   93.58170319    0.36000001    2.64000010
   17.76555634   93.19069672    0.40000001    2.64000010
   17.76888847   98.40149689    0.41999999    2.64000010
   17.77222252   85.31649780    0.41999999    2.64000010
   17.77805519   85.31649780    0.41999999    2.64000010
   17.78222275   87.96080017    0.41999999    2.64000010
   17.78555489   90.05670166    0.41999999    2.64000010
   17.78888893   93.37239838    0.41999999    2.64000010
   17.79194450   91.25150299    0.41999999    2.61999989
   17.79527664   87.47319794    0.41999999    2.64000010
   17.79638863   90.42489624    0.41999999    2.64000010
   17.79888916   94.87989807    0.40000001    2.64000010
   17.80222130   93.14739990    0.41999999    2.64000010
   17.80555534   91.39710236    0.40000001    2.64000010
   17.80861092   98.63710022    0.40000001    2.64000010
   17.81194305   95.90270233    0.41999999    2.64000010
   17.81499863   93.24050140    0.41999999    2.61999989
   17.82111168   93.24050140    0.47999999    2.64000010
   17.82527924   96.83689880    0.52999997    2.61999989
   17.82833481   90.59870148    0.52999997    2.64000010
   17.82972336   94.72689819    0.52999997    2.64000010
   17.83194542   93.29190063    0.52999997    2.64000010
   17.83527756   85.92880249    0.52999997    2.64000010
   17.83861160   86.87750244    0.56999999    2.64000010
   17.84166718   90.70269775    0.55000001    2.64000010
   17.84500122   84.70279694    0.55000001    2.64000010
   17.84805679   88.85790253    0.51999998    2.64000010
   17.85138893   96.11689758    0.52999997    2.64000010
   17.85472298   95.89469910    0.52999997    2.64000010
   17.85777855   92.03099823    0.51999998    2.61999989
   17.86388969   92.03099823    0.50000000    2.64000010
   17.86805534   94.56919861    0.50000000    2.64000010
   17.87138939   93.06130219    0.50000000    2.64000010
   17.87444496   89.64990234    0.50000000    2.64000010
   17.87777710   92.31950378    0.51999998    2.61999989
   17.88083267   84.16120148    0.52999997    2.64000010
   17.88416672   90.61959839    0.51999998    2.64000010
   17.88750076   88.64399719    0.52999997    2.61999989
   17.89055634   99.45999908    0.52999997    2.61999989
   17.89388847   97.53730011    0.55000001    2.64000010
   17.89638901   94.55860138    0.55000001    2.64000010
   17.89749908  100.36900330    0.55000001    2.64000010
   17.90083313   91.29229736    0.61000001    2.64000010
   17.90666580   91.29229736    0.67000002    2.64000010
   17.91083336   94.61679840    0.64999998    2.61999989
   17.91388893   90.35070038    0.64999998    2.61999989
   17.91722107   91.52269745    0.64999998    2.61999989
   17.92055511   92.11090088    0.64999998    2.61999989
   17.92361069   86.32379913    0.63000000    2.61999989
   17.92694473   90.56340027    0.61000001    2.64000010
   17.92944336   83.85160065    0.61000001    2.64000010
   17.93055534   91.58709717    0.61000001    2.64000010
   17.93388748   96.65910339    0.58999997    2.61999989
   17.93694305   96.62660217    0.56999999    2.61999989
   17.94027710   93.16179657    0.55000001    2.61999989
   17.94361115   94.47930145    0.51999998    2.64000010
   17.94944382   94.47930145    0.47999999    2.64000010
   17.95361137  101.93499756    0.51999998    2.61999989
   17.95694542   95.03440094    0.56999999    2.61999989
   17.96000099   91.48829651    0.63000000    2.61999989
   17.96277809   94.22810364    0.64999998    2.61999989
   17.96361160   90.63539886    0.64999998    2.61999989
   17.96694565   94.13619995    0.58999997    2.61999989
   17.97000122   92.72070313    0.55000001    2.61999989
   17.97333336   93.29589844    0.56999999    2.61999989
   17.97666740   97.07669830    0.56999999    2.61999989
   17.97972298   93.54149628    0.55000001    2.61999989
   17.98305511  100.29599762    0.51999998    2.61999989
   17.98638916   91.69650269    0.46000001    2.61999989
   17.99222183   91.69650269    0.41999999    2.61999989
   17.99666786   89.98349762    0.40000001    2.61999989
   17.99972153   93.58899689    0.40000001    2.61999989
   18.00305557   90.40769958    0.36000001    2.61999989
   18.00611115   88.39579773    0.36000001    2.61999989
   18.00944519   86.55500031    0.36000001    2.61999989
   18.01277733   96.59880066    0.34000000    2.61999989
   18.01583290   88.74379730    0.34000000    2.61999989
   18.01916695   91.73310089    0.36000001    2.61999989
   18.02222252   93.02899933    0.34000000    2.64000010
   18.02555466   90.00209808    0.34000000    2.61999989
   18.02888870   98.28430176    0.34000000    2.61999989
   18.02972221   91.80149841    0.31999999    2.61999989
   18.03527641   91.80149841    0.34000000    2.64000010
   18.03944397   94.52880096    0.34000000    2.64000010
   18.04249954   91.46690369    0.31999999    2.64000010
   18.04583359   90.90529633    0.31999999    2.61999989
   18.04916573   88.68190002    0.31999999    2.64000010
   18.05249977  101.24099731    0.31999999    2.64000010
   18.05555534   90.52480316    0.31999999    2.64000010
   18.05888748   91.01309967    0.34000000    2.61999989
   18.06194305   91.24230194    0.34000000    2.61999989
   18.06333351   90.12030029    0.38000000    2.61999989
   18.06583214   87.55200195    0.38000000    2.61999989
   18.06916809   89.11049652    0.44000000    2.64000010
   18.07250023   90.99900055    0.51999998    2.61999989
   18.07805634   90.99900055    0.80000001    2.61999989
   18.08222389   90.59390259    0.98000002    2.61999989
   18.08555603   89.07340240    0.98000002    2.61999989
   18.08861160   89.48100281    0.98000002    2.61999989
   18.09194565   96.91020203    0.94000000    2.61999989
   18.09527779   89.44709778    0.92000002    2.61999989
   18.09638977   96.44619751    0.92000002    2.61999989
   18.09861183   95.46730042    0.92000002    2.61999989
   18.10194397   95.71589661    1.38000000    2.59999990
   18.10527802   94.66369629    1.26999998    2.59999990
   18.10833359   90.91950226    1.01999998    2.61999989
   18.11166763   93.94319916    1.00000000    2.61999989
   18.11472321   89.96559906    1.00000000    2.61999989
   18.12083435   89.96559906    0.98000002    2.59999990
   18.12500000   89.16970062    0.98000002    2.59999990
   18.12833405   89.99539948    0.79000002    2.59999990
   18.12972260   91.39019775    0.69000000    2.61999989
   18.13194466   89.71080017    0.69000000    2.61999989
   18.13527679   90.13849640    0.67000002    2.61999989
   18.13861084  103.31400299    0.56999999    2.61999989
   18.14166641   93.85330200    0.47999999    2.61999989
   18.14500046   89.45559692    0.47999999    2.61999989
   18.14833260   94.75039673    0.46000001    2.61999989
   18.15138817   95.88400269    0.41999999    2.61999989
   18.15472221   92.27010345    0.40000001    2.59999990
   18.15777779   92.71109772    0.40000001    2.61999989
   18.16388893   92.71109772    0.38000000    2.61999989
   18.16805458  100.32599640    0.38000000    2.61999989
   18.17111015   97.94100189    0.38000000    2.61999989
   18.17444420   90.99890137    0.40000001    2.61999989
   18.17749977   88.07610321    0.40000001    2.61999989
   18.18083191   89.80169678    0.40000001    2.61999989
   18.18416595   91.45230103    0.40000001    2.59999990
   18.18722153   90.30480194    0.38000000    2.61999989
   18.19055557   92.39890289    0.38000000    2.61999989
   18.19388771   96.14720154    0.38000000    2.61999989
   18.19638824   86.90380096    0.36000001    2.61999989
   18.21694565   86.90380096    0.31999999    2.61999989
   18.22111130   91.67710114    0.31999999    2.61999989
   18.22416687   95.42130280    0.31999999    2.61999989
   18.22750092   98.02950287    0.34000000    2.61999989
   18.22972298   90.50579834    0.34000000    2.61999989
   18.23139000   93.73259735    0.34000000    2.61999989
   18.23444557   91.92739868    0.34000000    2.61999989
   18.23777771   94.54540253    0.34000000    2.59999990
   18.24111176   91.11280060    0.34000000    2.61999989
   18.24416733   92.10569763    0.31999999    2.61999989
   18.24749947   90.65579987    0.31999999    2.61999989
   18.25083351   83.54630280    0.34000000    2.59999990
   18.25388908   88.98799896    0.34000000    2.59999990
   18.25972176   88.98799896    0.36000001    2.61999989
   18.26388931   89.62329865    0.36000001    2.61999989
   18.26694489   83.81120300    0.38000000    2.59999990
   18.27027702   87.24279785    0.41999999    2.61999989
   18.27361107   89.69899750    0.46000001    2.61999989
   18.27666664   90.46769714    0.47999999    2.59999990
   18.28000069   90.04730225    0.47999999    2.59999990
   18.28333282   86.68800354    0.47999999    2.59999990
   18.28638840   91.40059662    0.50000000    2.59999990
   18.28972244   87.33899689    0.51999998    2.57999992
   18.29277802   85.18979645    0.51999998    2.59999990
   18.29611015   92.21810150    0.47999999    2.59999990
   18.29666710   85.69680023    0.47999999    2.59999990
   18.30249977   85.69680023    0.44000000    2.59999990
   18.30666542   92.20529938    0.40000001    2.59999990
   18.30999947   89.55310059    0.34000000    2.59999990
   18.31305504   90.21299744    0.30000001    2.59999990
   18.31638718   88.07289886    0.30000001    2.59999990
   18.31972313   94.65380096    0.28000000    2.59999990
   18.32277870   90.50669861    0.28000000    2.59999990
   18.32611275   91.86940002    0.28000000    2.59999990
   18.32916832   86.79350281    0.28000000    2.59999990
   18.33000183   84.28459930    0.28000000    2.59999990
   18.33277893   92.54429626    0.28000000    2.59999990
   18.33611107   89.37310028    0.25999999    2.61999989
   18.33944511   86.24510193    0.25999999    2.61999989
   18.34527779   86.24510193    0.25999999    2.59999990
   18.34944534   87.66899872    0.28000000    2.59999990
   18.35277748   87.92710114    0.28000000    2.59999990
   18.35583305   91.35449982    0.28000000    2.61999989
   18.35916710   93.74420166    0.28000000    2.59999990
   18.36250114   89.74759674    0.28000000    2.59999990
   18.36333466   93.55180359    0.28000000    2.61999989
   18.36583328   84.21589661    0.28000000    2.61999989
   18.36916733   87.45459747    0.30000001    2.59999990
   18.37249947   88.81500244    0.30000001    2.59999990
   18.37555504   91.64099884    0.30000001    2.59999990
   18.37888908   92.86049652    0.28000000    2.59999990
   18.38222313   83.26090240    0.28000000    2.59999990
   18.38833237   83.26090240    0.28000000    2.59999990
   18.39222145   86.02649689    0.28000000    2.59999990
   18.39555550   92.83769989    0.30000001    2.61999989
   18.39666748   87.64900208    0.30000001    2.61999989
   18.39916611   85.70020294    0.30000001    2.59999990
   18.40250015   87.51940155    0.30000001    2.59999990
   18.40583229   94.81729889    0.30000001    2.61999989
   18.40888786   85.92140198    0.30000001    2.61999989
   18.41222191   94.47740173    0.30000001    2.59999990
   18.41555595   90.67849731    0.28000000    2.59999990
   18.41860962   88.78780365    0.30000001    2.59999990
   18.42194366   93.65129852    0.28000000    2.59999990
   18.42527771   90.31870270    0.28000000    2.59999990
   18.43111038   90.31870270    0.28000000    2.59999990
   18.43527603   87.94770050    0.28000000    2.61999989
   18.43833160   96.47540283    0.28000000    2.59999990
   18.44166565   89.65689850    0.30000001    2.59999990
   18.44499969   90.32559967    0.30000001    2.59999990
   18.44805527   87.08300018    0.30000001    2.59999990
   18.45138931   85.77230072    0.31999999    2.59999990
   18.45472336   88.49819946    0.31999999    2.59999990
   18.45777893   89.43360138    0.34000000    2.59999990
   18.46111107   88.21900177    0.34000000    2.59999990
   18.46333504   88.43830109    0.34000000    2.61999989
   18.46472359   88.23310089    0.34000000    2.61999989
   18.46777916   88.05500031    0.36000001    2.57999992
   18.47389030   88.05500031    0.36000001    2.59999990
   18.47805595   96.36009979    0.34000000    2.61999989
   18.48139000   92.10150146    0.34000000    2.61999989
   18.48444557   87.44200134    0.34000000    2.59999990
   18.48777771   90.34390259    0.31999999    2.59999990
   18.49111176   90.02739716    0.31999999    2.59999990
   18.49416733   94.86299896    0.34000000    2.59999990
   18.49666786   87.58850098    0.34000000    2.59999990
   18.49777794   87.49369812    0.34000000    2.59999990
   18.50111198   87.77680206    0.34000000    2.59999990
   18.50444412   91.71810150    0.36000001    2.59999990
   18.50749969   85.71749878    0.34000000    2.59999990
   18.51083374   86.09919739    0.34000000    2.59999990
   18.51666641   86.09919739    0.31999999    2.59999990
   18.52083397   92.42559814    0.31999999    2.59999990
   18.52444458   88.41590118    0.31999999    2.59999990
   18.52750015   90.32309723    0.34000000    2.59999990
   18.53000069   91.95379639    0.34000000    2.59999990
   18.53111076   87.59799957    0.34000000    2.59999990
   18.53444481   86.61519623    0.34000000    2.59999990
   18.53777695   87.91089630    0.34000000    2.57999992
   18.54083252   95.20629883    0.34000000    2.59999990
   18.54416656   89.43589783    0.34000000    2.59999990
   18.54749870   93.38210297    0.34000000    2.59999990
   18.55055428   89.11340332    0.34000000    2.59999990
   18.55388832   89.25330353    0.34000000    2.59999990
   18.55972099   89.25330353    0.34000000    2.59999990
   18.56361008   90.76629639    0.34000000    2.59999990
   18.56694603   86.16179657    0.34000000    2.59999990
   18.57027817   93.71690369    0.34000000    2.57999992
   18.57333374   88.10620117    0.36000001    2.57999992
   18.57666779   91.65429688    0.36000001    2.57999992
   18.58000183   94.50270081    0.34000000    2.57999992
   18.58305550   91.68409729    0.36000001    2.59999990
   18.58638954   95.17050171    0.36000001    2.59999990
   18.58972359   93.14669800    0.36000001    2.59999990
   18.59277916   86.11309814    0.36000001    2.57999992
   18.59611130   91.30740356    0.38000000    2.59999990
   18.59666824   90.02110291    0.38000000    2.59999990
   18.60250092   90.02110291    0.36000001    2.57999992
   18.60666656   98.15209961    0.34000000    2.59999990
   18.60972214   92.25509644    0.34000000    2.57999992
   18.61305618   94.30190277    0.34000000    2.59999990
   18.61638832   96.66110229    0.36000001    2.59999990
   18.61944389   99.19799805    0.36000001    2.59999990
   18.62277794   88.44259644    0.36000001    2.57999992
   18.62611198   88.54579926    0.38000000    2.57999992
   18.62916756   92.40260315    0.36000001    2.57999992
   18.63000107   87.61350250    0.36000001    2.57999992
   18.63277817   90.70459747    0.34000000    2.57999992
   18.63583374   92.26570129    0.34000000    2.59999990
   18.63916588   89.20230103    0.36000001    2.59999990
   18.64527702   89.20230103    0.34000000    2.57999992
   18.64944458   87.14550018    0.36000001    2.57999992
   18.65277672   85.89550018    0.38000000    2.57999992
   18.65583229   89.44450378    0.41999999    2.57999992
   18.65916634   84.39469910    0.41999999    2.59999990
   18.66250038   89.46369934    0.40000001    2.57999992
   18.66333389   89.08609772    0.38000000    2.57999992
   18.66611099   84.43750000    0.40000001    2.57999992
   18.66916656   94.15249634    0.38000000    2.57999992
   18.67249870   97.24359894    0.40000001    2.57999992
   18.67583275   87.47869873    0.38000000    2.57999992
   18.67888832   82.66400146    0.36000001    2.57999992
   18.68222237   92.18070221    0.34000000    2.57999992
   18.68805504   92.18070221    0.40000001    2.57999992
   18.69222069   91.31150055    0.44000000    2.57999992
   18.69555473   93.47920227    0.44000000    2.57999992
   18.69666672   94.07520294    0.44000000    2.57999992
   18.69916534   89.55840302    0.40000001    2.57999992
   18.70222282   90.31140137    0.47999999    2.57999992
   18.70555687   84.67369843    0.50000000    2.57999992
   18.70888901   85.65910339    0.41999999    2.57999992
   18.71194458   89.19689941    0.40000001    2.57999992
   18.71527863   91.72190094    0.52999997    2.57999992
   18.71833420   88.72000122    0.63000000    2.57999992
   18.72166634   86.41510010    0.63000000    2.57999992
   18.72500038   88.50299835    0.63000000    2.55999994
   18.73111153   88.50299835    0.86000001    2.55999994
   18.73527718   87.76080322    0.83999997    2.57999992
   18.73833275   93.99659729    0.79000002    2.57999992
   18.74166679   86.05020142    0.67000002    2.57999992
   18.74500084   83.13349915    0.67000002    2.57999992
   18.74805641   90.75630188    0.41999999    2.57999992
   18.75138855   89.85109711    0.40000001    2.55999994
   18.75444412   89.31710052    0.38000000    2.57999992
   18.75777817   88.95909882    0.36000001    2.55999994
   18.76111031   91.91149902    0.34000000    2.57999992
   18.76333427   87.79699707    0.34000000    2.57999992
   18.76472282   86.06369781    0.31999999    2.57999992
   18.76777840   92.75209808    0.31999999    2.57999992
   18.77388954   92.75209808    0.31999999    2.57999992
   18.77805519   97.20619965    0.34000000    2.57999992
   18.78111076   89.71279907    0.36000001    2.57999992
   18.78444481   87.36419678    0.31999999    2.59999990
   18.78777695   89.08789825    0.31999999    2.59999990
   18.79083252   88.06250000    0.34000000    2.55999994
   18.79416656   88.67070007    0.34000000    2.57999992
   18.79694366   87.01349640    0.36000001    2.57999992
   18.79777718   93.11519623    0.36000001    2.57999992
   18.80111122   90.52030182    0.36000001    2.57999992
   18.80444336   87.48840332    0.34000000    2.57999992
   18.80749893   90.53880310    0.31999999    2.57999992
   18.81083298   90.01069641    0.31999999    2.57999992
   18.81666756   90.01069641    0.31999999    2.57999992
   18.82083511   90.34880066    0.31999999    2.55999994
   18.82416725   92.16490173    0.31999999    2.57999992
   18.82722282   88.98539734    0.31999999    2.57999992
   18.83000183   92.31240082    0.31999999    2.55999994
   18.83111191   90.29750061    0.31999999    2.55999994
   18.83416748   87.86150360    0.31999999    2.57999992
   18.83750153   86.65360260    0.34000000    2.55999994
   18.84083366   92.36949921    0.34000000    2.57999992
   18.84416771   92.76840210    0.34000000    2.57999992
   18.84722328   87.96520233    0.34000000    2.55999994
   18.85055542   83.93240356    0.36000001    2.55999994
   18.85388947   85.30149841    0.36000001    2.57999992
   18.85944557   85.30149841    0.40000001    2.55999994
   18.86361122   87.58499908    0.38000000    2.55999994
   18.86694527   85.22389984    0.36000001    2.57999992
   18.87000084   84.76830292    0.36000001    2.55999994
   18.87333298   91.99310303    0.36000001    2.55999994
   18.87666702   92.34989929    0.34000000    2.55999994
   18.87972260   97.36779785    0.34000000    2.55999994
   18.88305473   90.86710358    0.34000000    2.55999994
   18.88638878   86.49179840    0.34000000    2.55999994
   18.88944435   92.02709961    0.36000001    2.55999994
   18.89277840   98.24400330    0.40000001    2.55999994
   18.89611053   85.13700104    0.40000001    2.55999994
   18.89666748   95.25070190    0.40000001    2.55999994
   18.90250015   95.25070190    0.44000000    2.55999994
   18.90666580   86.24569702    0.41999999    2.55999994
   18.90972137   87.29219818    0.41999999    2.55999994
   18.91305542   88.45310211    0.41999999    2.57999992
   18.91611099   91.17279816    0.44000000    2.55999994
   18.91944313   97.38379669    0.46000001    2.57999992
   18.92277718   89.76100159    0.44000000    2.55999994
   18.92611122   88.04660034    0.41999999    2.55999994
   18.92916679   90.16829681    0.41999999    2.55999994
   18.93000031   84.57779694    0.41999999    2.55999994
   18.93277740   88.64309692    0.40000001    2.55999994
   18.93610954   91.94760132    0.40000001    2.55999994
   18.93916512   89.38069916    0.38000000    2.55999994
   18.94527626   89.38069916    0.40000001    2.55999994
   18.94944382   89.06349945    0.36000001    2.55999994
   18.95277786   91.16950226    0.36000001    2.55999994
   18.95583344   82.67449951    0.36000001    2.55999994
   18.95916748   87.15630341    0.36000001    2.55999994
   18.96222305   86.54730225    0.36000001    2.55999994
   18.96333504   89.48840332    0.36000001    2.55999994
   18.96611214   88.47160339    0.36000001    2.55999994
   18.96916771   86.51869965    0.38000000    2.55999994
   18.97249985   84.66929626    0.40000001    2.55999994
   18.97583389   93.27799988    0.40000001    2.55999994
   18.97888947   84.27649689    0.40000001    2.55999994
   18.98222351   90.48020172    0.40000001    2.55999994
   18.98805618   90.48020172    0.44000000    2.55999994
   18.99222183   85.93419647    0.47999999    2.55999994
   18.99527740   87.03099823    0.52999997    2.55999994
   18.99666786   86.24559784    0.56999999    2.55999994
   18.99888992   92.25720215    0.56999999    2.55999994
   19.00222206   88.56900024    0.58999997    2.55999994
   19.00555611  101.25099945    0.63000000    2.55999994
   19.00861168   89.60820007    0.55000001    2.53999996
   19.01194382   94.35659790    0.56999999    2.55999994
   19.01527786   91.92199707    0.56999999    2.55999994
   19.01833344   88.33850098    0.56999999    2.53999996
   19.02166557   96.05269623    0.55000001    2.55999994
   19.02499962   90.78369904    0.55000001    2.55999994
   19.03083229   90.78369904    0.63000000    2.53999996
   19.03499985   87.13230133    0.61000001    2.53999996
   19.03833199   92.32350159    0.61000001    2.55999994
   19.04138756   96.58229828    0.55000001    2.53999996
   19.04472160   95.35610199    0.52999997    2.55999994
   19.04777718   89.16040039    0.52999997    2.55999994
   19.05111122   94.12249756    0.55000001    2.53999996
   19.05444336   87.35079956    0.52999997    2.53999996
   19.05749893   81.81610107    0.51999998    2.55999994
   19.06083298   97.56659698    0.52999997    2.53999996
   19.06333351   94.44830322    0.52999997    2.53999996
   19.06416512   87.52480316    0.50000000    2.53999996
   19.06750107   88.89420319    0.46000001    2.53999996
