    HOUR (UT)   FLARE FACTOR    SKY TESTER    SUN TESTER
   11.94583321   -1.00000000   -1.00000000   -1.00000000
   12.02388859  183.90400696    4.82999992    1.89999998
   12.02694416  187.53599548    4.82999992    1.89999998
   12.03027725  196.82699585    4.82999992    1.91999996
   12.03333378  194.30799866    4.82999992    1.91999996
   12.03666687  183.85099792    4.82999992    1.91999996
   12.04000092  182.50799561    4.80999994    1.91999996
   12.04305553  188.53599548    4.82999992    1.91999996
   12.04638958  184.55299377    4.80999994    1.91999996
   12.04972267  175.67399597    4.80999994    1.94000006
   12.05277824  177.25900269    4.80999994    1.94000006
   12.05611134  179.64300537    4.82999992    1.94000006
   12.05694485  178.88800049    4.82999992    1.91999996
   12.05972195  180.36500549    4.80999994    1.91999996
   12.06305599  174.57299805    4.80999994    1.91999996
   12.06611156  173.03300476    4.80999994    1.91999996
   12.06944466  171.77000427    4.82999992    1.94000006
   12.07250023  172.23300171    4.80999994    1.94000006
   12.07583332  173.96200562    4.82999992    1.94000006
   12.07916641  176.72799683    4.80999994    1.94000006
   12.08222198  177.80499268    4.82999992    1.94000006
   12.08555508  175.61399841    4.82999992    1.94000006
   12.08888817  178.25100708    4.82999992    1.94000006
   12.09027767  194.32400513    4.80999994    1.94000006
   12.09222221  183.53900146    4.82999992    1.94000006
   12.09555531  177.77400208    4.84999990    1.94000006
   12.09916592  177.15600586    4.82999992    1.94000006
   12.10222244  167.51800537    4.84999990    1.94000006
   12.10555553  174.37399292    4.82999992    1.96000004
   12.10861111  184.31300354    4.80999994    1.94000006
   12.11194515  173.64700317    4.82999992    1.96000004
   12.11527824  186.87199402    4.80999994    1.96000004
   12.11833382  186.20899963    4.80999994    1.96000004
   12.12166691  177.24299622    4.80000019    1.96000004
   12.12361145  177.38099670    4.80999994    1.96000004
   12.12527752  180.15899658    4.80999994    1.96000004
   12.12861156  175.59700012    4.80999994    1.96000004
   12.13166714  175.04600525    4.80999994    1.98000002
   12.13500023  176.72599792    4.80999994    1.96000004
   12.13805580  179.40600586    4.80000019    1.96000004
   12.14138889  177.92199707    4.80000019    1.98000002
   12.14472198  176.45599365    4.80999994    1.98000002
   12.14777756  180.80499268    4.80999994    1.98000002
   12.15111065  172.72000122    4.80000019    1.98000002
   12.15444374  174.78999329    4.80000019    1.98000002
   12.15694427  171.86399841    4.80999994    1.98000002
   12.15777779  172.22599792    4.80000019    1.98000002
   12.16111088  192.66900635    4.80999994    1.98000002
   12.16416645  176.68499756    4.80000019    1.98000002
   12.16750050  183.88600159    4.80000019    1.98000002
   12.17055607  177.49400330    4.80999994    2.00000000
   12.17388916  178.70300293    4.80000019    1.98000002
   12.17722225  175.97300720    4.80000019    2.00000000
   12.18027782  175.79600525    4.78000021    2.00000000
   12.18361092  174.32000732    4.78000021    2.00000000
   12.18694496  174.82400513    4.80000019    2.00000000
   12.19000053  167.68600464    4.78000021    2.00000000
   12.19055557  171.98100281    4.78000021    2.00000000
   12.19388866  174.79899597    4.80000019    2.00000000
   12.19694424  179.87100220    4.80000019    2.00000000
   12.20027733  185.35699463    4.78000021    2.00000000
   12.20361137  167.98100281    4.78000021    2.00000000
   12.20666695  175.87800598    4.80000019    2.00000000
   12.21000004  177.44599915    4.76000023    2.00000000
   12.21305561  175.83599854    4.78000021    2.01999998
   12.21638870  186.10699463    4.78000021    2.01999998
   12.21972179  178.00199890    4.78000021    2.01999998
   12.22277737  176.09599304    4.80999994    2.01999998
   12.22388840  180.62600708    4.80999994    2.01999998
   12.22666645  195.60200500    4.80999994    2.01999998
   12.22972202  168.82000732    4.80000019    2.01999998
   12.23305511  179.77900696    4.80000019    2.01999998
   12.23638916  178.08599854    4.78000021    2.01999998
   12.23944473  172.59599304    4.78000021    2.01999998
   12.24277782  169.12899780    4.80000019    2.01999998
   12.24583340  183.24299622    4.78000021    2.01999998
   12.24916649  172.73599243    4.78000021    2.01999998
   12.25249958  172.61999512    4.80000019    2.01999998
   12.25555515  165.26100159    4.78000021    2.01999998
   12.25722218  167.27299500    4.80000019    2.01999998
   12.25916672  167.67799377    4.80000019    2.01999998
   12.26222229  171.58700562    4.80000019    2.01999998
   12.26555538  173.53900146    4.80000019    2.01999998
   12.26888847  176.12899780    4.80000019    2.01999998
   12.27194405  171.32899475    4.78000021    2.01999998
   12.27527714  175.43099976    4.78000021    2.01999998
   12.27833271  170.19200134    4.78000021    2.01999998
   12.28166676  169.85699463    4.78000021    2.03999996
   12.28500080  171.96600342    4.80000019    2.03999996
   12.28805637  169.88400269    4.78000021    2.03999996
   12.29055595  171.35699463    4.80000019    2.05999994
   12.29194450  168.73800659    4.80000019    2.03999996
   12.29500008  172.56399536    4.78000021    2.03999996
   12.29833412  179.08200073    4.80000019    2.03999996
   12.30166721  178.35299683    4.80000019    2.03999996
   12.30472279  169.46200562    4.80000019    2.03999996
   12.30805588  180.51600647    4.80000019    2.03999996
   12.31111145  176.22000122    4.78000021    2.03999996
   12.31444454  173.20700073    4.78000021    2.03999996
   12.31777763  176.01800537    4.78000021    2.05999994
   12.32138920  177.26600647    4.78000021    2.03999996
   12.32388878  182.66200256    4.76000023    2.05999994
   12.32499981  165.88600159    4.78000021    2.05999994
   12.32805538  167.55299377    4.80000019    2.03999996
   12.33138847  178.33399963    4.80999994    2.03999996
   12.33472157  169.51100159    4.80000019    2.03999996
   12.33777714  172.53999329    4.78000021    2.05999994
   12.34111118  167.11000061    4.78000021    2.05999994
   12.34416676  167.83599854    4.80000019    2.05999994
   12.34749985  169.37800598    4.78000021    2.05999994
   12.35083389  159.24499512    4.80000019    2.05999994
   12.35388947  178.62500000    4.78000021    2.05999994
   12.35722256  168.47599792    4.78000021    2.05999994
   12.35777855  171.96800232    4.78000021    2.05999994
   12.36083412  165.94700623    4.78000021    2.05999994
   12.36416721  161.79899597    4.80000019    2.05999994
   12.36750031  176.72300720    4.76000023    2.05999994
   12.37055588  163.27299500    4.76000023    2.05999994
   12.37388897  166.88999939    4.76000023    2.05999994
   12.37694454  165.85400391    4.73999977    2.07999992
   12.38027763  162.02099609    4.73999977    2.07999992
   12.38361073  167.77799988    4.73999977    2.07999992
   12.38666630  167.03999329    4.73999977    2.07999992
   12.39000034  171.41900635    4.73999977    2.07999992
   12.39111137  170.72200012    4.73999977    2.07999992
   12.39333344  166.67999268    4.73999977    2.07999992
   12.39666653  175.29499817    4.73999977    2.07999992
   12.39999962  164.07600403    4.76000023    2.07999992
   12.40305519  178.26699829    4.76000023    2.07999992
   12.40638828  179.15699768    4.73999977    2.07999992
   12.40944386  173.73800659    4.76000023    2.07999992
   12.41277695  173.31100464    4.76000023    2.07999992
   12.41611099  168.82800293    4.73999977    2.07999992
   12.41916656  167.19200134    4.73999977    2.09999990
   12.42250061  165.11700439    4.71999979    2.09999990
   12.42444515  162.17599487    4.76000023    2.09999990
   12.42611122  168.59199524    4.76000023    2.09999990
   12.42944431  167.67900085    4.76000023    2.07999992
   12.43277836  165.59599304    4.73999977    2.09999990
   12.43583298  162.54299927    4.73999977    2.09999990
   12.43916702  160.07099915    4.73999977    2.09999990
   12.44250011  170.53399658    4.71999979    2.07999992
   12.44555569  163.00900269    4.73999977    2.09999990
   12.44888878  165.21699524    4.73999977    2.09999990
   12.45194435  165.22999573    4.73999977    2.09999990
   12.45527744  166.38299561    4.71999979    2.09999990
   12.45777798  163.36399841    4.73999977    2.09999990
   12.45888901  159.96000671    4.76000023    2.11999989
   12.46222210  157.72099304    4.71999979    2.09999990
   12.46555519  159.92799377    4.73999977    2.09999990
   12.46861076  160.36199951    4.73999977    2.09999990
   12.47194386  163.51800537    4.76000023    2.09999990
   12.47527695  170.41799927    4.73999977    2.11999989
   12.47833252  165.79100037    4.73999977    2.11999989
   12.48166656  160.48300171    4.73999977    2.11999989
   12.48472214  165.93200684    4.76000023    2.11999989
   12.48805618  164.74800110    4.73999977    2.11999989
   12.49111176  173.21600342    4.73999977    2.11999989
   12.49166679  173.78300476    4.73999977    2.11999989
   12.49499989  155.07899475    4.73999977    2.11999989
   12.49833393  163.95100403    4.76000023    2.11999989
   12.50138855  171.46699524    4.73999977    2.11999989
   12.50472260  161.05499268    4.73999977    2.11999989
   12.50777817  157.56199646    4.73999977    2.11999989
   12.51111126  151.29299927    4.73999977    2.11999989
   12.51444435  152.02000427    4.73999977    2.11999989
   12.51749992  163.56100464    4.73999977    2.11999989
   12.52083302  157.99299622    4.73999977    2.11999989
   12.52416611  164.22200012    4.71999979    2.13000011
   12.52444458  153.17399597    4.73999977    2.13000011
   12.52750015  165.52099609    4.71999979    2.13000011
   12.53083324  158.88200378    4.73999977    2.13000011
   12.53388977  156.44999695    4.73999977    2.11999989
   12.53722286  151.31399536    4.73999977    2.11999989
   12.54027843  156.71000671    4.73999977    2.11999989
   12.54361153  159.67399597    4.73999977    2.13000011
   12.54694462  152.59199524    4.76000023    2.13000011
   12.55000019  155.45599365    4.73999977    2.13000011
   12.55333328  151.86199951    4.71999979    2.13000011
   12.55666733  157.94500732    4.71999979    2.13000011
   12.55777836  155.33799744    4.71999979    2.13000011
   12.56000042  161.60600281    4.71999979    2.13000011
   12.56333351  163.47500610    4.69999981    2.13000011
   12.56638908  158.70199585    4.71999979    2.13000011
   12.56972218  164.11399841    4.67999983    2.13000011
   12.57277775  161.27299500    4.69999981    2.15000010
   12.57611084  160.50000000    4.69999981    2.13000011
   12.57944393  157.50500488    4.69999981    2.13000011
   12.58249950  151.13000488    4.69999981    2.13000011
   12.58583260  162.90100098    4.69999981    2.13000011
   12.58916664  159.59300232    4.69999981    2.13000011
   12.59111118  154.57000732    4.71999979    2.15000010
   12.59277725  155.57699585    4.69999981    2.15000010
   12.59611034  153.86300659    4.69999981    2.15000010
   12.59916592  159.71400452    4.69999981    2.13000011
   12.60249996  152.60400391    4.67999983    2.13000011
   12.60555553  155.59899902    4.71999979    2.13000011
   12.60888958  157.45300293    4.69999981    2.15000010
   12.61222267  157.80599976    4.69999981    2.15000010
   12.61527824  159.84500122    4.73999977    2.15000010
   12.61861134  157.50799561    4.69999981    2.15000010
   12.62194443  156.18299866    4.71999979    2.15000010
   12.62444496  154.64999390    4.67999983    2.15000010
   12.62555599  155.22700500    4.67999983    2.17000008
   12.62888908  157.82699585    4.67999983    2.15000010
   12.63194466  163.25300598    4.67999983    2.17000008
   12.63527775  163.20100403    4.67999983    2.17000008
   12.63833332  160.34100342    4.69999981    2.15000010
   12.64166641  159.95300293    4.67999983    2.15000010
   12.64499950  160.87500000    4.67999983    2.15000010
   12.64805508  161.72399902    4.65999985    2.17000008
   12.65138817  161.15699768    4.67999983    2.17000008
   12.65472221  154.38600159    4.67999983    2.17000008
   12.65777779  159.92900085    4.67999983    2.17000008
   12.65833282  160.49299622    4.65999985    2.17000008
   12.66166592  156.12600708    4.67999983    2.17000008
   12.66472149  166.08999634    4.65999985    2.17000008
   12.66805553  160.09899902    4.65999985    2.17000008
   12.67111111  162.72300720    4.65999985    2.17000008
   12.67444515  151.74600220    4.65999985    2.17000008
   12.67777824  154.40699768    4.65999985    2.17000008
   12.68083382  158.21499634    4.65999985    2.19000006
   12.68416691  152.66400146    4.67999983    2.19000006
   12.68750000  163.30799866    4.67999983    2.17000008
   12.69055557  161.07899475    4.67999983    2.17000008
   12.69166660  160.85600281    4.65999985    2.17000008
   12.69416714  160.83099365    4.67999983    2.17000008
   12.69722271  156.07899475    4.67999983    2.17000008
   12.70055580  161.28599548    4.67999983    2.17000008
   12.70361137  159.75199890    4.67999983    2.17000008
   12.70694447  147.35000610    4.65999985    2.17000008
   12.71027756  159.17700195    4.67999983    2.17000008
   12.71333313  157.12699890    4.63999987    2.19000006
   12.71666622  158.48800659    4.65999985    2.19000006
   12.71999931  167.63099670    4.65999985    2.19000006
   12.72305489  159.36999512    4.65999985    2.19000006
   12.72499943  166.77200317    4.65999985    2.19000006
   12.72694397  161.92399597    4.65999985    2.19000006
   12.73027706  157.76800537    4.65999985    2.19000006
   12.73361111  166.59700012    4.63999987    2.19000006
   12.73694515  162.55700684    4.65999985    2.19000006
   12.74000072  161.45500183    4.63999987    2.19000006
   12.74333382  160.70300293    4.63999987    2.19000006
   12.74638939  161.84399414    4.63999987    2.19000006
   12.74972248  165.08299255    4.63999987    2.19000006
   12.75305557  169.02499390    4.63999987    2.19000006
   12.75611115  159.16299438    4.63999987    2.21000004
   12.75833321  164.59899902    4.63999987    2.21000004
   12.76000023  173.00199890    4.63999987    2.21000004
   12.76305580  156.31500244    4.63999987    2.21000004
   12.76638889  161.28199768    4.63999987    2.19000006
   12.76944447  169.87399292    4.63999987    2.21000004
   12.77277756  165.14599609    4.63999987    2.21000004
   12.77611065  159.60400391    4.65999985    2.21000004
   12.77916622  170.36799622    4.63999987    2.19000006
   12.78249931  161.24899292    4.63999987    2.19000006
   12.78583336  167.46699524    4.63999987    2.21000004
   12.78888893  157.47799683    4.67999983    2.21000004
   12.79166698  162.91600037    4.63999987    2.21000004
   12.79250050  154.70899963    4.65999985    2.21000004
   12.79555607  164.37600708    4.67999983    2.21000004
   12.79888916  168.93200684    4.67999983    2.21000004
   12.80222225  165.34800720    4.65999985    2.21000004
   12.80527782  156.46800232    4.67999983    2.21000004
   12.80861092  162.54499817    4.65999985    2.21000004
   12.81166649  162.07699585    4.67999983    2.21000004
   12.81500053  152.14199829    4.67999983    2.21000004
   12.81833363  163.09199524    4.65999985    2.21000004
   12.82138920  163.74099731    4.65999985    2.21000004
   12.82472229  160.17300415    4.67999983    2.21000004
   12.82527733  164.80200195    4.67999983    2.21000004
   12.82833290  163.80400085    4.65999985    2.21000004
   12.83166695  167.02699280    4.63999987    2.21000004
   12.83500004  155.23699951    4.63999987    2.23000002
   12.83805561  157.98300171    4.63999987    2.23000002
   12.84138870  160.43400574    4.63999987    2.23000002
   12.84472179  163.27900696    4.63999987    2.23000002
   12.84777737  160.00599670    4.63999987    2.23000002
   12.85111141  162.82899475    4.63999987    2.23000002
   12.85416698  162.55400085    4.61999989    2.23000002
   12.85750008  162.80099487    4.63999987    2.23000002
   12.85861111  164.78100586    4.63999987    2.23000002
   12.86111164  158.03900146    4.63999987    2.23000002
   12.86444473  159.45599365    4.61999989    2.23000002
   12.86777782  154.53100586    4.61999989    2.21000004
   12.87083340  160.67300415    4.61999989    2.23000002
   12.87416649  158.05400085    4.61999989    2.23000002
   12.87750053  162.01600647    4.63999987    2.23000002
   12.88055611  157.75999451    4.63999987    2.23000002
   12.88388920  165.85000610    4.61999989    2.23000002
   12.88694477  164.13800049    4.61999989    2.23000002
   12.89027786  159.93499756    4.61999989    2.23000002
   12.89194393  159.65100098    4.63999987    2.23000002
   12.89388847  160.06500244    4.61999989    2.23000002
   12.89722252  158.64799500    4.63999987    2.25000000
   12.90055561  154.27299500    4.63999987    2.25000000
   12.90361118  161.27900696    4.61999989    2.25000000
   12.90694427  163.77000427    4.61999989    2.23000002
   12.91027737  158.80700684    4.61999989    2.23000002
   12.91333294  158.02799988    4.61999989    2.23000002
   12.91666698  146.77000427    4.63999987    2.25000000
   12.91972256  153.55299377    4.61999989    2.25000000
   12.92305565  159.13000488    4.61999989    2.25000000
   12.92527771  160.28100586    4.61999989    2.25000000
   12.92666721  156.94099426    4.61999989    2.25000000
   12.93000031  167.63000488    4.59999990    2.25000000
   12.93333340  160.15400696    4.61999989    2.25000000
   12.93638897  160.91499329    4.61999989    2.25000000
   12.93972206  156.08900452    4.61999989    2.25000000
   12.94305515  161.89900208    4.59999990    2.25000000
   12.94611073  157.28999329    4.61999989    2.25000000
   12.94944477  158.66900635    4.61999989    2.25000000
   12.95249939  155.09300232    4.61999989    2.25000000
   12.95583344  155.11500549    4.61999989    2.25000000
   12.95861053  166.17500305    4.61999989    2.25000000
   12.95944405  152.47900391    4.65999985    2.25000000
   12.96277714  153.23300171    4.61999989    2.25000000
   12.96611118  154.45399475    4.61999989    2.25000000
   12.96916580  147.81900024    4.61999989    2.25000000
   12.97249985  157.83799744    4.63999987    2.25000000
   12.97583294  154.49499512    4.61999989    2.25000000
   12.97888851  159.49800110    4.59999990    2.25000000
   12.98222160  155.52000427    4.59999990    2.25000000
   12.98527813  155.83399963    4.59999990    2.25000000
   12.98861122  152.79800415    4.59999990    2.25000000
   12.99194431  150.47900391    4.61999989    2.25000000
   12.99222279  153.94599915    4.59999990    2.25000000
   12.99555588  156.58099365    4.59999990    2.26999998
   12.99888897  150.40100098    4.57999992    2.25000000
   13.00194454  154.29899597    4.59999990    2.26999998
   13.00527763  152.71600342    4.59999990    2.25000000
   13.00861073  151.30000305    4.59999990    2.26999998
   13.01166630  158.06500244    4.57999992    2.26999998
   13.01500034  162.64999390    4.59999990    2.26999998
   13.01805496  158.64500427    4.59999990    2.26999998
   13.02138901  162.31399536    4.59999990    2.26999998
   13.04027843  158.80799866    4.61999989    2.28999996
   13.04111195  162.07200623    4.59999990    2.26999998
   13.04444504  153.34300232    4.59999990    2.26999998
   13.04750061  157.47300720    4.59999990    2.26999998
   13.05083370  160.79100037    4.61999989    2.26999998
   13.05388927  152.61999512    4.61999989    2.26999998
   13.05722237  156.27099609    4.59999990    2.26999998
   13.06055546  161.29200745    4.59999990    2.26999998
   13.06361103  154.84300232    4.59999990    2.28999996
   13.06694412  156.83700562    4.59999990    2.28999996
   13.07027817  153.25599670    4.59999990    2.28999996
   13.07333374  162.28500366    4.59999990    2.28999996
   13.07388878  157.20700073    4.57999992    2.28999996
   13.07722187  158.50199890    4.59999990    2.26999998
   13.08027744  153.78199768    4.57999992    2.28999996
   13.08361053  156.62800598    4.57999992    2.28999996
   13.08666611  156.06700134    4.59999990    2.28999996
   13.09000015  153.60200500    4.59999990    2.28999996
   13.09333324  163.92500305    4.57999992    2.28999996
   13.09638882  158.30900574    4.55999994    2.28999996
   13.09972191  157.16799927    4.57999992    2.28999996
   13.10305595  155.77499390    4.57999992    2.28999996
   13.10611153  163.22599792    4.57999992    2.30999994
   13.10722256  153.83399963    4.57999992    2.28999996
   13.10972214  161.53900146    4.55999994    2.28999996
   13.11305618  158.79100037    4.57999992    2.28999996
   13.11611176  155.78900146    4.59999990    2.28999996
   13.11944485  153.58799744    4.55999994    2.30999994
   13.12250042  154.40600586    4.57999992    2.30999994
   13.12583351  158.03599548    4.57999992    2.28999996
   13.12916660  159.50900269    4.57999992    2.28999996
   13.13222218  157.01899719    4.59999990    2.28999996
   13.13555527  163.28900146    4.57999992    2.28999996
   13.13888836  159.34300232    4.57999992    2.30999994
   13.14055538  156.35299683    4.59999990    2.30999994
   13.14249992  149.68899536    4.57999992    2.30999994
   13.14583302  155.21600342    4.57999992    2.28999996
   13.14888859  161.07000732    4.57999992    2.28999996
   13.15222168  150.06799316    4.57999992    2.28999996
   13.15527725  157.74299622    4.59999990    2.30999994
   13.15861034  150.59100342    4.61999989    2.30999994
   13.16194439  153.89599609    4.55999994    2.30999994
   13.16499996  151.10600281    4.57999992    2.30999994
   13.16833401  156.43600464    4.55999994    2.30999994
   13.17166710  148.82099915    4.59999990    2.30999994
   13.17388916  150.34700012    4.57999992    2.30999994
   13.17527771  152.69799805    4.57999992    2.30999994
   13.17861176  158.30000305    4.55999994    2.30999994
   13.18166733  160.65699768    4.57999992    2.30999994
   13.18500042  147.79299927    4.57999992    2.30999994
   13.18805599  150.49699402    4.59999990    2.30999994
   13.19138908  156.86399841    4.57999992    2.30999994
   13.19472218  152.68299866    4.59999990    2.30999994
   13.19805527  156.91799927    4.57999992    2.30999994
   13.20111084  154.27200317    4.57999992    2.30999994
   13.20444393  158.57800293    4.57999992    2.30999994
   13.20722198  156.97999573    4.57999992    2.32999992
   13.20805550  153.13999939    4.57999992    2.32999992
   13.21138859  153.07499695    4.55999994    2.32999992
   13.21444416  154.38499451    4.57999992    2.30999994
   13.21777725  155.54400635    4.57999992    2.30999994
   13.22083282  156.47900391    4.57999992    2.30999994
   13.22416592  155.14399719    4.61999989    2.32999992
   13.22749996  152.87500000    4.59999990    2.30999994
   13.23055553  153.80400085    4.59999990    2.30999994
   13.23388958  151.66999817    4.59999990    2.30999994
   13.23722267  152.07400513    4.59999990    2.30999994
   13.24027824  151.37500000    4.57999992    2.30999994
   13.24083328  152.30700684    4.57999992    2.30999994
   13.24416733  149.92900085    4.59999990    2.32999992
   13.24722290  152.37899780    4.55999994    2.30999994
   13.25055599  157.83799744    4.55999994    2.30999994
   13.25361156  150.89399719    4.57999992    2.32999992
   13.25694466  148.07600403    4.55999994    2.32999992
   13.26027775  152.55799866    4.55999994    2.32999992
   13.26333332  151.88400269    4.55999994    2.32999992
   13.26666641  145.58599854    4.55999994    2.32999992
   13.26999950  152.60000610    4.53999996    2.32999992
   13.27305508  151.68400574    4.55999994    2.32999992
   13.27416611  154.23399353    4.53999996    2.32999992
   13.27666664  148.17300415    4.55999994    2.32999992
   13.27972221  146.67700195    4.53999996    2.32999992
   13.28305531  155.96499634    4.53999996    2.32999992
   13.28611183  155.25599670    4.55999994    2.32999992
   13.28944492  152.77299500    4.53999996    2.32999992
   13.29277802  150.16999817    4.53999996    2.32999992
   13.29583359  156.46600342    4.53000021    2.32999992
   13.29916668  153.81700134    4.53999996    2.32999992
   13.30249977  151.69599915    4.53999996    2.34999990
   13.30555534  153.97500610    4.55999994    2.34999990
   13.30749989  152.20300293    4.57999992    2.34999990
   13.30916691  155.41999817    4.53999996    2.32999992
   13.31222248  153.37600708    4.53999996    2.32999992
   13.31555557  151.28399658    4.53000021    2.34999990
   13.31861115  153.55499268    4.55999994    2.34999990
   13.32194424  150.47999573    4.55999994    2.34999990
   13.32527733  148.68800354    4.53999996    2.32999992
   13.32833290  153.61599731    4.55999994    2.34999990
   13.33166695  153.68400574    4.55999994    2.34999990
   13.33500004  154.28599548    4.55999994    2.34999990
   13.33805561  151.30900574    4.53999996    2.34999990
   13.34083271  153.06799316    4.53999996    2.34999990
   13.34194374  151.71899414    4.53999996    2.34999990
   13.34499931  152.59800720    4.53999996    2.34999990
   13.34833336  152.69000244    4.53999996    2.34999990
   13.35138893  151.91000366    4.53999996    2.34999990
   13.35472298  149.20599365    4.53999996    2.34999990
   13.35805607  149.61300659    4.53999996    2.36999989
   13.36138916  150.19799805    4.53999996    2.34999990
   13.36444473  150.68099976    4.53999996    2.34999990
   13.36777782  149.75900269    4.51000023    2.34999990
   13.37083340  160.67900085    4.53999996    2.34999990
   13.37416649  151.27900696    4.53999996    2.36999989
   13.37472248  151.83599854    4.53999996    2.36999989
   13.37777805  149.09599304    4.53999996    2.36999989
   13.38111115  148.01699829    4.53999996    2.36999989
   13.38416672  152.16999817    4.53999996    2.36999989
   13.38749981  154.59300232    4.53000021    2.36999989
   13.39083290  155.65800476    4.51000023    2.34999990
   13.39388847  151.74200439    4.53000021    2.36999989
   13.39722252  152.97399902    4.53999996    2.34999990
   13.40055561  150.09500122    4.53000021    2.36999989
   13.40361118  150.29899597    4.55999994    2.36999989
   13.40694427  147.31399536    4.53999996    2.34999990
   13.40749931  148.51899719    4.53999996    2.34999990
   13.41055489  157.51300049    4.53999996    2.36999989
   13.41361046  152.52099609    4.53999996    2.36999989
   13.41694450  152.25300598    4.53999996    2.36999989
   13.42027855  151.47599792    4.53999996    2.36999989
   13.42333412  150.82499695    4.53999996    2.36999989
   13.42666721  150.24499512    4.55999994    2.36999989
   13.42972279  153.03799438    4.53000021    2.36999989
   13.43305588  149.83799744    4.55999994    2.36999989
   13.43638897  154.42999268    4.55999994    2.36999989
   13.43944454  148.65100098    4.57999992    2.36999989
   13.44083309  157.53500366    4.55999994    2.36999989
   13.44333363  151.03399658    4.55999994    2.36999989
   13.44666672  146.57499695    4.53999996    2.36999989
   13.44972229  159.24899292    4.55999994    2.36999989
   13.45305538  160.58799744    4.55999994    2.36999989
   13.45611095  157.23599243    4.55999994    2.39000010
   13.45944405  154.69200134    4.55999994    2.39000010
   13.46277714  157.34599304    4.55999994    2.36999989
   13.46583271  161.28700256    4.55999994    2.39000010
   13.46916580  154.22200012    4.55999994    2.39000010
   13.47249985  155.44700623    4.53999996    2.39000010
   13.47416592  156.05499268    4.59999990    2.36999989
   13.47611046  156.83500671    4.55999994    2.36999989
   13.47916603  153.38400269    4.53999996    2.36999989
   13.48249912  148.79299927    4.55999994    2.39000010
   13.48583317  149.10699463    4.55999994    2.36999989
   13.48888874  145.30499268    4.55999994    2.39000010
   13.49222279  145.92399597    4.57999992    2.39000010
   13.49527836  145.12699890    4.57999992    2.36999989
   13.49861145  152.96299744    4.55999994    2.36999989
   13.50194454  152.85600281    4.57999992    2.39000010
   13.50500011  148.21699524    4.55999994    2.36999989
   13.50749969  149.44599915    4.55999994    2.39000010
   13.50888920  149.52999878    4.55999994    2.39000010
   13.51194477  151.09199524    4.53000021    2.39000010
   13.51527786  148.75100708    4.53999996    2.40000010
   13.51861095  145.70899963    4.55999994    2.40000010
   13.52166653  148.56900024    4.53999996    2.40000010
   13.52499962  150.53799438    4.53999996    2.39000010
   13.52833271  149.40699768    4.53000021    2.40000010
   13.53138828  150.29800415    4.53999996    2.40000010
   13.53472233  147.95799255    4.51000023    2.40000010
   13.53805637  146.22999573    4.51000023    2.40000010
   13.54083347  150.34100342    4.53000021    2.40000010
   13.54166698  146.54800415    4.53000021    2.40000010
   13.54472256  148.25000000    4.48999977    2.40000010
   13.54805565  152.03700256    4.51000023    2.40000010
   13.55138874  150.05799866    4.51000023    2.40000010
   13.55444431  148.62399292    4.51000023    2.40000010
   13.55777836  149.88600159    4.48999977    2.42000008
   13.56111145  147.90699768    4.51000023    2.42000008
   13.56416702  153.39700317    4.48999977    2.40000010
   13.56750011  151.50599670    4.48999977    2.42000008
   13.57055569  147.30900574    4.48999977    2.42000008
   13.57388878  152.31199646    4.46999979    2.42000008
   13.57444477  147.36300659    4.46999979    2.42000008
   13.57750034  150.32600403    4.46999979    2.42000008
   13.58083344  150.78300476    4.48999977    2.44000006
   13.58416653  147.82000732    4.46999979    2.44000006
   13.58722210  149.13099670    4.48999977    2.40000010
   13.59055519  150.73199463    4.48999977    2.42000008
   13.59388828  143.91600037    4.46999979    2.44000006
   13.59694386  145.43200684    4.46999979    2.42000008
   13.60027790  158.15299988    4.46999979    2.44000006
   13.60333347  148.97300720    4.48999977    2.42000008
   13.60666752  144.30299377    4.46999979    2.44000006
   13.60777855  150.06900024    4.44999981    2.46000004
   13.61000061  148.33700562    4.46999979    2.42000008
   13.61333370  150.94799805    4.44999981    2.46000004
   13.61666679  151.65800476    4.44999981    2.44000006
   13.61972237  143.80799866    4.42999983    2.44000006
   13.62305546  153.92399597    4.44999981    2.46000004
   13.62638855  145.61999512    4.42999983    2.46000004
   13.62944412  143.64300537    4.42999983    2.46000004
   13.63277817  149.14599609    4.44999981    2.46000004
   13.63583279  152.53100586    4.44999981    2.46000004
   13.63916683  145.53300476    4.42999983    2.46000004
   13.64111137  153.17500305    4.46999979    2.46000004
   13.64249992  152.53100586    4.42999983    2.46000004
   13.64583302  145.49800110    4.42999983    2.46000004
   13.64916611  146.08900452    4.48999977    2.46000004
   13.65222168  148.26600647    4.42999983    2.46000004
   13.65555477  150.05400085    4.42999983    2.46000004
   13.65888882  146.86599731    4.42999983    2.46000004
   13.66194439  147.32499695    4.42999983    2.46000004
   13.66527748  147.84700012    4.44999981    2.46000004
   13.66833401  152.04600525    4.42999983    2.46000004
   13.67166710  145.66000366    4.42999983    2.46000004
   13.67444515  148.93899536    4.40999985    2.46000004
   13.67527771  147.21299744    4.46999979    2.46000004
   13.67861176  149.41700745    4.42999983    2.48000002
   13.68194485  152.09899902    4.38999987    2.46000004
   13.68500042  146.05000305    4.42999983    2.46000004
   13.68833351  154.11199951    4.42999983    2.46000004
   13.69166660  150.43200684    4.44999981    2.46000004
   13.69472218  156.19700623    4.44999981    2.46000004
   13.69805527  148.24899292    4.42999983    2.48000002
   13.70138836  150.28500366    4.44999981    2.48000002
   13.70444393  148.55799866    4.46999979    2.48000002
   13.70777798  153.10899353    4.46999979    2.46000004
   13.70833302  146.62699890    4.46999979    2.46000004
   13.71138859  150.56700134    4.44999981    2.48000002
   13.71472168  146.47200012    4.44999981    2.48000002
   13.71805477  153.00500488    4.44999981    2.48000002
   13.72111034  149.30999756    4.44999981    2.48000002
   13.72444439  147.40600586    4.44999981    2.48000002
   13.72749996  157.08000183    4.44999981    2.48000002
   13.73083305  150.91499329    4.42999983    2.48000002
   13.73416710  144.83500671    4.42999983    2.48000002
   13.73722267  156.94400024    4.44999981    2.48000002
   13.74055576  148.87800598    4.44999981    2.48000002
   13.74111176  147.90499878    4.44999981    2.48000002
   13.74416733  155.00700378    4.44999981    2.48000002
   13.74722290  147.80200195    4.46999979    2.48000002
   13.75055599  148.92199707    4.42999983    2.48000002
   13.75388908  151.58500671    4.46999979    2.48000002
   13.75694466  148.68800354    4.44999981    2.48000002
   13.76027775  150.59300232    4.42999983    2.48000002
   13.76361084  151.77600098    4.42999983    2.48000002
   13.76666641  147.19700623    4.44999981    2.48000002
   13.76999950  147.60400391    4.42999983    2.48000002
   13.77305508  145.82699585    4.42999983    2.48000002
   13.77444458  148.67100525    4.44999981    2.48000002
   13.77694416  144.72500610    4.42999983    2.48000002
   13.77999973  143.97300720    4.42999983    2.48000002
   13.78333378  145.37199402    4.46999979    2.48000002
   13.78666687  146.73199463    4.42999983    2.48000002
   13.78972244  146.41799927    4.42999983    2.51999998
   13.79305553  146.34199524    4.46999979    2.50000000
   13.79611111  141.17500305    4.42999983    2.48000002
   13.79944515  145.82699585    4.40999985    2.50000000
   13.80277824  148.26199341    4.42999983    2.50000000
   13.80583382  145.20599365    4.42999983    2.50000000
   13.80777836  141.73399353    4.40999985    2.50000000
   13.80944443  144.56300354    4.42999983    2.48000002
   13.81250000  150.38200378    4.42999983    2.50000000
   13.81583309  149.18200684    4.42999983    2.50000000
   13.81916618  145.98300171    4.42999983    2.50000000
   13.82222176  141.80799866    4.44999981    2.50000000
   13.82555580  147.66900635    4.44999981    2.51999998
   13.82888889  147.59899902    4.44999981    2.50000000
   13.83194447  143.40699768    4.42999983    2.50000000
   13.83527756  148.78900146    4.44999981    2.50000000
   13.83833313  148.23399353    4.42999983    2.48000002
   13.84111118  151.93600464    4.44999981    2.50000000
   13.84222221  149.37100220    4.42999983    2.50000000
   13.84527779  142.90699768    4.44999981    2.50000000
   13.84861088  150.24000549    4.44999981    2.48000002
   13.85194492  154.10400391    4.46999979    2.50000000
   13.85500050  148.58799744    4.46999979    2.48000002
   13.85833359  151.27799988    4.44999981    2.50000000
   13.86166668  151.37699890    4.44999981    2.48000002
   13.86472225  149.72799683    4.44999981    2.48000002
   13.86805534  148.94700623    4.44999981    2.48000002
   13.87111092  148.87899780    4.44999981    2.48000002
   13.87444496  147.68299866    4.44999981    2.48000002
   13.87500000  151.08299255    4.44999981    2.48000002
   13.87805557  157.08299255    4.46999979    2.50000000
   13.88138866  150.43699646    4.44999981    2.50000000
   13.88472176  156.15800476    4.44999981    2.50000000
   13.88777733  148.07800293    4.46999979    2.48000002
   13.89111137  145.32099915    4.46999979    2.48000002
   13.89416695  146.22500610    4.46999979    2.50000000
   13.89750004  152.03100586    4.42999983    2.48000002
   13.90083313  146.16799927    4.46999979    2.50000000
   13.90388870  143.05200195    4.46999979    2.50000000
   13.90722179  147.84800720    4.40999985    2.50000000
   13.90833282  145.75599670    4.44999981    2.50000000
   13.91055489  150.46099854    4.48999977    2.50000000
   13.91388893  146.09800720    4.44999981    2.50000000
   13.91722298  149.44299316    4.44999981    2.48000002
   13.92027855  147.38099670    4.46999979    2.50000000
   13.92361164  151.68800354    4.46999979    2.50000000
   13.92666721  149.41700745    4.46999979    2.50000000
   13.93000031  151.61199951    4.44999981    2.50000000
   13.93333340  167.37699890    4.44999981    2.50000000
   13.93638897  152.83000183    4.48999977    2.48000002
   13.93972206  154.91000366    4.48999977    2.48000002
   13.94166660  145.16299438    4.46999979    2.48000002
   13.94305515  161.58399963    4.46999979    2.50000000
   13.94638920  156.18400574    4.48999977    2.48000002
   13.94972229  150.44999695    4.46999979    2.48000002
   13.95277786  150.14300537    4.46999979    2.48000002
   13.95611095  150.88499451    4.48999977    2.50000000
   13.95944405  150.29899597    4.46999979    2.50000000
   13.96249962  150.63900757    4.46999979    2.48000002
   13.96583271  151.45700073    4.48999977    2.48000002
   13.96888828  147.28399658    4.44999981    2.48000002
   13.97222137  144.15499878    4.48999977    2.50000000
   13.97499943  154.73800659    4.48999977    2.50000000
   13.97583294  157.21200562    4.44999981    2.48000002
   13.97916603  165.03399658    4.48999977    2.48000002
   13.98249912  154.22999573    4.46999979    2.50000000
   13.98555565  152.85600281    4.46999979    2.48000002
   13.98888874  156.52900696    4.48999977    2.50000000
   13.99222279  163.13600159    4.44999981    2.48000002
   13.99527836  170.42399597    4.48999977    2.50000000
   13.99861145  164.41600037    4.46999979    2.48000002
   14.00166702  158.76600647    4.48999977    2.48000002
   14.00500011  159.08099365    4.46999979    2.48000002
   14.00833321  153.10499573    4.48999977    2.48000002
   14.00861073  145.45500183    4.48999977    2.48000002
   14.01194477  163.97099304    4.48999977    2.46000004
   14.01527786  155.17599487    4.51000023    2.48000002
   14.01833344  171.68200684    4.48999977    2.48000002
   14.02166653  150.24600220    4.48999977    2.48000002
   14.02499962  161.56199646    4.51000023    2.48000002
   14.02805519  165.94000244    4.51000023    2.48000002
   14.03138828  170.01699829    4.51000023    2.48000002
   14.03472233  165.64799500    4.51000023    2.48000002
   14.03777790  161.96400452    4.51000023    2.48000002
   14.05694485  175.65400696    4.51000023    2.48000002
   14.05777836  163.32099915    4.51000023    2.48000002
   14.06083393  175.49099731    4.51000023    2.48000002
   14.06416702  171.66299438    4.53000021    2.48000002
   14.06750011  158.49200439    4.53000021    2.48000002
   14.07055569  145.71899414    4.53000021    2.48000002
   14.07388878  167.50599670    4.53000021    2.48000002
   14.07694435  156.96200562    4.53000021    2.48000002
   14.08027744  153.26199341    4.51000023    2.48000002
   14.08361053  174.09100342    4.53000021    2.48000002
   14.08666611  150.65100098    4.51000023    2.48000002
   14.09000015  154.31300354    4.46999979    2.48000002
   14.09055519  150.76100159    4.51000023    2.48000002
   14.09361076  170.87100220    4.53999996    2.48000002
   14.09694386  160.44999695    4.51000023    2.48000002
   14.10027790  155.95500183    4.51000023    2.48000002
   14.10333347  151.88200378    4.51000023    2.48000002
   14.10666752  162.45300293    4.53000021    2.48000002
   14.10972214  159.67700195    4.53000021    2.48000002
   14.11305618  152.46000671    4.51000023    2.48000002
   14.11638927  161.21200562    4.53000021    2.48000002
   14.11944485  142.07200623    4.51000023    2.48000002
   14.12277794  163.11300659    4.53000021    2.50000000
   14.12388897  161.05000305    4.51000023    2.48000002
   14.12638855  146.38900757    4.53000021    2.48000002
   14.12944412  176.21699524    4.51000023    2.48000002
   14.13277817  159.24299622    4.51000023    2.48000002
   14.13611126  183.87199402    4.51000023    2.48000002
   14.13916683  158.80900574    4.48999977    2.48000002
   14.14249992  166.59300232    4.53999996    2.50000000
   14.14555550  160.84199524    4.53000021    2.50000000
   14.14888859  170.30299377    4.48999977    2.48000002
   14.15222168  160.93600464    4.51000023    2.48000002
   14.15527725  165.27900696    4.51000023    2.50000000
   14.15722179  164.33799744    4.48999977    2.50000000
   14.15916634  164.18299866    4.48999977    2.50000000
   14.16222191  170.38600159    4.46999979    2.50000000
   14.16555500  144.67700195    4.51000023    2.50000000
   14.16888905  158.50999451    4.48999977    2.50000000
   14.17194462  149.79499817    4.51000023    2.50000000
   14.17527771  150.34500122    4.48999977    2.50000000
   14.17833328  161.06100464    4.48999977    2.48000002
   14.18194485  162.21499634    4.51000023    2.50000000
   14.18527794  163.86300659    4.46999979    2.50000000
   14.18833351  167.09300232    4.44999981    2.50000000
   14.19055557  149.60600281    4.51000023    2.50000000
   14.19222260  152.82200623    4.48999977    2.50000000
   14.19527817  164.43099976    4.51000023    2.50000000
   14.19861126  166.47700500    4.48999977    2.50000000
   14.20194435  149.83299255    4.51000023    2.48000002
   14.20499992  155.92199707    4.51000023    2.50000000
   14.20833302  162.13800049    4.51000023    2.48000002
   14.21138859  164.67500305    4.48999977    2.50000000
   14.21472168  172.39999390    4.51000023    2.50000000
   14.21805477  171.77400208    4.48999977    2.50000000
   14.22111034  159.05299377    4.48999977    2.50000000
   14.22416592  153.34500122    4.48999977    2.48000002
   14.22527695  152.76400757    4.48999977    2.48000002
   14.22833252  162.46200562    4.51000023    2.50000000
   14.23166656  150.09800720    4.51000023    2.50000000
   14.23500061  155.83099365    4.51000023    2.50000000
   14.23805618  150.24200439    4.51000023    2.50000000
   14.24138927  144.97599792    4.51000023    2.50000000
   14.24472237  170.84500122    4.48999977    2.50000000
   14.24777794  155.08000183    4.51000023    2.50000000
   14.25111103  156.91700745    4.46999979    2.50000000
   14.25416660  153.04499817    4.48999977    2.50000000
   14.25722218  151.08099365    4.46999979    2.50000000
   14.25805569  163.19400024    4.48999977    2.50000000
   14.26111126  159.72500610    4.48999977    2.51999998
   14.26444435  143.89500427    4.48999977    2.51999998
   14.26777744  160.95599365    4.48999977    2.51999998
   14.27083302  158.67300415    4.46999979    2.51999998
   14.27416611  162.20599365    4.48999977    2.51999998
   14.27722168  150.53100586    4.44999981    2.51999998
   14.28055573  159.83500671    4.46999979    2.51999998
   14.28388977  166.30000305    4.48999977    2.50000000
   14.28694534  147.01800537    4.46999979    2.51999998
   14.29027843  161.25100708    4.48999977    2.50000000
   14.29083347  147.59599304    4.48999977    2.50000000
   14.29416752  158.71699524    4.51000023    2.51999998
   14.29722309  163.10800171    4.48999977    2.51999998
   14.30055618  148.24899292    4.48999977    2.51999998
   14.30388927  148.27600098    4.48999977    2.51999998
   14.30694485  151.67900085    4.51000023    2.51999998
   14.31027794  146.07299805    4.51000023    2.51999998
   14.31333351  160.95700073    4.48999977    2.51999998
   14.31666660  165.52099609    4.51000023    2.51999998
   14.31999969  153.33399963    4.51000023    2.51999998
   14.32305527  155.03799438    4.48999977    2.51999998
   14.32416630  150.49400330    4.48999977    2.51999998
   14.32666683  146.25799561    4.51000023    2.51999998
   14.32999992  146.30400085    4.48999977    2.51999998
   14.33333302  142.44500732    4.53000021    2.51999998
   14.33638859  150.33999634    4.48999977    2.51999998
   14.33972168  156.85000610    4.51000023    2.51999998
   14.34277725  143.29100037    4.48999977    2.51999998
   14.34611034  157.46299744    4.53000021    2.51999998
   14.34944439  144.88400269    4.51000023    2.50000000
   14.35249996  158.47799683    4.51000023    2.51999998
   14.35583401  156.96099854    4.51000023    2.53999996
   14.35750008  153.36000061    4.51000023    2.51999998
   14.35916710  146.76100159    4.51000023    2.51999998
   14.36250019  142.36900330    4.48999977    2.53999996
   14.36583328  142.27299500    4.51000023    2.51999998
   14.36888885  147.38000488    4.48999977    2.51999998
   14.37222195  147.10499573    4.48999977    2.51999998
   14.37527752  154.72599792    4.46999979    2.51999998
   14.37861156  150.69099426    4.48999977    2.51999998
   14.38194466  150.87399292    4.51000023    2.51999998
   14.38500023  150.69700623    4.51000023    2.51999998
   14.38833332  150.08500671    4.46999979    2.51999998
   14.39083290  156.64900208    4.48999977    2.53999996
   14.39194393  146.47300720    4.46999979    2.51999998
   14.39527798  153.69000244    4.48999977    2.53999996
   14.39861107  156.98899841    4.48999977    2.51999998
   14.40166664  143.47200012    4.48999977    2.51999998
   14.40499973  147.07600403    4.51000023    2.51999998
   14.40805531  143.63999939    4.46999979    2.53999996
   14.41138840  158.29499817    4.51000023    2.53999996
   14.41472149  151.81799316    4.48999977    2.51999998
   14.41777802  145.54800415    4.48999977    2.53999996
   14.42111111  163.69900513    4.46999979    2.53999996
   14.42444515  159.47700500    4.46999979    2.53999996
   14.42472267  150.11500549    4.46999979    2.53999996
   14.42805576  147.43800354    4.46999979    2.53999996
   14.43138885  143.68200684    4.46999979    2.53999996
   14.43444443  140.70799255    4.46999979    2.53999996
   14.43777752  149.16099548    4.44999981    2.53999996
   14.44111156  145.12600708    4.51000023    2.53999996
   14.44416714  153.81599426    4.46999979    2.55999994
   14.44750023  154.53900146    4.44999981    2.53999996
   14.45083332  148.53500366    4.46999979    2.53999996
   14.45388889  146.02999878    4.44999981    2.53999996
   14.45722198  146.14799500    4.46999979    2.53999996
   14.45777798  155.57800293    4.46999979    2.55999994
   14.46083355  149.48399353    4.46999979    2.51999998
   14.46416664  144.50500488    4.44999981    2.53999996
   14.46749973  141.70199585    4.44999981    2.55999994
   14.47055531  151.09500122    4.51000023    2.53999996
   14.47388840  155.48500061    4.46999979    2.55999994
   14.47722149  148.42199707    4.44999981    2.55999994
   14.48027706  142.32499695    4.48999977    2.53999996
   14.48361111  146.50500488    4.46999979    2.53999996
   14.48666668  149.96000671    4.44999981    2.53999996
   14.49000072  149.14700317    4.46999979    2.53999996
   14.49111176  148.95799255    4.48999977    2.53999996
   14.49361134  147.12399292    4.46999979    2.53999996
   14.49694443  148.13900757    4.44999981    2.53999996
   14.50000000  145.14300537    4.44999981    2.53999996
   14.50333309  151.40699768    4.48999977    2.53999996
   14.50666714  142.40299988    4.44999981    2.53999996
   14.50972176  144.88099670    4.46999979    2.53999996
   14.51305580  146.83700562    4.44999981    2.53999996
   14.51638889  141.67900085    4.44999981    2.53999996
   14.51944447  155.95100403    4.44999981    2.53999996
   14.52277756  143.67799377    4.46999979    2.53999996
   14.52444458  147.98399353    4.42999983    2.53999996
   14.52638817  139.18800354    4.46999979    2.55999994
   14.52972221  146.66400146    4.44999981    2.55999994
   14.53277779  152.20799255    4.42999983    2.55999994
   14.53611183  143.83599854    4.44999981    2.55999994
   14.53944492  146.30000305    4.44999981    2.55999994
   14.54250050  150.02999878    4.42999983    2.55999994
   14.54583359  139.73300171    4.48999977    2.55999994
   14.54916668  146.51499939    4.46999979    2.55999994
   14.55222225  149.48199463    4.44999981    2.55999994
   14.55555534  148.51100159    4.44999981    2.53999996
   14.55777836  146.24800110    4.44999981    2.55999994
   14.55888939  152.98800659    4.46999979    2.55999994
   14.56222248  143.86599731    4.44999981    2.55999994
   14.56555557  145.32000732    4.46999979    2.55999994
   14.56861115  139.63000488    4.44999981    2.55999994
   14.57194424  136.67700195    4.44999981    2.55999994
   14.57499981  141.38600159    4.44999981    2.55999994
   14.57833290  143.08700562    4.44999981    2.55999994
   14.58166695  143.47599792    4.46999979    2.55999994
   14.58472157  143.49800110    4.44999981    2.55999994
   14.58805561  140.63999939    4.44999981    2.57999992
   14.59111118  140.80099487    4.44999981    2.55999994
   14.59166622  142.33700562    4.44999981    2.55999994
   14.59499931  148.42300415    4.44999981    2.55999994
   14.59805489  145.26199341    4.44999981    2.55999994
   14.60138893  146.36999512    4.44999981    2.57999992
   14.60472298  144.39500427    4.42999983    2.55999994
   14.60777855  150.89900208    4.42999983    2.55999994
   14.61111164  137.37500000    4.44999981    2.57999992
   14.61444473  139.02699280    4.42999983    2.55999994
   14.61750031  143.02499390    4.44999981    2.57999992
   14.62083340  142.21099854    4.42999983    2.57999992
   14.62388897  147.06500244    4.42999983    2.55999994
   14.62444496  147.78700256    4.42999983    2.55999994
   14.62750053  143.40499878    4.44999981    2.57999992
   14.63055611  152.29899597    4.42999983    2.55999994
   14.63388920  149.70199585    4.46999979    2.55999994
   14.63722229  148.19900513    4.42999983    2.57999992
   14.64027786  148.66099548    4.42999983    2.57999992
   14.64361095  142.61500549    4.42999983    2.57999992
   14.64694405  141.06300354    4.40999985    2.57999992
   14.64999962  147.13699341    4.44999981    2.57999992
   14.65333271  143.82600403    4.42999983    2.57999992
   14.65638828  147.25199890    4.42999983    2.57999992
   14.65777779  144.79899597    4.44999981    2.55999994
   14.65999985  147.32200623    4.44999981    2.55999994
   14.66305542  149.45399475    4.42999983    2.57999992
   14.66638851  148.52699280    4.42999983    2.57999992
   14.66972256  144.45300293    4.44999981    2.57999992
   14.67277813  146.00599670    4.44999981    2.57999992
   14.67611122  144.50799561    4.44999981    2.57999992
   14.67944431  146.31100464    4.42999983    2.57999992
   14.68249989  151.40699768    4.44999981    2.59999990
   14.68583298  143.38999939    4.40999985    2.57999992
   14.68888855  141.47300720    4.42999983    2.57999992
   14.69111156  142.39300537    4.42999983    2.57999992
   14.69250011  144.14900208    4.42999983    2.57999992
   14.69555569  146.57200623    4.42999983    2.59999990
   14.69888878  144.17599487    4.44999981    2.57999992
   14.70222187  141.35000610    4.44999981    2.57999992
   14.70527744  150.58799744    4.42999983    2.57999992
   14.70861053  145.64599609    4.42999983    2.57999992
   14.71194458  142.89500427    4.44999981    2.57999992
   14.71500015  145.91999817    4.40999985    2.59999990
   14.71833324  143.62399292    4.42999983    2.59999990
   14.72166634  142.21000671    4.44999981    2.57999992
   14.72444439  149.46099854    4.44999981    2.57999992
   14.72527695  148.80400085    4.42999983    2.57999992
   14.72833252  143.08900452    4.44999981    2.57999992
   14.73166656  152.30499268    4.42999983    2.57999992
   14.73500061  152.72000122    4.46999979    2.57999992
   14.73805618  143.86799622    4.44999981    2.57999992
   14.74138927  147.27299500    4.42999983    2.57999992
   14.74444485  148.40899658    4.44999981    2.57999992
   14.74777794  142.56599426    4.40999985    2.57999992
   14.75111103  142.26899719    4.42999983    2.57999992
   14.75416660  138.47000122    4.42999983    2.59999990
   14.75749969  141.73399353    4.42999983    2.59999990
   14.75805569  146.54800415    4.42999983    2.59999990
   14.76083374  145.98899841    4.44999981    2.57999992
   14.76416683  145.51499939    4.42999983    2.57999992
   14.76749992  140.62100220    4.44999981    2.57999992
   14.77055550  140.44799805    4.44999981    2.57999992
   14.77388859  141.84500122    4.40999985    2.57999992
   14.77694416  141.11799622    4.42999983    2.57999992
   14.78027725  144.40199280    4.46999979    2.55999994
   14.78361130  147.92900085    4.44999981    2.57999992
   14.78666687  147.52699280    4.44999981    2.59999990
   14.79000092  145.52400208    4.42999983    2.59999990
   14.79138947  151.64900208    4.44999981    2.59999990
   14.79388905  144.21400452    4.44999981    2.57999992
   14.79694462  144.12600708    4.44999981    2.59999990
   14.80027771  143.59300232    4.46999979    2.57999992
   14.80333328  144.14900208    4.44999981    2.57999992
   14.80666733  145.84199524    4.42999983    2.57999992
   14.81000042  147.76800537    4.46999979    2.57999992
   14.81305599  150.17999268    4.44999981    2.57999992
   14.81638908  144.25500488    4.44999981    2.59999990
   14.81972218  142.14100647    4.46999979    2.59999990
   14.82277775  146.08200073    4.44999981    2.57999992
   14.82472229  142.26699829    4.46999979    2.59999990
   14.82638836  144.08200073    4.44999981    2.57999992
   14.82972240  149.04800415    4.46999979    2.57999992
   14.83305550  146.23699951    4.44999981    2.57999992
   14.83611107  150.82400513    4.46999979    2.57999992
   14.83944416  151.38099670    4.48999977    2.57999992
   14.84277725  145.24899292    4.46999979    2.57999992
   14.84583282  141.81500244    4.46999979    2.57999992
   14.84916592  152.06199646    4.46999979    2.57999992
   14.85222244  147.46699524    4.46999979    2.59999990
   14.85555553  146.45899963    4.44999981    2.59999990
   14.85805607  145.69099426    4.44999981    2.59999990
   14.85916710  146.29100037    4.46999979    2.59999990
   14.86250019  145.63299561    4.44999981    2.57999992
   14.86583328  144.85299683    4.44999981    2.57999992
   14.86888885  143.66600037    4.44999981    2.57999992
   14.87222195  145.81599426    4.48999977    2.59999990
   14.87555599  142.74200439    4.44999981    2.57999992
   14.87861156  141.52900696    4.46999979    2.59999990
   14.88194466  143.85299683    4.42999983    2.59999990
   14.88500023  140.11300659    4.42999983    2.59999990
   14.88833332  143.45199585    4.42999983    2.59999990
   14.89138889  137.66999817    4.44999981    2.57999992
   14.89166641  138.70399475    4.44999981    2.57999992
   14.89499950  140.56300354    4.44999981    2.57999992
   14.89833355  138.52699280    4.44999981    2.57999992
   14.90138817  141.86799622    4.44999981    2.59999990
   14.90472221  138.58500671    4.46999979    2.59999990
   14.90805531  142.52299500    4.44999981    2.59999990
   14.91111088  138.81399536    4.44999981    2.57999992
   14.91444397  146.62699890    4.42999983    2.59999990
   14.91750050  144.03599548    4.46999979    2.59999990
   14.92083359  142.52200317    4.48999977    2.59999990
   14.92416668  143.86000061    4.46999979    2.59999990
   14.92472267  146.46299744    4.46999979    2.59999990
   14.92750072  144.03500366    4.46999979    2.57999992
   14.93083382  152.48199463    4.44999981    2.57999992
   14.93416691  145.20899963    4.44999981    2.57999992
   14.93722248  141.35000610    4.44999981    2.57999992
   14.94055557  142.06300354    4.44999981    2.59999990
   14.94388866  145.38900757    4.42999983    2.59999990
   14.94694424  146.50799561    4.42999983    2.59999990
   14.95027733  142.27200317    4.44999981    2.57999992
   14.95333290  141.06399536    4.42999983    2.59999990
   14.95666695  138.13900757    4.48999977    2.59999990
   14.95805550  141.32600403    4.44999981    2.59999990
   14.96027756  143.07000732    4.44999981    2.59999990
   14.96361065  140.78599548    4.44999981    2.59999990
   14.96694374  140.52099609    4.42999983    2.59999990
   14.96999931  144.09500122    4.48999977    2.59999990
   14.97333336  145.55999756    4.44999981    2.59999990
   14.97666645  141.78500366    4.44999981    2.59999990
   14.97972202  143.86199951    4.44999981    2.59999990
   14.98305511  141.51699829    4.42999983    2.59999990
   14.98611164  150.44900513    4.42999983    2.59999990
   14.98944473  144.85600281    4.44999981    2.59999990
   14.99138927  143.16400146    4.46999979    2.59999990
   14.99305534  142.71299744    4.42999983    2.59999990
   14.99638939  148.43800354    4.44999981    2.59999990
   14.99972248  147.85699463    4.44999981    2.59999990
   15.00277805  137.08799744    4.46999979    2.59999990
   15.00611115  147.45599365    4.48999977    2.59999990
   15.00944424  134.85000610    4.44999981    2.59999990
   15.01249981  141.07400513    4.40999985    2.59999990
   15.01583290  137.80700684    4.42999983    2.59999990
   15.01888847  145.82099915    4.44999981    2.59999990
   15.02222157  145.83299255    4.44999981    2.59999990
   15.02472210  148.62500000    4.44999981    2.59999990
   15.02583313  145.52699280    4.44999981    2.59999990
   15.02916622  146.38800049    4.44999981    2.61999989
   15.03249931  154.00500488    4.44999981    2.59999990
   15.03555584  144.26800537    4.44999981    2.59999990
   15.03888893  143.66200256    4.44999981    2.59999990
   15.04222298  142.77699280    4.44999981    2.59999990
   15.04555607  137.20700073    4.42999983    2.59999990
   15.04861164  140.36199951    4.44999981    2.59999990
   15.05194473  136.51199341    4.42999983    2.59999990
   15.05500031  141.35699463    4.42999983    2.59999990
   15.07361126  140.41900635    4.44999981    2.59999990
   15.07499981  137.70100403    4.46999979    2.59999990
   15.07833290  141.33000183    4.42999983    2.61999989
   15.08138847  141.10200500    4.44999981    2.61999989
   15.08472157  142.74200439    4.44999981    2.59999990
   15.08805561  135.33399963    4.44999981    2.61999989
   15.09111118  137.07099915    4.46999979    2.61999989
   15.09444427  140.51699829    4.44999981    2.61999989
   15.09777737  138.99899292    4.44999981    2.61999989
   15.10083389  134.98699951    4.44999981    2.59999990
   15.10416698  138.01800537    4.46999979    2.59999990
   15.10666752  141.61300659    4.46999979    2.59999990
   15.10777855  143.44900513    4.44999981    2.59999990
   15.11083412  141.63499451    4.46999979    2.59999990
   15.11416721  138.64500427    4.44999981    2.61999989
   15.11750031  137.85899353    4.46999979    2.61999989
   15.12055588  137.61799622    4.46999979    2.61999989
   15.12388897  140.19000244    4.44999981    2.61999989
   15.12722206  147.14999390    4.46999979    2.61999989
   15.13027763  138.00399780    4.48999977    2.61999989
   15.13361073  138.57000732    4.46999979    2.59999990
   15.13666630  139.53100586    4.46999979    2.61999989
   15.14000034  143.88499451    4.46999979    2.61999989
   15.14055538  132.61999512    4.48999977    2.61999989
   15.14388847  137.50599670    4.44999981    2.59999990
   15.14694405  132.02900696    4.44999981    2.59999990
   15.15027714  137.74299622    4.44999981    2.61999989
   15.15361118  138.02900696    4.46999979    2.61999989
   15.15666676  142.23199463    4.46999979    2.59999990
   15.15999985  141.09399414    4.48999977    2.61999989
   15.16305542  137.18299866    4.44999981    2.59999990
   15.16638851  142.35299683    4.46999979    2.64000010
   15.16972256  139.60499573    4.46999979    2.61999989
   15.17277813  141.56100464    4.48999977    2.61999989
   15.17388916  136.47900391    4.42999983    2.59999990
   15.17638874  140.48899841    4.46999979    2.61999989
   15.17944431  142.45500183    4.46999979    2.61999989
   15.18277836  137.82400513    4.44999981    2.59999990
   15.18611145  140.07099915    4.48999977    2.61999989
   15.18916702  141.05900574    4.44999981    2.61999989
   15.19250011  138.14799500    4.51000023    2.61999989
   15.19555569  142.24800110    4.51000023    2.61999989
   15.19888878  141.43099976    4.44999981    2.61999989
   15.20222187  142.20100403    4.46999979    2.61999989
   15.20527744  136.67100525    4.44999981    2.61999989
   15.20722198  147.09599304    4.44999981    2.61999989
   15.20888901  135.49400330    4.48999977    2.61999989
   15.21194458  140.07299805    4.46999979    2.59999990
   15.21527767  134.12199402    4.44999981    2.61999989
   15.21861076  139.85699463    4.44999981    2.61999989
   15.22166634  136.71200562    4.44999981    2.61999989
   15.22499943  136.28599548    4.48999977    2.61999989
   15.22833252  131.63099670    4.46999979    2.61999989
   15.23166656  135.14100647    4.48999977    2.64000010
   15.23472214  137.85200500    4.44999981    2.61999989
   15.23805618  136.45799255    4.46999979    2.64000010
   15.24055576  141.09300232    4.46999979    2.61999989
   15.24166679  138.19700623    4.46999979    2.61999989
   15.24499989  133.99299622    4.42999983    2.61999989
   15.24805546  134.45799255    4.46999979    2.61999989
   15.25138855  140.27400208    4.46999979    2.61999989
   15.25444412  136.78900146    4.46999979    2.61999989
   15.25777817  135.98500061    4.44999981    2.61999989
   15.26111126  134.72599792    4.46999979    2.61999989
   15.26416683  139.67500305    4.44999981    2.61999989
   15.26749992  137.83500671    4.46999979    2.64000010
   15.27083302  145.69400024    4.46999979    2.64000010
   15.27388859  138.27299500    4.44999981    2.61999989
   15.27444458  143.32400513    4.44999981    2.61999989
   15.27777767  141.72599792    4.44999981    2.61999989
   15.28083324  139.41499329    4.48999977    2.64000010
   15.28416729  140.27200317    4.44999981    2.61999989
   15.28722286  137.32800293    4.48999977    2.61999989
   15.29055595  137.74000549    4.44999981    2.64000010
   15.29388905  141.12699890    4.46999979    2.64000010
   15.29694462  136.05299377    4.44999981    2.64000010
   15.30027771  136.67399597    4.42999983    2.64000010
   15.30361176  139.61000061    4.46999979    2.64000010
   15.30666733  136.48800659    4.44999981    2.64000010
   15.30722237  138.57099915    4.44999981    2.64000010
   15.31027794  132.60699463    4.44999981    2.61999989
   15.31333351  139.73500061    4.44999981    2.61999989
   15.31666660  132.55000305    4.44999981    2.64000010
   15.31999969  139.19200134    4.44999981    2.64000010
   15.32305527  136.63000488    4.44999981    2.64000010
   15.32638836  139.79100037    4.46999979    2.64000010
   15.32972240  137.70199585    4.44999981    2.61999989
   15.33277798  135.64500427    4.48999977    2.64000010
   15.33611107  136.62399292    4.46999979    2.64000010
   15.33916664  142.12800598    4.44999981    2.64000010
   15.34055519  145.75599670    4.46999979    2.61999989
   15.34305477  140.86500549    4.46999979    2.64000010
   15.34611034  138.10000610    4.44999981    2.64000010
   15.34944439  136.99299622    4.46999979    2.64000010
   15.35277843  143.32099915    4.44999981    2.61999989
   15.35583401  146.33099365    4.46999979    2.61999989
   15.35916710  133.40199280    4.46999979    2.64000010
   15.36250019  138.88499451    4.46999979    2.61999989
   15.46805477   -1.00000000   -1.00000000   -1.00000000
   15.57472229   -1.00000000   -1.00000000   -1.00000000
   15.68722248   -1.00000000   -1.00000000   -1.00000000
   15.83611107   77.33249664    4.53000021    2.66000009
   15.83916664  140.70799255    4.53000021    2.67000008
   15.84249973  141.39100647    4.53000021    2.67000008
   15.84583282  129.33999634    4.53000021    2.66000009
   15.84888840  138.22900391    4.53999996    2.67000008
   15.85222244  136.30400085    4.51000023    2.67000008
   15.85555553  137.83200073    4.90999985    2.82999992
   15.85861111  137.98699951    4.90999985    2.80999994
   15.86194515  138.86700439    4.90999985    2.84999990
   15.86500072  138.50199890    0.56999999    2.78999996
   15.86833382  139.88400269    0.47999999    2.78999996
   15.86944485  135.30299377    0.47999999    2.78999996
   15.87166691  137.94099426    0.47999999    2.76999998
   15.87500000  137.39199829    0.47999999    2.76999998
   15.87833309  134.92599487    0.47999999    2.76999998
   15.88138866  141.01400757    0.47999999    2.76999998
   15.88472176  138.51199341    0.47999999    2.76999998
   15.88805580  126.00599670    0.50000000    2.76999998
   15.89111137  131.60800171    0.47999999    2.76999998
   15.89444447  128.10099792    0.47999999    2.78999996
   15.89750004  128.60699463    0.47999999    2.78999996
   15.90083313  135.17799377    0.47999999    2.76999998
   15.90277767  127.33899689    0.47999999    2.76999998
   15.90444374  130.63600159    0.47999999    2.76999998
   15.90749931  129.76800537    0.50000000    2.76999998
   15.91083336  131.41400146    0.50000000    2.76999998
   15.91388893  133.74000549    0.50000000    2.76999998
   15.91722298  134.82699585    0.50000000    2.78999996
   15.92055607  137.42199707    0.50000000    2.76999998
   15.92361164  135.79499817    0.50000000    2.76999998
   15.92694473  137.67100525    0.51999998    2.78999996
   15.93027782  140.53100586    0.56999999    2.76999998
   15.93333340  133.72599792    0.58999997    2.76999998
   15.93611145  142.15800476    0.56999999    2.78999996
   15.93722248  140.71099854    0.58999997    2.76999998
   15.94027805  134.13000488    0.58999997    2.76999998
   15.94361115  134.47399902    0.58999997    2.76999998
   15.94666672  135.88699341    0.58999997    2.78999996
   15.94999981  137.19000244    0.58999997    2.78999996
   15.95333290  135.94700623    0.56999999    2.76999998
   15.95638847  135.84800720    0.56999999    2.76999998
   15.95972157  136.72099304    0.56999999    2.78999996
   15.96277714  132.81199646    0.55000001    2.78999996
   15.96611118  125.91400146    0.55000001    2.78999996
   15.96944427  129.35200500    0.55000001    2.78999996
   15.96972179  148.66099548    0.55000001    2.78999996
   15.97305489  129.22900391    0.51999998    2.78999996
   15.97638798  140.99600220    0.51999998    2.78999996
   15.97944355  194.50799561    0.50000000    2.78999996
   15.98277760  241.30900574    0.47999999    2.76999998
   15.98611164  206.36900330    0.46000001    2.78999996
   15.98916721  249.89100647    0.46000001    2.78999996
   15.99250031  279.77899170    0.46000001    2.76999998
   15.99555588  300.79000854    0.44000000    2.78999996
   15.99888897  297.75601196    0.46000001    2.78999996
   16.00222206  226.46800232    0.44000000    2.78999996
   16.00305557  311.95999146    0.44000000    2.78999996
   16.00583267  244.91799927    0.46000001    2.76999998
   16.00916672  323.87600708    0.46000001    2.76999998
   16.01222229  271.41198730    0.44000000    2.78999996
   16.01555634  259.62500000    0.44000000    2.78999996
   16.01888847  289.36401367    0.46000001    2.78999996
   16.02194405  205.97999573    0.46000001    2.76999998
   16.02527809  305.19699097    0.46000001    2.76999998
   16.02833366  302.12799072    0.46000001    2.78999996
   16.03166580  253.96200562    0.46000001    2.76999998
   16.03499985  314.86898804    0.46000001    2.78999996
   16.03666687  323.12100220    0.46000001    2.78999996
   16.03833199  266.15701294    0.46000001    2.78999996
   16.04166603  258.00601196    0.46000001    2.78999996
   16.04472160  265.01199341    0.46000001    2.78999996
   16.04805565  232.15400696    0.47999999    2.76999998
   16.05138779  255.27099609    0.50000000    2.76999998
   16.05444336  228.71800232    0.50000000    2.76999998
   16.05777740  205.08000183    0.47999999    2.78999996
   16.06083298  204.84800720    0.47999999    2.78999996
   16.06416512  218.18499756    0.47999999    2.78999996
   16.06750107  219.95799255    0.50000000    2.78999996
   16.06972313  208.72099304    0.50000000    2.78999996
   16.07083511  178.62800598    0.50000000    2.78999996
   16.07416725  190.84300232    0.50000000    2.76999998
   16.07722282  199.30099487    0.47999999    2.76999998
   16.08055687  190.01899719    0.46000001    2.78999996
   16.08388901  179.02000427    0.46000001    2.78999996
   16.08694458  175.77299500    0.46000001    2.78999996
   16.09027863  186.72399902    0.46000001    2.78999996
   16.09333420  160.88000488    0.46000001    2.76999998
   16.09666824  145.40100098    0.46000001    2.78999996
   16.10000038  172.80299377    0.46000001    2.78999996
   16.10333443  151.82699585    0.46000001    2.78999996
   16.10361099  177.19700623    0.46000001    2.78999996
   16.10694504  149.86199951    0.46000001    2.78999996
   16.11000061  164.44200134    0.46000001    2.78999996
   16.11333466  135.63099670    0.46000001    2.78999996
   16.11666679  150.81799316    0.46000001    2.78999996
   16.11972237  172.27299500    0.44000000    2.78999996
   16.12305641  166.55099487    0.46000001    2.76999998
   16.12611198  142.81799316    0.46000001    2.78999996
   16.12944412  130.31700134    0.46000001    2.76999998
   16.13277817  154.62699890    0.46000001    2.78999996
   16.13583374  131.07499695    0.46000001    2.78999996
   16.13666725  134.09199524    0.46000001    2.78999996
   16.13944435  128.16200256    0.46000001    2.78999996
   16.14277840  133.89900208    0.46000001    2.78999996
   16.14583397  131.06799316    0.46000001    2.78999996
   16.14916611  132.74400330    0.46000001    2.78999996
   16.15250015  137.95700073    0.46000001    2.76999998
   16.15555573  147.97000122    0.47999999    2.78999996
   16.15888786  135.16400146    0.47999999    2.80999994
   16.16222191  132.90199280    0.47999999    2.80999994
   16.16527748  134.20300293    0.46000001    2.78999996
   16.16860962  128.72399902    0.46000001    2.76999998
   16.17000008  136.01899719    0.46000001    2.78999996
   16.17222214  137.77200317    0.46000001    2.78999996
   16.17555428  127.90299988    0.46000001    2.78999996
   16.17888832  131.59199524    0.46000001    2.78999996
   16.18194389  160.03799438    0.47999999    2.76999998
   16.18527603  134.51499939    0.46000001    2.78999996
   16.18833160  128.28599548    0.46000001    2.76999998
   16.19166565  129.83799744    0.46000001    2.76999998
   16.19499969  131.39999390    0.46000001    2.78999996
   16.19805527  126.01999664    0.46000001    2.78999996
   16.20138931  131.88000488    0.46000001    2.78999996
   16.20333481  131.64500427    0.46000001    2.78999996
   16.20499992  132.24600220    0.46000001    2.78999996
   16.20833397  134.23399353    0.46000001    2.78999996
   16.21138954  135.07099915    0.46000001    2.78999996
   16.21472359  131.04899597    0.47999999    2.78999996
   16.21805573  136.13200378    0.46000001    2.76999998
   16.22111130  128.83299255    0.46000001    2.76999998
   16.22444534  126.66899872    0.47999999    2.78999996
   16.22777748  125.89299774    0.47999999    2.78999996
   16.23083305  121.65699768    0.47999999    2.76999998
   16.23416710  131.69799805    0.47999999    2.76999998
   16.23666763  134.12800598    0.47999999    2.78999996
   16.23777771  131.64500427    0.47999999    2.78999996
   16.24111176  130.05900574    0.47999999    2.78999996
   16.24416733  132.08200073    0.47999999    2.78999996
   16.24749947  130.72000122    0.47999999    2.78999996
   16.25083351  133.02499390    0.50000000    2.78999996
   16.25388908  134.11500549    0.50000000    2.78999996
   16.25722313  127.23999786    0.47999999    2.78999996
   16.26055527  133.62600708    0.50000000    2.78999996
   16.26388931  129.19099426    0.50000000    2.78999996
   16.26694489  134.18899536    0.50000000    2.78999996
   16.27000046  137.44500732    0.50000000    2.78999996
   16.27055550  134.23199463    0.50000000    2.76999998
   16.27388954  132.82800293    0.50000000    2.76999998
   16.27694511  131.50199890    0.50000000    2.78999996
   16.28027725  131.18299866    0.50000000    2.78999996
   16.28361130  132.55400085    0.50000000    2.78999996
   16.28666687  131.20899963    0.50000000    2.78999996
   16.28999901  133.47900391    0.50000000    2.78999996
   16.29333305  126.88600159    0.50000000    2.78999996
   16.29638863  129.58099365    0.50000000    2.78999996
   16.29972076  129.95599365    0.50000000    2.78999996
   16.30277634  134.21699524    0.50000000    2.76999998
   16.30333328  128.84700012    0.50000000    2.76999998
   16.30666542  128.37600708    0.50000000    2.76999998
   16.30972099  129.53900146    0.50000000    2.78999996
   16.31305504  128.57899475    0.50000000    2.78999996
   16.31638718  126.71800232    0.50000000    2.78999996
   16.31944466  127.58999634    0.50000000    2.78999996
   16.32277870  126.23400116    0.50000000    2.76999998
   16.32611275  127.39199829    0.47999999    2.78999996
   16.32916832  132.05099487    0.47999999    2.78999996
   16.33250046  131.13900757    0.47999999    2.78999996
   16.33555603  131.07899475    0.47999999    2.76999998
   16.33666801  137.71499634    0.47999999    2.76999998
   16.33916664  135.28300476    0.47999999    2.78999996
   16.34250069  132.39799500    0.47999999    2.76999998
   16.34555626  136.37500000    0.47999999    2.78999996
   16.34889030  133.37899780    0.46000001    2.78999996
   16.35194397  130.36500549    0.46000001    2.76999998
   16.35527802  126.48799896    0.46000001    2.78999996
   16.35861206  127.95600128    0.46000001    2.76999998
   16.36166763  121.98000336    0.46000001    2.78999996
   16.36499977  127.84400177    0.46000001    2.78999996
   16.36805534  126.32900238    0.46000001    2.78999996
   16.37000084  128.45199585    0.46000001    2.78999996
   16.37194443  127.33699799    0.46000001    2.76999998
   16.37500000  127.61199951    0.46000001    2.78999996
   16.37833405  124.81600189    0.46000001    2.78999996
   16.38166618  126.22699738    0.46000001    2.78999996
   16.38472176  126.45400238    0.46000001    2.76999998
   16.38805580  131.67199707    0.46000001    2.78999996
   16.39138794  133.69299316    0.46000001    2.78999996
   16.39444351  128.56799316    0.46000001    2.78999996
   16.39777756  132.03799438    0.46000001    2.78999996
   16.40083313  127.67099762    0.46000001    2.78999996
   16.40333366  132.64300537    0.47999999    2.78999996
   16.40444374  135.81500244    0.47999999    2.78999996
   16.40749931  128.38200378    0.47999999    2.78999996
   16.41083336  130.50900269    0.47999999    2.78999996
   16.41416550  133.20799255    0.47999999    2.78999996
   16.41722107  129.26800537    0.46000001    2.78999996
   16.42055511  134.10899353    0.46000001    2.78999996
   16.42388916  130.12300110    0.47999999    2.76999998
   16.42694473  133.33799744    0.47999999    2.76999998
   16.43027687  131.74899292    0.47999999    2.78999996
   16.43333244  126.18499756    0.47999999    2.78999996
   16.43666649  134.37600708    0.47999999    2.78999996
   16.43722153  127.30100250    0.46000001    2.76999998
   16.44055557  136.93099976    0.47999999    2.78999996
   16.44361115  129.63900757    0.47999999    2.78999996
   16.44694328  135.91700745    0.47999999    2.78999996
   16.45000076  132.83200073    0.47999999    2.78999996
   16.45333481  132.61399841    0.47999999    2.78999996
   16.45666695  135.82000732    0.47999999    2.78999996
   16.45972252  126.86599731    0.47999999    2.78999996
   16.46305656  133.91999817    0.47999999    2.78999996
   16.46638870  136.30400085    0.47999999    2.78999996
   16.46944427  123.42900085    0.47999999    2.78999996
   16.47055626  126.48899841    0.47999999    2.78999996
   16.47305679  123.31600189    0.47999999    2.78999996
   16.47638893  131.35099792    0.47999999    2.78999996
   16.47972298  127.39099884    0.47999999    2.78999996
   16.48277855  124.48999786    0.47999999    2.78999996
   16.48611069  123.03800201    0.47999999    2.78999996
   16.48944473  128.46699524    0.47999999    2.80999994
   16.49250031  128.41700745    0.47999999    2.78999996
   16.49583435  128.50900269    0.47999999    2.78999996
   16.49888992  131.31500244    0.50000000    2.78999996
   16.50222206  127.60299683    0.47999999    2.78999996
   16.50388908  127.82599640    0.47999999    2.78999996
   16.50583267  126.69999695    0.47999999    2.78999996
   16.50916672  137.16600037    0.47999999    2.80999994
   16.51250076  135.36700439    0.47999999    2.80999994
   16.51555634  133.02499390    0.47999999    2.78999996
   16.51888847  132.80099487    0.47999999    2.78999996
   16.52222252  126.56900024    0.47999999    2.78999996
   16.52527809  128.12300110    0.47999999    2.78999996
   16.52861023  132.16700745    0.47999999    2.78999996
   16.53166580  129.51600647    0.47999999    2.78999996
   16.53499985  128.94400024    0.47999999    2.80999994
   16.53722191  133.58900452    0.47999999    2.80999994
   16.53833199  128.43800354    0.47999999    2.76999998
   16.54166603  130.07699585    0.50000000    2.78999996
   16.54500008  131.70700073    0.50000000    2.78999996
   16.54805565  127.70999908    0.47999999    2.78999996
   16.55138779  133.47900391    0.50000000    2.78999996
   16.55472183  134.61099243    0.50000000    2.78999996
   16.55777740  132.79100037    0.50000000    2.78999996
   16.56110954  127.99400330    0.50000000    2.78999996
   16.56444359  130.14500427    0.51999998    2.78999996
   16.56750107  125.41500092    0.51999998    2.78999996
   16.57055664  126.73200226    0.51999998    2.78999996
   16.57139015  128.83200073    0.51999998    2.78999996
   16.57444572  133.89700317    0.51999998    2.76999998
   16.57777786  132.94700623    0.51999998    2.76999998
   16.58083344  127.01200104    0.51999998    2.78999996
   16.58416748  131.52799988    0.51999998    2.78999996
   16.58750153  130.16799927    0.51999998    2.78999996
   16.59055710  133.22099304    0.51999998    2.78999996
   16.59388924  131.22599792    0.50000000    2.78999996
   16.59722328  124.88500214    0.50000000    2.78999996
   16.60027885  125.34300232    0.50000000    2.78999996
   16.60361099  128.68299866    0.50000000    2.76999998
   16.60416794  127.96099854    0.50000000    2.76999998
   16.60722351  128.08200073    0.50000000    2.76999998
   16.61055565  130.76699829    0.50000000    2.76999998
   16.61388969  130.58900452    0.51999998    2.76999998
   16.61694527  132.43499756    0.50000000    2.76999998
   16.62027740  128.81900024    0.51999998    2.76999998
   16.62361145  135.49699402    0.50000000    2.78999996
   16.62666702  130.72000122    0.50000000    2.76999998
   16.63000107  127.36799622    0.51999998    2.78999996
   16.63305473  130.50500488    0.51999998    2.78999996
   16.63638878  126.53299713    0.51999998    2.76999998
   16.63750076  129.99000549    0.51999998    2.76999998
   16.63999939  129.56799316    0.51999998    2.76999998
   16.64333344  127.49199677    0.51999998    2.78999996
   16.64666748  134.88699341    0.51999998    2.76999998
   16.64972115  127.98999786    0.51999998    2.76999998
   16.65305519  133.60200500    0.51999998    2.78999996
   16.65638924  130.58500671    0.50000000    2.78999996
   16.65944481  132.27600098    0.50000000    2.78999996
   16.66277695  134.70599365    0.50000000    2.78999996
   16.66583252  126.60099792    0.51999998    2.78999996
   16.66916656  127.29399872    0.51999998    2.76999998
   16.67083359  123.01200104    0.51999998    2.76999998
   16.67277718  125.55000305    0.51999998    2.78999996
   16.67611122  125.19100189    0.51999998    2.76999998
   16.67944336  127.13200378    0.51999998    2.76999998
   16.68277740  128.56700134    0.51999998    2.76999998
   16.68583298  128.12600708    0.51999998    2.76999998
   16.68916512  127.05500031    0.51999998    2.78999996
   16.69249916  123.65799713    0.51999998    2.78999996
   16.69555473  133.46800232    0.51999998    2.76999998
   16.69888878  130.80400085    0.51999998    2.76999998
   16.70194435  130.73300171    0.51999998    2.76999998
   16.70416832  127.56900024    0.51999998    2.76999998
   16.70555687  132.04600525    0.52999997    2.78999996
   16.70888901  129.48899841    0.52999997    2.78999996
   16.71222305  131.11000061    0.52999997    2.76999998
   16.71527863  130.55900574    0.52999997    2.76999998
   16.71861076  132.69599915    0.52999997    2.76999998
   16.72194481  131.55700684    0.52999997    2.76999998
   16.72500038  132.59599304    0.51999998    2.76999998
   16.72833443  130.63800049    0.51999998    2.76999998
   16.73139000  128.42999268    0.51999998    2.76999998
   16.73472214  133.92700195    0.51999998    2.76999998
   16.73750114  133.47399902    0.51999998    2.76999998
   16.73833275  133.38400269    0.51999998    2.76999998
   16.74166679  132.11199951    0.51999998    2.76999998
   16.74500084  133.50100708    0.51999998    2.76999998
   16.74805641  131.84800720    0.51999998    2.76999998
   16.75138855  133.64100647    0.51999998    2.76999998
   16.75472260  130.48199463    0.51999998    2.78999996
   16.75777817  130.42199707    0.51999998    2.78999996
   16.76111031  133.89300537    0.51999998    2.78999996
   16.76444435  128.20899963    0.51999998    2.76999998
   16.76749992  138.13499451    0.51999998    2.76999998
   16.77083397  131.82299805    0.51999998    2.76999998
   16.77111053  133.93899536    0.51999998    2.76999998
   16.77444458  131.38200378    0.51999998    2.76999998
   16.77777672  131.08299255    0.51999998    2.76999998
   16.78083229  134.20100403    0.51999998    2.76999998
   16.78416634  133.03599548    0.51999998    2.76999998
   16.78722191  131.80499268    0.51999998    2.76999998
   16.79055595  134.72599792    0.51999998    2.78999996
   16.79388809  132.06199646    0.51999998    2.78999996
   16.79694366  133.72700500    0.51999998    2.76999998
   16.80027771  129.05099487    0.52999997    2.78999996
   16.80360985  127.61699677    0.51999998    2.76999998
   16.80416679  125.40899658    0.51999998    2.76999998
   16.80694389  130.52600098    0.51999998    2.76999998
   16.81027794  132.73599243    0.51999998    2.76999998
   16.81361008  129.96899414    0.51999998    2.76999998
   16.81666756  130.18800354    0.51999998    2.76999998
   16.82000160  132.05000305    0.51999998    2.76999998
   16.82333374  131.70500183    0.51999998    2.76999998
   16.82638931  137.08599854    0.51999998    2.76999998
   16.82972336  130.28700256    0.51999998    2.76999998
   16.83277893  127.91500092    0.51999998    2.78999996
   16.83611107  130.92199707    0.51999998    2.78999996
   16.85305595  131.38400269    0.51999998    2.76999998
   16.85611153  122.69999695    0.51999998    2.76999998
   16.85944557  130.38999939    0.51999998    2.78999996
   16.86250114  129.76300049    0.51999998    2.78999996
   16.86583328  133.08000183    0.51999998    2.76999998
   16.86916733  129.23399353    0.51999998    2.76999998
   16.87222290  125.30100250    0.51999998    2.78999996
   16.87555504  154.08399963    0.51999998    2.76999998
   16.87861061  134.71200562    0.51999998    2.76999998
   16.88194466  125.04000092    0.51999998    2.76999998
   16.88527679  151.69700623    0.51999998    2.76999998
   16.88638878  139.50500488    0.51999998    2.76999998
   16.88888931  134.99800110    0.51999998    2.76999998
   16.89194489  126.30799866    0.51999998    2.76999998
   16.89527702  134.55999756    0.51999998    2.76999998
   16.89861107  141.04699707    0.51999998    2.78999996
   16.90166664  131.20599365    0.51999998    2.78999996
   16.90527725  131.11599731    0.52999997    2.78999996
   16.90833282  130.78399658    0.52999997    2.78999996
   16.91166687  134.98399353    0.51999998    2.78999996
   16.91472244  129.62600708    0.52999997    2.78999996
   16.91805458  131.56300354    0.52999997    2.76999998
   16.91972160  136.83000183    0.52999997    2.76999998
   16.92166519  123.52999878    0.52999997    2.76999998
   16.92472076  126.11100006    0.51999998    2.76999998
   16.92805481  127.73999786    0.51999998    2.78999996
   16.93138885  127.61100006    0.51999998    2.78999996
   16.93444443  130.61199951    0.51999998    2.78999996
   16.93777657  127.31300354    0.52999997    2.76999998
   16.94111061  132.00799561    0.52999997    2.78999996
   16.94416618  125.19000244    0.52999997    2.76999998
   16.94749832  126.66400146    0.52999997    2.78999996
   16.95055580  139.66700745    0.52999997    2.78999996
   16.95305634  128.82400513    0.52999997    2.78999996
   16.95444489  129.04800415    0.52999997    2.78999996
   16.95750046  129.69900513    0.52999997    2.78999996
   16.96083450  123.77100372    0.52999997    2.76999998
   16.96416664  125.72499847    0.52999997    2.76999998
   16.96722221  125.14499664    0.52999997    2.76999998
   16.97055626  125.78900146    0.52999997    2.78999996
   16.97389030  126.57099915    0.52999997    2.76999998
   16.97694588  126.21800232    0.52999997    2.78999996
   16.98027802  127.68800354    0.55000001    2.76999998
   16.98333359  128.59599304    0.55000001    2.76999998
   16.98638916  130.38999939    0.55000001    2.76999998
   16.98722267  126.23799896    0.55000001    2.76999998
   16.99027824  132.01400757    0.55000001    2.76999998
   16.99361229  129.48699951    0.55000001    2.76999998
   16.99694443  128.88999939    0.55000001    2.76999998
   17.00000000  126.96800232    0.55000001    2.78999996
   17.00333405  128.99400330    0.56999999    2.76999998
   17.00666618  124.08599854    0.55000001    2.76999998
   17.00972176  131.88900757    0.55000001    2.76999998
   17.01305580  131.76600647    0.55000001    2.76999998
   17.01611137  132.81599426    0.55000001    2.76999998
   17.01944351  133.32099915    0.55000001    2.76999998
   17.02000046  130.34700012    0.55000001    2.76999998
   17.02305603  132.76800537    0.55000001    2.76999998
   17.02638817  129.85099792    0.55000001    2.76999998
   17.02972221  131.53700256    0.55000001    2.76999998
   17.03277779  127.87100220    0.55000001    2.76999998
   17.03610992  132.31199646    0.55000001    2.76999998
   17.03944397  129.71099854    0.55000001    2.78999996
   17.04249954  132.18200684    0.55000001    2.76999998
   17.04583359  128.38699341    0.55000001    2.76999998
   17.04888916  127.18199921    0.55000001    2.78999996
   17.05222130  129.95899963    0.55000001    2.76999998
   17.05333328  126.11199951    0.55000001    2.76999998
   17.05555534  123.71099854    0.56999999    2.76999998
   17.05888748  126.77500153    0.56999999    2.76999998
   17.06222153  124.83100128    0.56999999    2.76999998
   17.06527710  126.84200287    0.56999999    2.76999998
   17.06861115  121.36499786    0.56999999    2.76999998
   17.07194519  125.70800018    0.56999999    2.78999996
   17.07500076  131.48399353    0.56999999    2.76999998
   17.07833481  126.75700378    0.56999999    2.76999998
   17.08139038  116.62000275    0.56999999    2.76999998
   17.08472252  126.64600372    0.56999999    2.76999998
   17.08666801  133.05099487    0.56999999    2.76999998
   17.08861160  135.82899475    0.56999999    2.76999998
   17.09166718  129.84100342    0.58999997    2.76999998
   17.09500122  131.03900146    0.56999999    2.76999998
   17.09833336  127.78500366    0.56999999    2.76999998
   17.10138893  130.81799316    0.56999999    2.78999996
   17.10472298  125.75700378    0.56999999    2.78999996
   17.10777855  130.86599731    0.58999997    2.76999998
   17.11111069  133.49600220    0.58999997    2.76999998
   17.11444473  126.54599762    0.58999997    2.76999998
   17.11750031  129.94299316    0.58999997    2.76999998
   17.12000084  130.78399658    0.58999997    2.76999998
   17.12138939  130.62899780    0.58999997    2.76999998
   17.12444496  130.53599548    0.61000001    2.76999998
   17.12777710  137.39799500    0.58999997    2.76999998
   17.13083267  131.95899963    0.58999997    2.76999998
   17.13416672  133.73800659    0.61000001    2.76999998
   17.13750076  133.22500610    0.61000001    2.75000000
   17.14055634  134.32600403    0.61000001    2.75000000
   17.14388847  134.53900146    0.61000001    2.76999998
   17.14722252  135.20399475    0.61000001    2.76999998
   17.15027809  133.57000732    0.61000001    2.76999998
   17.15333366  130.20300293    0.63000000    2.76999998
   17.15416718  129.33200073    0.63000000    2.76999998
   17.15722275  133.72900391    0.61000001    2.75000000
   17.16055489  134.24600220    0.61000001    2.76999998
   17.16388893  128.92300415    0.63000000    2.75000000
   17.16694450  123.58599854    0.63000000    2.75000000
   17.17027664  135.18200684    0.61000001    2.76999998
   17.17333221  133.91999817    0.63000000    2.76999998
   17.17666626  125.74800110    0.61000001    2.78999996
   17.18000031  129.83200073    0.63000000    2.75000000
   17.18305397  130.91200256    0.61000001    2.76999998
   17.18638802  138.69400024    0.61000001    2.76999998
   17.18694305  128.05499268    0.61000001    2.76999998
   17.19027710  126.35099792    0.61000001    2.76999998
   17.19333267  136.04800415    0.61000001    2.76999998
   17.19666672  127.37999725    0.61000001    2.76999998
   17.20000076  128.35099792    0.61000001    2.76999998
   17.20305634  130.81199646    0.61000001    2.76999998
   17.20639038  131.93699646    0.58999997    2.76999998
   17.20972252  131.13999939    0.58999997    2.76999998
   17.21277809  129.61999512    0.58999997    2.78999996
   17.21611214  130.21699524    0.58999997    2.76999998
   17.21916771  131.21299744    0.58999997    2.76999998
   17.22027779  131.89500427    0.61000001    2.76999998
   17.22277832  125.66400146    0.61000001    2.76999998
   17.22611237  139.54800415    0.61000001    2.76999998
   17.22944450  142.19400024    0.61000001    2.76999998
   17.23250008  134.84899902    0.58999997    2.76999998
   17.23583412  128.13000488    0.58999997    2.76999998
   17.23916626  132.02499390    0.58999997    2.76999998
   17.24222183  131.66999817    0.61000001    2.76999998
   17.24555588  137.11900330    0.58999997    2.76999998
   17.24861145  127.51499939    0.58999997    2.76999998
   17.25194359  130.87899780    0.61000001    2.76999998
   17.25361061  129.36000061    0.61000001    2.76999998
   17.25555611  129.32800293    0.61000001    2.76999998
   17.25888824  128.22700500    0.61000001    2.76999998
   17.26194382  126.52600098    0.61000001    2.76999998
   17.26527786  130.07099915    0.61000001    2.76999998
   17.26861000  130.31500244    0.61000001    2.75000000
   17.27166557  132.19299316    0.61000001    2.75000000
   17.27499962  135.77400208    0.61000001    2.76999998
   17.27805519  131.77299500    0.61000001    2.78999996
   17.28138924  129.71400452    0.61000001    2.78999996
   17.28472137  129.43800354    0.61000001    2.78999996
   17.28694344  129.23599243    0.61000001    2.78999996
   17.28805542  126.97599792    0.61000001    2.78999996
   17.29138756  132.39999390    0.61000001    2.78999996
   17.29472160  129.29699707    0.61000001    2.76999998
   17.29777718  130.09399414    0.61000001    2.76999998
   17.30111122  132.00199890    0.61000001    2.76999998
   17.30444336  131.73300171    0.61000001    2.76999998
   17.30749893  132.52699280    0.61000001    2.76999998
   17.31083298  131.32800293    0.61000001    2.76999998
   17.31388855  131.77000427    0.61000001    2.76999998
   17.31722260  134.43699646    0.61000001    2.76999998
   17.32027817  134.14300537    0.61000001    2.78999996
   17.32083511  133.22700500    0.61000001    2.78999996
   17.32389069  127.31800079    0.61000001    2.76999998
   17.32722282  127.99700165    0.61000001    2.76999998
   17.33027840  129.54299927    0.61000001    2.76999998
   17.33361244  125.06099701    0.61000001    2.76999998
   17.33694458  129.26800537    0.61000001    2.76999998
   17.34000015  132.93699646    0.61000001    2.76999998
   17.34333420  129.70899963    0.61000001    2.76999998
   17.34666824  131.87199402    0.61000001    2.76999998
   17.34972191  128.77900696    0.61000001    2.76999998
   17.35305595  130.05700684    0.61000001    2.76999998
   17.35361099  130.96499634    0.61000001    2.76999998
   17.35666656  131.42799377    0.61000001    2.78999996
   17.35972214  129.48800659    0.61000001    2.75000000
   17.36305618  134.18600464    0.61000001    2.76999998
   17.36611176  131.04200745    0.61000001    2.76999998
   17.36944389  126.94400024    0.61000001    2.76999998
   17.37277794  129.73199463    0.61000001    2.76999998
   17.37583351  131.54200745    0.61000001    2.76999998
   17.37916756  133.52799988    0.61000001    2.76999998
   17.38249969  128.00000000    0.61000001    2.76999998
   17.38555527  127.91400146    0.61000001    2.76999998
   17.38694382  131.22599792    0.61000001    2.76999998
   17.38944435  131.38600159    0.61000001    2.76999998
   17.39249992  131.09399414    0.61000001    2.78999996
   17.39583397  132.23699951    0.63000000    2.76999998
   17.39916611  127.12500000    0.63000000    2.76999998
   17.40222168  129.90600586    0.63000000    2.76999998
   17.40555573  130.09599304    0.63000000    2.76999998
   17.40861130  131.46899414    0.63000000    2.76999998
   17.41194344  134.57699585    0.63000000    2.75000000
   17.41527748  129.79200745    0.63000000    2.75000000
   17.41833305  128.06500244    0.63000000    2.76999998
   17.42027664  132.31500244    0.63000000    2.76999998
   17.42222214  130.44900513    0.64999998    2.76999998
   17.42527771  137.85000610    0.64999998    2.76999998
   17.42860985  136.52400208    0.64999998    2.76999998
   17.43166542  129.40299988    0.64999998    2.76999998
   17.43499947  134.08000183    0.64999998    2.76999998
   17.43833160  131.61799622    0.67000002    2.76999998
   17.44138718  134.55400085    0.67000002    2.76999998
   17.44472122  132.13099670    0.67000002    2.76999998
   17.44805527  133.81300354    0.67000002    2.75000000
   17.45111275  132.74400330    0.69000000    2.76999998
   17.45361137  133.85099792    0.69000000    2.76999998
   17.45499992  128.70100403    0.67000002    2.76999998
   17.45805550  133.28999329    0.67000002    2.76999998
   17.46138954  131.67700195    0.69000000    2.76999998
   17.46444511  130.59599304    0.69000000    2.76999998
   17.46777916  126.68099976    0.69000000    2.76999998
   17.47111130  131.75999451    0.69000000    2.76999998
   17.47416687  131.74200439    0.67000002    2.76999998
   17.47750092  126.30100250    0.67000002    2.76999998
   17.48083305  128.82600403    0.67000002    2.76999998
   17.48388863  133.91099548    0.69000000    2.76999998
   17.48694420  131.11399841    0.67000002    2.76999998
   17.48777771  129.40100098    0.67000002    2.76999998
   17.49083328  137.34800720    0.67000002    2.76999998
   17.49416733  136.50100708    0.67000002    2.76999998
   17.49722290  137.09500122    0.67000002    2.76999998
   17.50055504  136.06700134    0.67000002    2.76999998
   17.50388908  144.12399292    0.67000002    2.76999998
   17.50694466  132.00300598    0.67000002    2.76999998
   17.51027870  135.52099609    0.67000002    2.76999998
   17.51361084  136.72700500    0.67000002    2.76999998
   17.51694489  131.11099243    0.67000002    2.76999998
   17.52000046  133.32299805    0.67000002    2.76999998
   17.52055550  134.16999817    0.67000002    2.76999998
   17.52388954  131.54299927    0.64999998    2.76999998
   17.52694511  129.92900085    0.67000002    2.76999998
   17.53027725  134.50799561    0.67000002    2.76999998
   17.53361130  128.64399719    0.67000002    2.76999998
   17.53666687  131.22500610    0.67000002    2.75000000
   17.53999901  131.22200012    0.67000002    2.76999998
   17.54333305  133.38699341    0.67000002    2.76999998
   17.54638863  128.69000244    0.69000000    2.76999998
   17.54972076  135.05499268    0.67000002    2.76999998
   17.55277634  136.17500305    0.67000002    2.76999998
   17.55388832  133.50900269    0.67000002    2.76999998
   17.55666542  131.84300232    0.67000002    2.76999998
   17.55972099  130.60800171    0.67000002    2.75000000
   17.56305504  130.16799927    0.67000002    2.76999998
   17.56638718  136.45100403    0.67000002    2.76999998
   17.56944466  133.83099365    0.69000000    2.76999998
   17.57277870  129.30700684    0.67000002    2.75000000
   17.57611275  136.77699280    0.67000002    2.75000000
   17.57916832  124.95600128    0.69000000    2.76999998
   17.58250046  130.73800659    0.69000000    2.76999998
   17.58555603  135.81599426    0.69000000    2.76999998
   17.58722305  128.62300110    0.69000000    2.75000000
   17.58944511  128.05499268    0.69000000    2.75000000
   17.59250069  129.58099365    0.69000000    2.76999998
   17.59583473  134.27499390    0.69000000    2.76999998
   17.59916687  134.85400391    0.69000000    2.76999998
   17.60222244  126.36699677    0.69000000    2.76999998
   17.60555649  126.97899628    0.70999998    2.76999998
   17.60888863  132.44999695    0.70999998    2.76999998
   17.61194420  131.34100342    0.70999998    2.76999998
   17.61527824  129.18800354    0.70999998    2.75000000
   17.61833382  126.06099701    0.70999998    2.75000000
   17.62055588  129.06500244    0.70999998    2.75000000
   17.62222290  123.49500275    0.70999998    2.75000000
   17.62527847  127.17900085    0.73000002    2.76999998
   17.62861061  124.34600067    0.73000002    2.75000000
   17.63194466  128.13600159    0.73000002    2.75000000
   17.63500023  127.43900299    0.73000002    2.75000000
   17.63833237  127.60800171    0.73000002    2.76999998
   17.64166641  130.22399902    0.73000002    2.76999998
   17.64472198  127.75900269    0.73000002    2.75000000
   17.64805603  129.96200562    0.73000002    2.75000000
   17.65111160  124.81400299    0.73000002    2.76999998
   17.65388870  120.56900024    0.73000002    2.76999998
   17.65499878  120.02700043    0.73000002    2.75000000
   17.65805435  125.88099670    0.73000002    2.76999998
   17.66138840  127.59400177    0.75000000    2.76999998
   17.66472244  130.97399902    0.73000002    2.78999996
   17.66777802  130.69200134    0.73000002    2.76999998
   17.67111015  128.77999878    0.73000002    2.76999998
   17.67444420  127.42299652    0.73000002    2.75000000
   17.67749977  124.71399689    0.73000002    2.76999998
   17.68083191  126.60900116    0.73000002    2.76999998
   17.68388748  123.04199982    0.75000000    2.76999998
   17.68722153  126.79499817    0.76999998    2.76999998
   17.68777657  130.20700073    0.76999998    2.76999998
   17.69111061  119.32800293    0.86000001    2.75000000
   17.69416618  123.75399780    0.83999997    2.75000000
   17.69749832  127.12400055    0.83999997    2.76999998
   17.70083427  127.13400269    0.83999997    2.76999998
   17.70388985  124.18900299    0.81999999    2.75000000
   17.70722389  123.81099701    0.88000000    2.76999998
   17.71055603  128.22399902    0.95999998    2.75000000
   17.71361160  124.97599792    0.92000002    2.76999998
   17.71694565  124.08699799    0.81999999    2.76999998
   17.72027779  126.84500122    0.80000001    2.75000000
   17.72055626  127.97699738    0.80000001    2.75000000
   17.72361183  125.72299957    0.80000001    2.75000000
   17.72694588  127.76300049    0.80000001    2.76999998
   17.73027802  126.09200287    0.79000002    2.75000000
   17.73333359  130.15100098    0.76999998    2.75000000
   17.73666763  131.81399536    0.76999998    2.75000000
   17.73999977  133.11000061    0.76999998    2.75000000
   17.74305534  131.77200317    0.79000002    2.75000000
   17.74638939  129.88200378    0.79000002    2.75000000
   17.74972153  130.95399475    0.79000002    2.75000000
   17.75277710  131.77699280    0.79000002    2.75000000
   17.75416756  125.01599884    0.79000002    2.75000000
   17.75638962  134.86199951    0.79000002    2.75000000
   17.75944519  133.14500427    0.79000002    2.75000000
   17.76277733  128.94000244    0.79000002    2.75000000
   17.76611137  125.47000122    0.79000002    2.75000000
   17.76916695  139.62600708    0.76999998    2.76999998
   17.77249908  131.28399658    0.76999998    2.76999998
   17.77555466  126.70099640    0.76999998    2.76999998
   17.77888870  129.08500671    0.76999998    2.75000000
   17.78222275  133.14599609    0.76999998    2.75000000
   17.78527641  127.64499664    0.76999998    2.76999998
   17.78750038  132.72500610    0.76999998    2.75000000
   17.78916550  127.09799957    0.76999998    2.75000000
   17.79222107  130.74400330    0.76999998    2.75000000
   17.79555511  129.15199280    0.76999998    2.75000000
   17.79861069  128.72999573    0.76999998    2.76999998
   17.80194283  130.62800598    0.76999998    2.76999998
   17.80527687  126.16899872    0.76999998    2.75000000
   17.80833244  129.94099426    0.76999998    2.75000000
   17.81166649  129.59500122    0.76999998    2.75000000
   17.81472206  127.25399780    0.76999998    2.75000000
   17.81805611  125.74800110    0.76999998    2.75000000
   17.82055664  125.65699768    0.76999998    2.75000000
   17.82139015  128.95300293    0.76999998    2.75000000
   17.82472229  123.61699677    0.79000002    2.75000000
   17.82777786  125.59999847    0.79000002    2.75000000
   17.83111191  128.31100464    0.79000002    2.75000000
   17.83444595  128.58700562    0.79000002    2.75000000
   17.83750153  126.92500305    0.79000002    2.75000000
   17.84083366  131.08900452    0.79000002    2.75000000
   17.84388924  126.50000000    0.79000002    2.75000000
   17.84722328  131.57600403    0.79000002    2.75000000
   17.85055542  127.21299744    0.79000002    2.75000000
   17.86972237  126.13300323    0.80000001    2.75000000
   17.87027740  131.44500732    0.80000001    2.75000000
   17.87361145  128.10499573    0.80000001    2.75000000
   17.87666702  128.88900757    0.80000001    2.75000000
   17.88000107  128.30400085    0.80000001    2.75000000
   17.88305473  129.96899414    0.80000001    2.75000000
   17.88638878  128.57699585    0.80000001    2.75000000
   17.88972282  130.63600159    0.80000001    2.75000000
   17.89277840  128.18699646    0.80000001    2.75000000
   17.89611053  129.22700500    0.80000001    2.75000000
   17.89944458  130.70700073    0.80000001    2.75000000
   17.90250015  131.18099976    0.80000001    2.75000000
   17.90305519  129.36199951    0.80000001    2.75000000
   17.90611076  130.01199341    0.80000001    2.75000000
   17.90916634  128.15400696    0.81999999    2.75000000
   17.91250038  129.11900330    0.81999999    2.75000000
   17.91555595  132.74200439    0.81999999    2.75000000
   17.91888809  128.60600281    0.81999999    2.75000000
   17.92222214  127.15399933    0.83999997    2.75000000
   17.92527771  132.54499817    0.83999997    2.75000000
   17.92860985  131.43200684    0.83999997    2.75000000
   17.93194389  132.59199524    0.83999997    2.73000002
   17.93499947  132.34300232    0.83999997    2.73000002
   17.93638802  129.62699890    0.81999999    2.75000000
   17.93861008  126.94999695    0.81999999    2.75000000
   17.94194412  131.11300659    0.83999997    2.75000000
   17.94499969  129.66299438    0.83999997    2.75000000
   17.94833183  126.88700104    0.83999997    2.75000000
   17.95166779  131.05299377    0.83999997    2.75000000
   17.95472336  129.38200378    0.83999997    2.73000002
   17.95805550  134.51600647    0.83999997    2.75000000
   17.96111107  128.25599670    0.83999997    2.75000000
   17.96444511  119.64700317    0.86000001    2.75000000
   17.96777916  130.33500671    0.83999997    2.75000000
   17.96972275  129.13400269    0.83999997    2.75000000
   17.97138977  130.47399902    0.83999997    2.75000000
   17.97444534  131.32000732    0.83999997    2.75000000
   17.97777748  131.03399658    0.83999997    2.75000000
   17.98083305  127.93000031    0.83999997    2.73000002
   17.98416710  130.16700745    0.83999997    2.75000000
   17.98750114  131.56900024    0.83999997    2.73000002
   17.99055672  127.99099731    0.83999997    2.75000000
   17.99388885  128.18299866    0.83999997    2.75000000
   17.99722290  129.39300537    0.86000001    2.75000000
   18.00027847  131.15299988    0.86000001    2.75000000
   18.00305557  133.41799927    0.86000001    2.73000002
   18.00388908  133.14599609    0.86000001    2.73000002
   18.00694466  133.97300720    0.86000001    2.75000000
   18.01027870  128.60499573    0.86000001    2.75000000
   18.01333427  132.95100403    0.86000001    2.75000000
   18.01666641  129.70799255    0.88000000    2.75000000
   18.02000046  128.99200439    0.88000000    2.75000000
   18.02305603  128.50100708    0.88000000    2.73000002
   18.02638817  133.16400146    0.89999998    2.75000000
   18.02972221  131.47099304    0.89999998    2.75000000
   18.03277779  128.05299377    0.89999998    2.75000000
   18.03610992  123.66100311    0.89999998    2.75000000
   18.03666687  129.87399292    0.89999998    2.75000000
   18.03944397  124.25900269    0.89999998    2.73000002
   18.04277802  135.14700317    0.89999998    2.75000000
   18.04583359  126.71099854    0.89999998    2.75000000
   18.04916573  125.03399658    0.89999998    2.73000002
   18.05249977  128.78700256    0.89999998    2.73000002
   18.05555534  128.97900391    0.92000002    2.75000000
   18.05888748  126.81099701    0.92000002    2.73000002
   18.06222153  128.66200256    0.92000002    2.73000002
   18.06527710  125.06800079    0.92000002    2.73000002
   18.06861115  126.38200378    0.92000002    2.75000000
   18.07000160  125.68599701    0.92000002    2.75000000
   18.07222366  124.71199799    0.92000002    2.73000002
   18.07555580  129.28900146    0.92000002    2.73000002
   18.07861137  128.28900146    0.94000000    2.75000000
   18.08194542  125.03299713    0.94000000    2.73000002
   18.08527756  122.62500000    0.94000000    2.75000000
   18.08833313  128.52299500    0.94000000    2.75000000
   18.09166718  126.97100067    0.94000000    2.73000002
   18.09500122  125.42600250    0.94000000    2.73000002
   18.09805679  126.53900146    0.94000000    2.73000002
   18.10138893  129.85499573    0.94000000    2.73000002
   18.10333443  128.03700256    0.94000000    2.73000002
   18.10472298  129.62100220    0.94000000    2.73000002
   18.10805511  126.94499969    0.94000000    2.73000002
   18.11111069  127.18499756    0.94000000    2.73000002
   18.11444473  131.00799561    0.95999998    2.75000000
   18.11777878  127.72299957    0.95999998    2.75000000
   18.12083435  127.24900055    0.95999998    2.73000002
   18.12416649  128.33799744    0.95999998    2.73000002
   18.12750053  129.68600464    0.95999998    2.73000002
   18.13055611  128.63400269    0.98000002    2.73000002
   18.13388824  127.31199646    0.95999998    2.75000000
   18.13666725  126.50099945    0.95999998    2.75000000
   18.13750076  124.27100372    1.01999998    2.73000002
   18.14083290  126.25000000    1.00000000    2.73000002
   18.14416695  129.19200134    1.00000000    2.73000002
   18.14722252  127.52600098    1.01999998    2.75000000
   18.15055466  124.32099915    1.05999994    2.75000000
   18.15361023  126.70800018    1.05999994    2.75000000
   18.15694427  126.73200226    1.01999998    2.75000000
   18.16027832  132.71600342    1.01999998    2.73000002
   18.16333389  129.92799377    0.98000002    2.73000002
   18.16666603  125.73400116    0.95999998    2.73000002
   18.17000008  128.81900024    0.95999998    2.73000002
   18.17027664  127.46399689    0.98000002    2.73000002
   18.17361069  128.95100403    0.98000002    2.73000002
   18.17666626  132.91200256    0.98000002    2.73000002
   18.18000031  130.26300049    0.98000002    2.73000002
   18.18333244  134.33000183    0.98000002    2.73000002
   18.18638802  127.82399750    1.00000000    2.73000002
   18.18972206  131.90199280    1.00000000    2.75000000
   18.19305420  130.93699646    0.98000002    2.73000002
   18.19610977  127.08799744    1.00000000    2.73000002
   18.19944382  132.06799316    1.00000000    2.73000002
   18.20277786  127.98799896    0.98000002    2.73000002
   18.20333481  125.64800262    0.98000002    2.73000002
   18.20611191  129.38299561    0.98000002    2.73000002
   18.20944595  131.38499451    0.98000002    2.73000002
   18.21277809  129.74299622    0.98000002    2.73000002
   18.21583366  130.48599243    0.98000002    2.73000002
   18.21916771  125.84500122    0.98000002    2.73000002
   18.22249985  121.45899963    0.98000002    2.73000002
   18.22555542  134.02900696    1.00000000    2.75000000
   18.22888947  130.42300415    1.00000000    2.71000004
   18.23194504  132.10400391    1.00000000    2.73000002
   18.23527718  136.39100647    1.00000000    2.73000002
   18.23666763  130.76499939    1.00000000    2.73000002
   18.23888969  132.22799683    1.00000000    2.73000002
   18.24222183  131.38499451    1.00000000    2.73000002
   18.24555588  129.55499268    1.00000000    2.73000002
   18.24861145  127.42500305    1.00000000    2.73000002
   18.25194359  129.13000488    1.00000000    2.73000002
   18.25499916  128.20799255    1.00000000    2.73000002
   18.25833321  130.29200745    1.01999998    2.73000002
   18.26166725  131.00900269    1.01999998    2.73000002
   18.26472282  128.00599670    1.01999998    2.73000002
   18.26805496  126.63400269    1.01999998    2.73000002
   18.27000046  126.37599945    1.01999998    2.75000000
   18.27166557  127.08300018    1.01999998    2.75000000
   18.27499962  125.53900146    1.01999998    2.73000002
   18.27833366  128.33200073    1.03999996    2.71000004
   18.28138924  130.57499695    1.03999996    2.71000004
   18.28472137  129.81700134    1.03999996    2.71000004
   18.28805542  128.61700439    1.03999996    2.73000002
   18.29111099  132.17999268    1.03999996    2.73000002
   18.29444313  132.66799927    1.05999994    2.73000002
   18.29749870  130.12399292    1.07000005    2.73000002
   18.30083275  128.62399292    1.07000005    2.73000002
   18.30333328  136.25399780    1.09000003    2.73000002
   18.30444336  130.10299683    1.09000003    2.73000002
   18.30777740  129.52900696    1.11000001    2.73000002
   18.31110954  132.83099365    1.11000001    2.73000002
   18.31416512  127.45899963    1.11000001    2.71000004
   18.31750107  133.36099243    1.09000003    2.73000002
   18.32055664  128.02499390    1.09000003    2.73000002
   18.32389069  131.63999939    1.09000003    2.73000002
   18.32722282  129.12300110    1.09000003    2.73000002
   18.33027840  132.73699951    1.09000003    2.73000002
   18.33361244  131.32600403    1.07000005    2.73000002
   18.33666801  132.60400391    1.07000005    2.73000002
   18.33722305  135.39300537    1.07000005    2.73000002
   18.34055710  132.68699646    1.07000005    2.73000002
   18.34388924  130.07000732    1.09000003    2.73000002
   18.34694481  129.57699585    1.09000003    2.73000002
   18.35027885  136.91799927    1.11000001    2.71000004
   18.35333443  128.52600098    1.13000000    2.73000002
   18.35666656  127.41999817    1.13000000    2.73000002
   18.36000061  127.08699799    1.13000000    2.73000002
   18.36305618  135.33200073    1.13000000    2.71000004
   18.36638832  130.33200073    1.13000000    2.73000002
   18.36972237  133.64300537    1.13000000    2.71000004
   18.37000084  130.77900696    1.13000000    2.71000004
   18.37333298  130.63400269    1.13000000    2.71000004
   18.37666702  130.00500488    1.11000001    2.73000002
   18.37972260  130.56700134    1.11000001    2.73000002
   18.38305473  130.21000671    1.11000001    2.73000002
   18.38611031  133.64300537    1.11000001    2.73000002
   18.38944435  127.68199921    1.11000001    2.73000002
   18.39277840  129.03100586    1.11000001    2.71000004
   18.39583397  129.13299561    1.11000001    2.73000002
   18.39916611  129.81599426    1.13000000    2.71000004
   18.40250015  130.30000305    1.13000000    2.71000004
   18.40333366  127.71800232    1.13000000    2.71000004
   18.40611076  131.32899475    1.11000001    2.71000004
   18.40944481  128.43899536    1.13000000    2.73000002
   18.41250038  131.78199768    1.13000000    2.71000004
   18.41583252  130.91700745    1.13000000    2.71000004
   18.41888809  129.18299866    1.11000001    2.71000004
   18.42222214  133.51699829    1.11000001    2.71000004
   18.42555428  129.51699829    1.11000001    2.71000004
   18.42860985  133.94999695    1.11000001    2.71000004
   18.43194389  135.45100403    1.11000001    2.71000004
   18.43527603  129.99099731    1.11000001    2.71000004
   18.43666649  130.50399780    1.11000001    2.71000004
   18.43861008  131.05099487    1.11000001    2.71000004
   18.44194412  132.80400085    1.11000001    2.71000004
   18.44499969  130.32099915    1.11000001    2.71000004
   18.44833183  133.34500122    1.11000001    2.71000004
   18.45166779  130.72700500    1.11000001    2.71000004
   18.45499992  125.05100250    1.13000000    2.73000002
   18.45805550  127.05799866    1.11000001    2.71000004
   18.46138954  129.28199768    1.11000001    2.71000004
   18.46472359  130.69799805    1.13000000    2.73000002
   18.46777916  132.75500488    1.11000001    2.71000004
   18.47000122  129.57200623    1.11000001    2.71000004
   18.47138977  127.69300079    1.11000001    2.71000004
   18.47472191  128.55299377    1.11000001    2.71000004
   18.47777748  125.43699646    1.13000000    2.71000004
   18.48111153  130.93499756    1.13000000    2.71000004
   18.48416710  128.41299438    1.11000001    2.71000004
   18.48750114  131.96099854    1.11000001    2.71000004
   18.49083328  129.97700500    1.13000000    2.71000004
   18.49388885  133.61000061    1.13000000    2.71000004
   18.49722290  127.80699921    1.13000000    2.71000004
   18.50055504  132.79699707    1.13000000    2.71000004
   18.50333405  126.98999786    1.13000000    2.71000004
   18.50388908  123.87999725    1.13000000    2.71000004
   18.50722313  134.08500671    1.16999996    2.71000004
   18.51027870  127.55300140    1.16999996    2.71000004
   18.51361084  128.32099915    1.16999996    2.71000004
   18.51694489  129.65499878    1.16999996    2.71000004
   18.52000046  128.00700378    1.19000006    2.71000004
   18.52333260  129.24200439    1.19000006    2.71000004
   18.52638817  126.68199921    1.21000004    2.71000004
   18.52972221  127.40599823    1.21000004    2.71000004
   18.53305435  124.98500061    1.21000004    2.71000004
   18.53610992  129.83799744    1.19000006    2.71000004
   18.53666687  131.62500000    1.19000006    2.73000002
   18.53972244  125.51799774    1.19000006    2.71000004
   18.54305458  126.96900177    1.19000006    2.71000004
   18.54611015  131.66499329    1.19000006    2.71000004
   18.54944420  130.73300171    1.19000006    2.71000004
   18.55277634  135.26199341    1.19000006    2.71000004
   18.55583191  134.30700684    1.21000004    2.71000004
   18.55916595  133.30799866    1.21000004    2.71000004
   18.56222153  131.17599487    1.21000004    2.71000004
   18.56555557  129.88400269    1.21000004    2.71000004
   18.56888962  128.79499817    1.21000004    2.71000004
   18.57000160  132.55200195    1.21000004    2.71000004
   18.57250023  133.75599670    1.21000004    2.71000004
   18.57583427  131.57200623    1.21000004    2.71000004
   18.57888985  129.77200317    1.19000006    2.69000006
   18.58222389  127.78399658    1.19000006    2.71000004
   18.58555603  129.17399597    1.21000004    2.71000004
   18.58861160  131.49299622    1.21000004    2.71000004
   18.59222221  127.43399811    1.21000004    2.71000004
   18.59527779  127.54000092    1.21000004    2.71000004
   18.59861183  125.58399963    1.21000004    2.71000004
   18.60166740  133.85899353    1.23000002    2.71000004
   18.60333443  132.64100647    1.25000000    2.71000004
   18.60527802  130.51899719    1.25000000    2.71000004
   18.60861206  128.84800720    1.25000000    2.71000004
   18.61166763  131.50500488    1.26999998    2.71000004
   18.61499977  125.73100281    1.26999998    2.71000004
   18.61833382  125.83899689    1.30999994    2.71000004
   18.62138939  127.05699921    1.34000003    2.69000006
   18.62472153  128.84700012    1.34000003    2.69000006
   18.62805557  127.59999847    1.33000004    2.71000004
   18.63111115  133.07400513    1.33000004    2.71000004
   18.63444519  127.05000305    1.33000004    2.71000004
   18.63666725  127.55500031    1.34000003    2.71000004
   18.63805580  137.41999817    1.34000003    2.71000004
   18.64138794  125.40699768    1.34000003    2.71000004
   18.64444351  124.78800201    1.38000000    2.69000006
   18.64777756  128.69500732    1.38000000    2.69000006
   18.65083313  130.22399902    1.34000003    2.71000004
   18.65416718  126.06500244    1.33000004    2.69000006
   18.65749931  122.88999939    1.33000004    2.71000004
   18.66055489  122.94300079    1.30999994    2.69000006
   18.66388893  129.34800720    1.30999994    2.71000004
   18.66722107  132.07000732    1.28999996    2.71000004
   18.67000008  133.69900513    1.28999996    2.71000004
   18.67083359  129.02499390    1.28999996    2.71000004
   18.67416573  128.66200256    1.28999996    2.71000004
   18.67722130  127.91400146    1.26999998    2.71000004
   18.68055534  128.53799438    1.28999996    2.71000004
   18.68388748  129.44500732    1.30999994    2.71000004
   18.68694305  129.48699951    1.30999994    2.69000006
   18.69027710  130.53199768    1.30999994    2.71000004
   18.69333267  128.66099548    1.30999994    2.71000004
   18.69666672  137.94400024    1.30999994    2.71000004
   18.70000076  132.00700378    1.30999994    2.71000004
   18.70305634  129.70399475    1.33000004    2.69000006
   18.70361137  134.65899658    1.33000004    2.69000006
   18.70694542  131.44099426    1.30999994    2.71000004
   18.71027946  125.28600311    1.33000004    2.69000006
   18.71333504  128.98699951    1.41999996    2.71000004
   18.71666718  129.22999573    1.39999998    2.71000004
   18.71972275  129.74699402    1.39999998    2.71000004
   18.72305679  133.25399780    1.39999998    2.71000004
   18.72638893  125.75499725    1.34000003    2.71000004
   18.72944450  128.55599976    1.36000001    2.69000006
   18.73277855  127.38099670    1.38000000    2.69000006
   18.73611069  124.51499939    1.36000001    2.71000004
   18.73694420  129.29600525    1.36000001    2.71000004
   18.73972321  125.85099792    1.30999994    2.71000004
   18.74277878  123.70200348    1.28999996    2.71000004
   18.74611092  123.69599915    1.28999996    2.71000004
   18.74944496  132.83599854    1.30999994    2.71000004
   18.75250053  129.58599854    1.30999994    2.71000004
   18.75583267  129.00700378    1.33000004    2.69000006
   18.75916672  128.26100159    1.34000003    2.71000004
   18.76222229  130.14300537    1.36000001    2.69000006
   18.76555634  131.71299744    1.36000001    2.69000006
   18.76861000  130.96299744    1.36000001    2.69000006
   18.77027702  128.40800476    1.38000000    2.71000004
   18.77249908  127.99900055    1.38000000    2.71000004
   18.77555466  132.04400635    1.36000001    2.71000004
   18.77888870  133.09700012    1.36000001    2.71000004
   18.78222275  130.32400513    1.36000001    2.69000006
   18.78527641  130.77499390    1.38000000    2.71000004
   18.78861046  128.00100708    1.38000000    2.71000004
   18.79194450  131.43899536    1.38000000    2.71000004
   18.79500008  131.43200684    1.38000000    2.69000006
   18.79833221  134.94999695    1.38000000    2.69000006
   18.80138779  130.43499756    1.38000000    2.71000004
   18.80360985  126.22200012    1.38000000    2.69000006
   18.80527687  132.58999634    1.38000000    2.69000006
   18.80833244  128.14500427    1.36000001    2.71000004
   18.81166649  126.92700195    1.36000001    2.69000006
   18.81499863  127.88800049    1.36000001    2.69000006
   18.81805611  123.91899872    1.36000001    2.69000006
   18.82139015  126.54000092    1.36000001    2.69000006
   18.82444572  122.53399658    1.38000000    2.69000006
   18.82777786  128.34899902    1.39999998    2.69000006
   18.83111191  127.95400238    1.41999996    2.69000006
   18.83416748  128.07099915    1.44000006    2.69000006
   18.83694458  127.29900360    1.44000006    2.69000006
   18.83805656  126.56600189    1.41999996    2.71000004
   18.84111214  122.59700012    1.41999996    2.71000004
   18.84444427  131.28700256    1.41999996    2.69000006
   18.84777832  128.95599365    1.41999996    2.71000004
   18.85083389  129.88699341    1.41999996    2.69000006
   18.85416794  136.33299255    1.41999996    2.71000004
   18.85750008  130.69200134    1.39999998    2.71000004
   18.86055565  129.83000183    1.39999998    2.69000006
   18.86388969  134.06900024    1.39999998    2.69000006
   18.86694527  131.54299927    1.39999998    2.69000006
   18.88638878  132.77299500    1.36000001    2.69000006
   18.88694382  128.48599243    1.36000001    2.69000006
   18.88999939  130.76199341    1.36000001    2.69000006
   18.89333344  128.39399719    1.36000001    2.69000006
   18.89638901  129.00199890    1.38000000    2.69000006
   18.89972115  128.78100586    1.38000000    2.69000006
   18.90305519  127.93499756    1.36000001    2.71000004
   18.90611076  125.45700073    1.36000001    2.69000006
   18.90944481  130.55900574    1.36000001    2.71000004
   18.91277695  129.84800720    1.34000003    2.71000004
   18.91583252  125.24800110    1.34000003    2.71000004
   18.91916656  129.01699829    1.34000003    2.71000004
   18.91972160  127.04000092    1.33000004    2.69000006
   18.92249870  129.15899658    1.33000004    2.69000006
   18.92583275  140.55799866    1.33000004    2.69000006
   18.92916679  128.05499268    1.33000004    2.71000004
   18.93222237  124.92099762    1.33000004    2.69000006
   18.93555450  131.06799316    1.33000004    2.69000006
   18.93888855  129.50500488    1.33000004    2.69000006
   18.94194412  129.59300232    1.33000004    2.69000006
   18.94527626  128.99699402    1.30999994    2.71000004
   18.94833183  129.77699280    1.33000004    2.71000004
   18.95166779  135.25500488    1.34000003    2.69000006
   18.95305634  131.30900574    1.34000003    2.69000006
   18.95527840  132.42900085    1.34000003    2.69000006
   18.95861244  133.49699402    1.34000003    2.69000006
   18.96194458  128.70899963    1.36000001    2.69000006
   18.96500015  126.44899750    1.38000000    2.69000006
   18.96833420  129.12199402    1.39999998    2.69000006
   18.97166634  128.94099426    1.39999998    2.69000006
   18.97472191  141.53999329    1.39999998    2.69000006
   18.97805595  129.50300598    1.39999998    2.69000006
   18.98139000  134.44700623    1.39999998    2.69000006
   18.98444557  125.56800079    1.41999996    2.69000006
   18.98638916  133.34100342    1.41999996    2.69000006
   18.98805618  133.62500000    1.44000006    2.69000006
   18.99138832  126.12599945    1.46000004    2.69000006
   18.99472237  140.11099243    1.46000004    2.69000006
   18.99777794  143.59599304    1.46000004    2.69000006
   19.00111198  129.30299377    1.48000002    2.69000006
   19.00416756  142.85299683    1.50000000    2.67000008
   19.00749969  144.88499451    1.50000000    2.67000008
   19.01083374  158.50399780    1.51999998    2.69000006
   19.01388931  174.29499817    1.53999996    2.67000008
   19.01722145  154.55499268    1.53999996    2.67000008
   19.01972198  177.84199524    1.53999996    2.67000008
   19.02083397  179.49000549    1.53999996    2.67000008
   19.02416611  193.86599731    1.53999996    2.69000006
   19.02750015  166.71099854    1.53999996    2.69000006
   19.03055573  189.12300110    1.55999994    2.69000006
   19.03388786  179.03599548    1.55999994    2.67000008
   19.03694344  155.70700073    1.55999994    2.67000008
   19.04027748  168.05000305    1.55999994    2.67000008
   19.04361153  167.28599548    1.55999994    2.69000006
   19.04666710  159.65699768    1.55999994    2.67000008
   19.04999924  148.33900452    1.55999994    2.67000008
   19.05305481  164.07200623    1.58000004    2.69000006
   19.05360985  157.56100464    1.58000004    2.69000006
   19.05694389  169.57200623    1.58000004    2.69000006
   19.06027794  141.03500366    1.58000004    2.67000008
   19.06333351  147.39599609    1.58000004    2.67000008
   19.06666756  155.14999390    1.55999994    2.69000006
   19.07000160  143.80400085    1.55999994    2.67000008
   19.07305717  152.37300110    1.58000004    2.69000006
   19.07638931  146.52999878    1.58000004    2.69000006
   19.07944489  139.63200378    1.60000002    2.69000006
   19.08277893  141.41900635    1.61000001    2.69000006
   19.08611107  145.20899963    1.63000000    2.67000008
   19.08638954  131.58799744    1.63000000    2.67000008
   19.08972359  154.29299927    1.63000000    2.69000006
   19.09305573  128.35600281    1.63000000    2.69000006
   19.09611130  157.38999939    1.63000000    2.67000008
   19.09944534  152.78799438    1.63000000    2.67000008
   19.10250092  136.80599976    1.63000000    2.67000008
   19.10583305  128.13600159    1.64999998    2.69000006
   19.10916710  159.13200378    1.64999998    2.69000006
   19.11222267  141.68899536    1.64999998    2.67000008
   19.11555672  137.96899414    1.66999996    2.67000008
   19.11888885  139.60899353    1.66999996    2.67000008
   19.11972237  133.80200195    1.66999996    2.67000008
   19.12222290  141.24200439    1.64999998    2.67000008
   19.12555504  132.06399536    1.60000002    2.67000008
   19.12861061  133.25700378    1.60000002    2.67000008
   19.13194466  135.37300110    1.60000002    2.67000008
   19.13527679  131.64300537    1.61000001    2.67000008
   19.13833237  131.09599304    1.60000002    2.67000008
   19.14166641  124.02200317    1.58000004    2.67000008
   19.14500046  140.07400513    1.55999994    2.67000008
   19.14833260  135.89799500    1.53999996    2.67000008
   19.15138817  135.99800110    1.53999996    2.67000008
   19.15305519  133.42199707    1.53999996    2.67000008
   19.15499878  133.44299316    1.53999996    2.67000008
   19.15833282  130.35699463    1.51999998    2.67000008
   19.16138840  135.60499573    1.51999998    2.67000008
   19.16472244  134.90299988    1.51999998    2.67000008
   19.16777802  126.89600372    1.51999998    2.67000008
   19.17111015  134.06399536    1.51999998    2.67000008
   19.17444420  131.27600098    1.51999998    2.67000008
   19.17749977  132.27200317    1.51999998    2.67000008
   19.18083191  131.45599365    1.51999998    2.67000008
   19.18416595  129.77799988    1.51999998    2.67000008
   19.18638802  124.85399628    1.51999998    2.67000008
   19.18777657  129.90600586    1.51999998    2.67000008
   19.19111061  138.82699585    1.50000000    2.67000008
   19.19416618  132.69500732    1.50000000    2.67000008
   19.19749832   -1.00000000    1.50000000    2.67000008
   19.20083427   -1.00000000    1.50000000    2.67000008
   19.20388985   -1.00000000    1.51999998    2.67000008
   19.20722389   -1.00000000    1.51999998    2.67000008
   19.21027946   -1.00000000    1.51999998    2.67000008
   19.21361160  142.68200684    1.51999998    2.67000008
   19.21694565  143.31300354    1.51999998    2.67000008
   19.21972275  142.24899292    1.51999998    2.67000008
   19.22055626  135.15600586    1.51999998    2.67000008
   19.22389030  128.79699707    1.51999998    2.67000008
   19.22694588  137.41400146    1.53999996    2.67000008
   19.23027802  133.77900696    1.51999998    2.67000008
   19.23361206  133.30400085    1.51999998    2.67000008
   19.23666763  140.66700745    1.51999998    2.67000008
   19.23999977  128.72999573    1.51999998    2.67000008
   19.24333382  126.51799774    1.53999996    2.67000008
   19.24638939  124.58100128    1.53999996    2.67000008
   19.24972153  128.57099915    1.55999994    2.67000008
   19.25305557  124.90299988    1.58000004    2.67000008
   19.25333405  134.32200623    1.58000004    2.67000008
   19.25666618  126.94999695    1.58000004    2.66000009
   19.26000023  135.11799622    1.58000004    2.66000009
   19.26305580  127.39600372    1.60000002    2.67000008
   19.26638794  129.64599609    1.61000001    2.67000008
   19.26972198  132.47399902    1.64999998    2.67000008
   19.27277756  125.09600067    1.66999996    2.67000008
   19.27611160  128.28700256    1.69000006    2.67000008
   19.27944374  128.42599487    1.71000004    2.67000008
   19.28249931  130.80299377    1.71000004    2.67000008
   19.28583336  125.52500153    1.73000002    2.67000008
   19.28666687  125.89099884    1.75000000    2.67000008
   19.28944397  129.82400513    1.75000000    2.67000008
   19.29277802  127.04900360    1.78999996    2.67000008
   19.29583359  131.29499817    1.85000002    2.67000008
   19.29916573  126.98300171    1.86000001    2.67000008
   19.30249977  125.73000336    1.80999994    2.67000008
   19.30555534  127.13300323    1.85000002    2.66000009
   19.30888748  127.67400360    1.85000002    2.66000009
   19.31194305  130.24400330    1.91999996    2.67000008
   19.31527710  125.58300018    1.89999998    2.66000009
   19.31861115  123.45099640    1.85000002    2.67000008
   19.32000160  127.25800323    1.85000002    2.67000008
   19.32222366  122.96299744    1.80999994    2.66000009
   19.32555580  124.61399841    1.76999998    2.67000008
   19.32861137  127.10600281    1.78999996    2.67000008
   19.33194542  132.82400513    1.78999996    2.67000008
   19.33500099  129.70799255    1.73000002    2.67000008
   19.33833313  126.98000336    1.69000006    2.67000008
   19.34166718  132.84800720    1.64999998    2.66000009
   19.34472275  131.85499573    1.63000000    2.67000008
   19.34805679  128.30999756    1.61000001    2.66000009
   19.35138893  133.20300293    1.61000001    2.66000009
   19.35333443  134.84399414    1.61000001    2.66000009
   19.35472298  134.21699524    1.61000001    2.66000009
   19.35805511  132.62199402    1.60000002    2.66000009
   19.36111069  134.86399841    1.60000002    2.66000009
   19.36444473  127.56500244    1.61000001    2.66000009
   19.36750031  131.32000732    1.61000001    2.66000009
   19.37083435  127.37500000    1.63000000    2.66000009
   19.37416649  131.70700073    1.63000000    2.66000009
   19.37722206  129.64999390    1.61000001    2.66000009
   19.38055611  127.70400238    1.64999998    2.66000009
   19.38388824  125.99800110    1.64999998    2.66000009
   19.38666725  124.10600281    1.64999998    2.66000009
   19.38722229  130.18099976    1.64999998    2.66000009
   19.39055634  128.13900757    1.64999998    2.66000009
   19.39361191  130.31300354    1.64999998    2.66000009
   19.39694405  131.66400146    1.64999998    2.66000009
   19.39999962  131.74200439    1.66999996    2.66000009
   19.40333366  130.29600525    1.71000004    2.66000009
   19.40666580  134.27600098    1.71000004    2.66000009
   19.40999985  125.73600006    1.71000004    2.66000009
   19.41305542  137.51499939    1.71000004    2.66000009
   19.41638756  130.98699951    1.71000004    2.66000009
   19.41944313  132.79200745    1.71000004    2.66000009
   19.42000008  132.00900269    1.71000004    2.66000009
   19.42305565  133.15400696    1.71000004    2.66000009
   19.42638779  128.47099304    1.71000004    2.66000009
   19.42944336  130.42500305    1.71000004    2.66000009
   19.43277740  127.77999878    1.73000002    2.66000009
   19.43610954  129.90199280    1.73000002    2.66000009
   19.43916512  127.60600281    1.73000002    2.66000009
   19.44249916  128.02200317    1.71000004    2.66000009
   19.44555473  129.62899780    1.69000006    2.66000009
   19.44888878  123.31500244    1.66999996    2.66000009
   19.45222282  129.05499268    1.66999996    2.66000009
   19.45333481  132.44599915    1.66999996    2.66000009
   19.45583344  124.96600342    1.66999996    2.66000009
   19.45916748  122.45400238    1.66999996    2.66000009
   19.46222305  129.05599976    1.66999996    2.66000009
   19.46555710  122.23999786    1.66999996    2.66000009
   19.46888924  125.92500305    1.66999996    2.66000009
   19.47194481  133.00700378    1.66999996    2.66000009
   19.47527885  127.84100342    1.66999996    2.66000009
   19.47833443  126.33999634    1.66999996    2.64000010
   19.48166656  129.19400024    1.66999996    2.64000010
   19.48500061  128.10699463    1.64999998    2.66000009
   19.48694420  126.38700104    1.64999998    2.64000010
   19.48861122  136.18299866    1.64999998    2.64000010
   19.49194527  125.54399872    1.64999998    2.64000010
   19.49500084  128.07899475    1.66999996    2.66000009
   19.49861145  133.86599731    1.69000006    2.64000010
   19.50166702  127.83999634    1.71000004    2.64000010
   19.50499916  130.90699768    1.75000000    2.64000010
   19.50833321  124.89099884    1.75000000    2.64000010
   19.51138878  124.49600220    1.71000004    2.64000010
   19.51472282  127.65399933    1.69000006    2.64000010
   19.51805496  127.80799866    1.69000006    2.66000009
   19.52000046  127.14800262    1.69000006    2.66000009
   19.52138901  128.14100647    1.71000004    2.64000010
   19.52472115  126.86699677    1.71000004    2.64000010
   19.52777672  127.62200165    1.66999996    2.64000010
   19.53111076  125.13999939    1.66999996    2.64000010
   19.53444481  126.82900238    1.71000004    2.64000010
   19.53750038  127.24299622    1.71000004    2.64000010
   19.54083252  128.49000549    1.71000004    2.64000010
   19.54388809  122.96399689    1.69000006    2.64000010
   19.54722214  130.72099304    1.66999996    2.64000010
   19.55055428  129.13800049    1.69000006    2.64000010
   19.55333328  126.86900330    1.69000006    2.64000010
   19.55444336  129.97300720    1.66999996    2.64000010
   19.55749893  127.68399811    1.66999996    2.64000010
   19.56083298  128.42700195    1.66999996    2.64000010
   19.56388855  125.91300201    1.66999996    2.64000010
   19.56722260  128.51199341    1.66999996    2.64000010
   19.57055664  127.36900330    1.66999996    2.64000010
   19.57389069  127.66500092    1.66999996    2.64000010
   19.57694626  129.96499634    1.66999996    2.64000010
   19.58027840  129.45300293    1.66999996    2.64000010
   19.58333397  129.95599365    1.66999996    2.64000010
   19.58666801  122.04100037    1.64999998    2.64000010
   19.58722305  126.20800018    1.64999998    2.64000010
   19.59027863  124.71700287    1.64999998    2.64000010
   19.59361267  123.91100311    1.66999996    2.64000010
   19.59694481  125.15100098    1.66999996    2.64000010
   19.60000038  131.50199890    1.64999998    2.64000010
   19.60333443  125.75299835    1.64999998    2.64000010
   19.60666656  121.78299713    1.64999998    2.64000010
   19.60972214  130.26300049    1.64999998    2.64000010
   19.61305618  131.18699646    1.64999998    2.64000010
   19.61611176  128.54400635    1.64999998    2.64000010
   19.61944389  130.62899780    1.66999996    2.64000010
   19.62055588  130.73100281    1.66999996    2.64000010
   19.62305641  133.38099670    1.66999996    2.64000010
   19.62638855  130.90800476    1.71000004    2.64000010
   19.62972260  130.81500244    1.71000004    2.64000010
   19.63277817  126.14399719    1.71000004    2.64000010
   19.63611031  129.80799866    1.75000000    2.64000010
   19.63944435  128.88699341    1.76999998    2.64000010
   19.64249992  124.12500000    1.78999996    2.64000010
   19.64583397  132.01199341    1.78999996    2.64000010
   19.64888954  128.82499695    1.78999996    2.64000010
   19.65222168  128.86300659    1.78999996    2.64000010
   19.65388870  136.59800720    1.78999996    2.64000010
   19.65583229  131.12399292    1.78999996    2.64000010
   19.65888786  134.74099731    1.78999996    2.64000010
   19.66222191  137.23500061    1.78999996    2.64000010
   19.66527748  130.06300354    1.78999996    2.64000010
   19.66860962  127.42600250    1.78999996    2.64000010
   19.67194366  129.25700378    1.76999998    2.64000010
   19.67499924  135.31300354    1.75000000    2.64000010
   19.67833328  125.11799622    1.75000000    2.64000010
   19.68166542  127.52100372    1.73000002    2.64000010
   19.68472099  130.46200562    1.73000002    2.64000010
   19.68722153  124.64199829    1.75000000    2.64000010
   19.68861008  126.53099823    1.75000000    2.64000010
   19.69166565  132.39799500    1.75000000    2.61999989
   19.69499969  129.63800049    1.75000000    2.64000010
   19.69833183  129.26400757    1.73000002    2.61999989
   19.70138931  130.45300293    1.73000002    2.61999989
   19.70472336  125.78600311    1.73000002    2.64000010
   19.70777893  130.49699402    1.73000002    2.64000010
   19.71111107  127.56999969    1.75000000    2.61999989
   19.71444511  128.54299927    1.75000000    2.64000010
   19.71750069  128.36700439    1.76999998    2.64000010
   19.72055626  131.34700012    1.76999998    2.64000010
   19.72138977  130.02900696    1.76999998    2.61999989
   19.72444534  130.29499817    1.76999998    2.61999989
   19.72777748  131.37300110    1.75000000    2.61999989
   19.73083305  130.39700317    1.75000000    2.61999989
   19.73416710  133.83399963    1.75000000    2.61999989
   19.73750114  130.35200500    1.75000000    2.61999989
   19.74055672  136.59899902    1.76999998    2.64000010
   19.74388885  126.85099792    1.76999998    2.61999989
   19.74722290  131.25100708    1.80999994    2.64000010
   19.75027847  134.22200012    1.80999994    2.64000010
   19.75361061  128.11500549    1.85000002    2.64000010
   19.75416756  130.34599304    1.85000002    2.64000010
   19.75722313  127.81300354    1.86000001    2.61999989
   19.76055527  135.19500732    1.83000004    2.61999989
   19.76388931  129.27299500    1.83000004    2.61999989
   19.76694489  126.84700012    1.86000001    2.61999989
   19.77027702  126.66100311    1.80999994    2.61999989
   19.77333260  131.76600647    1.83000004    2.61999989
   19.77666664  130.88999939    1.83000004    2.61999989
   19.78000069  126.70999908    1.86000001    2.61999989
   19.78305435  131.01300049    1.86000001    2.61999989
   19.78638840  123.83999634    1.88000000    2.61999989
   19.78750038  128.94299316    1.88000000    2.61999989
   19.78999901  131.16600037    1.88000000    2.61999989
   19.79333305  128.61599731    1.94000006    2.61999989
   19.79638863  128.42999268    1.88000000    2.61999989
   19.79972076  128.88000488    1.88000000    2.61999989
   19.80305481  125.34200287    1.88000000    2.61999989
   19.80611038  131.73599243    1.88000000    2.61999989
   19.80944443  129.83000183    1.96000004    2.61999989
   19.81277657  127.86000061    1.98000002    2.61999989
   19.81583214  132.96499634    1.98000002    2.61999989
   19.81916809  126.22200012    2.01999998    2.61999989
   19.82083511  126.16200256    2.01999998    2.61999989
   19.82250023  129.60899353    2.01999998    2.61999989
   19.82583427  132.09399414    2.01999998    2.61999989
   19.82916832  128.01300049    2.00000000    2.61999989
   19.83222389  128.05799866    2.01999998    2.61999989
   19.83555603  132.22000122    2.01999998    2.61999989
   19.83861160  126.97000122    2.01999998    2.61999989
   19.84194565  132.43099976    2.00000000    2.61999989
   19.84527779  127.85099792    1.98000002    2.61999989
   19.84833336  132.31399536    1.98000002    2.59999990
   19.85166740  126.75199890    1.98000002    2.59999990
   19.85416794  134.06900024    1.98000002    2.61999989
   19.85527802  126.44799805    1.96000004    2.61999989
   19.85861206  126.31900024    1.94000006    2.59999990
   19.86194420  130.97200012    1.94000006    2.59999990
   19.86499977  128.04200745    1.94000006    2.61999989
   19.86833382  130.02999878    1.94000006    2.59999990
   19.87138939  126.78500366    1.91999996    2.59999990
   19.87472153  125.94200134    1.91999996    2.59999990
   19.87805557  129.86799622    1.91999996    2.59999990
   19.88111115  130.14999390    1.91999996    2.59999990
   19.88444519  127.87999725    1.91999996    2.59999990
   19.90277672  130.18800354    2.01999998    2.59999990
   19.90416718  130.48699951    2.01999998    2.59999990
   19.90749931  125.48000336    1.96000004    2.59999990
   19.91055489  127.76799774    1.98000002    2.59999990
   19.91388893  129.20599365    1.98000002    2.59999990
   19.91722107  131.74400330    1.96000004    2.59999990
   19.92027664  128.95700073    1.98000002    2.59999990
   19.92361069  129.24499512    1.96000004    2.59999990
   19.92666626  123.43800354    2.03999996    2.59999990
   19.93000031  133.27600098    2.23000002    2.59999990
   19.93333244  128.64300537    2.44000006    2.59999990
   19.93610954  125.77300262    2.42000008    2.59999990
   19.93694305  125.00199890    2.42000008    2.59999990
   19.93999863  128.63999939    2.25000000    2.59999990
   19.94333267  129.33200073    2.07999992    2.59999990
   19.94666672  132.91799927    2.09999990    2.61999989
   19.94972038  127.47000122    2.09999990    2.59999990
   19.95305634  125.84799957    2.07999992    2.57999992
   19.95611191  128.59399414    2.05999994    2.59999990
   19.95944595  130.17199707    2.05999994    2.57999992
   19.96277809  126.73500061    2.00000000    2.59999990
   19.96583366  129.44500732    2.00000000    2.59999990
   19.96916771  128.96299744    2.00000000    2.59999990
   19.96972275  128.85499573    2.01999998    2.59999990
   19.97277832  128.11099243    2.05999994    2.59999990
   19.97611237  127.96600342    2.07999992    2.59999990
   19.97944450  125.01899719    2.05999994    2.59999990
   19.98250008  129.59300232    2.07999992    2.59999990
   19.98583412  133.28199768    2.11999989    2.59999990
   19.98888969  129.73899841    2.15000010    2.59999990
   19.99222183  131.88999939    2.17000008    2.59999990
   19.99555588  125.38500214    2.17000008    2.57999992
   19.99861145  136.29699707    2.19000006    2.59999990
   20.00194359  131.49400330    2.21000004    2.59999990
   20.00305557  132.91999817    2.21000004    2.57999992
   20.00527763  128.96699524    2.21000004    2.59999990
   20.00861168  130.15299988    2.19000006    2.57999992
   20.01194382  129.98500061    2.19000006    2.57999992
   20.01499939  136.88099670    2.17000008    2.59999990
   20.01833344  132.18899536    2.17000008    2.59999990
   20.02138901  130.17999268    2.19000006    2.59999990
   20.02472115  125.86900330    2.19000006    2.57999992
   20.02805519  127.71700287    2.19000006    2.57999992
   20.03111076  126.90200043    2.19000006    2.59999990
   20.03444481  127.14600372    2.21000004    2.57999992
   20.03638840  128.19400024    2.21000004    2.57999992
   20.03777695  124.36699677    2.23000002    2.57999992
   20.04111099  130.32099915    2.25000000    2.57999992
   20.04444313  125.75700378    2.23000002    2.57999992
   20.04749870  128.33299255    2.23000002    2.57999992
   20.05083275  127.92099762    2.21000004    2.59999990
   20.05416679  132.72000122    2.23000002    2.57999992
   20.05722237  126.71700287    2.23000002    2.57999992
   20.06055450  128.11999512    2.25000000    2.57999992
   20.06361008  129.73500061    2.25000000    2.57999992
   20.06694603  131.36099243    2.21000004    2.55999994
   20.06972313  131.01600647    2.19000006    2.57999992
   20.07055664  130.41600037    2.19000006    2.57999992
   20.07389069  128.51800537    2.19000006    2.57999992
   20.07722282  130.09599304    2.19000006    2.57999992
   20.08027840  127.12000275    2.19000006    2.55999994
   20.08361244  132.73699951    2.19000006    2.55999994
   20.08694458  128.58099365    2.17000008    2.55999994
   20.09000015  128.49600220    2.17000008    2.57999992
   20.09333420  128.32699585    2.17000008    2.55999994
   20.09666824  126.61499786    2.15000010    2.55999994
   20.09972191  129.58799744    2.15000010    2.55999994
   20.10305595  133.16400146    2.15000010    2.55999994
   20.10333443  130.29899597    2.15000010    2.55999994
   20.10666656  132.52000427    2.17000008    2.55999994
   20.11000061  131.13900757    2.17000008    2.55999994
   20.11305618  132.15899658    2.17000008    2.57999992
   20.11638832  132.24800110    2.17000008    2.57999992
   20.11944389  129.63099670    2.17000008    2.55999994
   20.12277794  130.73500061    2.19000006    2.57999992
   20.12611198  130.02999878    2.19000006    2.55999994
   20.12916756  131.04499817    2.21000004    2.55999994
   20.13249969  133.29600525    2.23000002    2.55999994
   20.13583374  128.21800232    2.25000000    2.55999994
   20.13638878  131.86099243    2.25000000    2.55999994
   20.13916588  129.01699829    2.26999998    2.55999994
   20.14249992  136.07400513    2.28999996    2.55999994
   20.14583397  131.57000732    2.30999994    2.55999994
   20.14888954  132.61700439    2.32999992    2.55999994
   20.15222168  133.19400024    2.34999990    2.55999994
   20.15555573  130.24699402    2.34999990    2.55999994
   20.15861130  126.11399841    2.36999989    2.55999994
   20.16194344  131.45199585    2.36999989    2.55999994
   20.16499901  130.96400452    2.39000010    2.55999994
   20.16833305  133.67799377    2.40000010    2.55999994
   20.16972160  127.89299774    2.42000008    2.55999994
   20.17222214  131.99800110    2.42000008    2.55999994
   20.17527771  132.49699402    2.44000006    2.55999994
   20.17860985  130.04699707    2.42000008    2.55999994
   20.18194389  135.52499390    2.44000006    2.55999994
   20.18499947  132.25999451    2.44000006    2.55999994
   20.18833160  135.06700134    2.46000004    2.55999994
   20.19166565  131.22399902    2.46000004    2.55999994
   20.19472122  136.00300598    2.46000004    2.55999994
   20.19805527  133.57400513    2.46000004    2.55999994
   20.20111275  127.93099976    2.48000002    2.55999994
   20.20305634  135.01400757    2.48000002    2.55999994
   20.20472336  129.93899536    2.50000000    2.53999996
   20.20805550  124.65499878    2.51999998    2.53999996
   20.21138954  122.41100311    2.51999998    2.53999996
   20.21444511  130.50900269    2.53999996    2.53999996
   20.21777916  131.86000061    2.51999998    2.53999996
   20.22111130  142.52000427    2.51999998    2.53999996
   20.22416687  133.85200500    2.53999996    2.55999994
   20.22750092  143.66200256    2.55999994    2.55999994
   20.23055649  190.53100586    2.55999994    2.53999996
   20.23388863  284.37899780    2.57999992    2.53999996
   20.23638916  266.29299927    2.59999990    2.53999996
   20.23750114  196.96600342    2.59999990    2.53999996
   20.24083328   -1.00000000    2.61999989    2.53999996
   20.24416733   -1.00000000    2.73000002    2.53999996
   20.24722290   -1.00000000    2.89000010    2.53999996
   20.25055504   -1.00000000    2.86999989    2.53999996
   20.25388908   -1.00000000    2.80999994    2.53999996
   20.25694466   -1.00000000    2.69000006    2.53999996
   20.26027870   -1.00000000    2.71000004    2.53999996
   20.26333427   -1.00000000    2.69000006    2.53999996
   20.26666641   -1.00000000    2.66000009    2.53999996
   20.27027702   -1.00000000    2.61999989    2.53999996
   20.27361107   -1.00000000    2.61999989    2.53999996
   20.27694511   -1.00000000    2.59999990    2.53999996
   20.28000069   -1.00000000    2.57999992    2.53999996
   20.28333282   -1.00000000    2.57999992    2.53999996
   20.28638840   -1.00000000    2.61999989    2.53999996
   20.28972244   -1.00000000    2.61999989    2.53999996
   20.29305458   -1.00000000    2.59999990    2.53999996
