    HOUR (UT)   FLARE FACTOR    SKY TESTER    SUN TESTER
   12.40472221   -1.00000000   -1.00000000   -1.00000000
   12.77499962  138.55499268    4.90999985    2.19000006
   12.77861118  136.67100525    4.90999985    2.19000006
   12.78194427  146.93600464    4.90999985    2.19000006
   12.78500080  164.03100586    4.90999985    2.21000004
   12.78833389  133.84700012    4.90999985    2.21000004
   12.79166698  139.46000671    4.90999985    2.21000004
   12.79555607  139.46000671    4.90999985    2.21000004
   12.79972267  133.38299561    4.90999985    2.21000004
   12.80305576  140.07099915    4.90999985    2.21000004
   12.80611134  126.39600372    4.90999985    2.21000004
   12.80833340  124.91500092    4.90999985    2.23000002
   12.81000042  125.85399628    4.90999985    2.23000002
   12.81305599  148.97000122    4.90999985    2.23000002
   12.81638908  122.74099731    4.90999985    2.23000002
   12.81972218  120.74400330    4.90999985    2.23000002
   12.82277775  130.26800537    4.90999985    2.23000002
   12.82611084  126.44100189    4.90999985    2.23000002
   12.82916641  122.18099976    4.90999985    2.23000002
   12.83249950  127.99800110    4.90999985    2.25000000
   12.83861065  127.99800110    4.90999985    2.23000002
   12.84249973  128.58399963    4.90999985    2.23000002
   12.84583282  128.08599854    4.90999985    2.23000002
   12.84916592  134.60299683    4.90999985    2.23000002
   12.85222244  131.56300354    4.90999985    2.23000002
   12.85555553  130.02499390    4.90999985    2.23000002
   12.85888958  131.41999817    4.90999985    2.25000000
   12.86194515  131.53399658    4.90999985    2.25000000
   12.86527824  131.71400452    4.90999985    2.25000000
   12.86833382  130.11199951    4.90999985    2.25000000
   12.87166691  130.08700562    4.90999985    2.25000000
   12.87500000  131.09599304    4.90999985    2.25000000
   12.87555599  133.43200684    4.90999985    2.25000000
   12.88138866  133.43200684    4.90999985    2.25000000
   12.88555527  129.43200684    4.90999985    2.25000000
   12.88861084  130.98800659    4.90999985    2.26999998
   12.89194393  128.24699402    4.90999985    2.26999998
   12.89527798  124.50599670    4.90999985    2.25000000
   12.89833355  126.48000336    4.90999985    2.26999998
   12.90166664  130.23800659    4.90999985    2.26999998
   12.90499973  123.32700348    4.90999985    2.26999998
   12.90805531  123.56900024    4.90999985    2.26999998
   12.90888882  124.50199890    4.90999985    2.26999998
   12.91166592  122.57900238    4.90999985    2.26999998
   12.91499996  126.87500000    4.90999985    2.26999998
   12.91833401  128.30000305    4.90999985    2.26999998
   12.92416668  128.30000305    4.90999985    2.26999998
   12.92833328  127.88400269    4.90999985    2.26999998
   12.93166733  129.20300293    4.90999985    2.28999996
   12.93472195  132.86199951    4.90999985    2.26999998
   12.93833351  131.47700500    4.90999985    2.28999996
   12.94166660  123.63899994    4.90999985    2.28999996
   12.94250011  127.91600037    4.90999985    2.26999998
   12.94555569  127.91200256    4.90999985    2.26999998
   12.94861126  131.31199646    4.90999985    2.28999996
   12.95194435  124.63999939    4.90999985    2.28999996
   12.95499992  127.20300293    4.90999985    2.28999996
   12.95833302  127.25099945    4.90999985    2.28999996
   12.96166611  122.41000366    4.90999985    2.28999996
   12.96722221  122.41000366    4.90999985    2.28999996
   12.97111034  118.04000092    4.90999985    2.28999996
   12.97444439  124.08000183    4.90999985    2.28999996
   12.97555542  120.76399994    4.90999985    2.30999994
   12.97805500  125.87899780    4.90999985    2.30999994
   12.98138809  124.88200378    4.90999985    2.28999996
   12.98472214  120.82099915    4.90999985    2.30999994
   12.98777771  120.50299835    4.90999985    2.30999994
   12.99111176  122.80000305    4.90999985    2.30999994
   12.99416733  120.83999634    4.90999985    2.30999994
   12.99750042  122.17700195    4.90999985    2.30999994
   13.00083351  121.73699951    4.90999985    2.30999994
   13.00388908  123.10500336    4.90999985    2.30999994
   13.01000023  123.10500336    4.90999985    2.30999994
   13.01416683  126.04599762    4.90999985    2.30999994
   13.01722240  123.42900085    4.90999985    2.30999994
   13.02055550  125.73999786    4.90999985    2.30999994
   13.02361107  119.61000061    4.90999985    2.30999994
   13.02694416  123.25700378    4.90999985    2.32999992
   13.03027725  124.34600067    4.90999985    2.32999992
   13.03333378  129.84300232    4.90999985    2.30999994
   13.03666687  129.57099915    4.90999985    2.32999992
   13.04000092  126.52799988    4.90999985    2.32999992
   13.04222298  131.37600708    4.90999985    2.32999992
   13.04333401  127.02400208    4.90999985    2.32999992
   13.04666710  125.16000366    4.90999985    2.32999992
   13.05277824  125.16000366    4.90999985    2.32999992
   13.05694485  126.51100159    4.90999985    2.32999992
   13.06000042  127.57299805    4.90999985    2.32999992
   13.06333351  131.13999939    4.90999985    2.32999992
   13.06666660  126.07700348    4.90999985    2.32999992
   13.06972218  126.91500092    4.90999985    2.32999992
   13.07305527  129.68899536    4.90999985    2.32999992
   13.07555580  126.33100128    4.90999985    2.34999990
   13.07666683  129.81300354    4.90999985    2.34999990
   13.07999992  117.62500000    4.90999985    2.32999992
   13.08333302  126.40200043    4.90999985    2.34999990
   13.08638859  122.22499847    4.90999985    2.34999990
   13.08972168  127.35700226    4.90999985    2.34999990
   13.09555531  127.35700226    4.90999985    2.34999990
   13.09972191  124.98799896    4.90999985    2.34999990
   13.10305595  125.26399994    4.90999985    2.34999990
   13.10611153  121.81400299    4.90999985    2.36999989
   13.10888958  127.22699738    4.90999985    2.34999990
   13.10972214  124.27999878    4.90999985    2.36999989
   13.11305618  127.97799683    4.90999985    2.34999990
   13.11638927  123.02200317    4.90999985    2.34999990
   13.11944485  123.79799652    4.90999985    2.34999990
   13.12277794  125.10700226    4.90999985    2.34999990
   13.12611103  125.41999817    4.90999985    2.34999990
   13.12916660  126.98000336    4.90999985    2.36999989
   13.13249969  129.86000061    4.90999985    2.34999990
   13.13861084  129.86000061    4.90999985    2.36999989
   13.14249992  129.55900574    4.90999985    2.36999989
   13.14583302  132.29600525    4.90999985    2.36999989
   13.14916611  130.93600464    4.90999985    2.36999989
   13.15222168  128.25399780    4.90999985    2.36999989
   13.15555477  125.05599976    4.90999985    2.36999989
   13.15888882  123.20400238    4.90999985    2.36999989
   13.16194439  126.21299744    4.90999985    2.36999989
   13.16527748  124.92900085    4.90999985    2.36999989
   13.16833401  125.11699677    4.90999985    2.36999989
   13.17166710  124.24700165    4.90999985    2.39000010
   13.17500019  122.49600220    4.90999985    2.39000010
   13.17555618  122.43099976    4.90999985    2.36999989
   13.18138885  122.43099976    4.90999985    2.36999989
   13.18555546  122.35199738    4.90999985    2.39000010
   13.18861103  123.79199982    4.90999985    2.39000010
   13.19194412  123.64299774    4.90999985    2.39000010
   13.19527817  119.81400299    4.90999985    2.39000010
   13.19833374  125.90299988    4.90999985    2.39000010
   13.20166683  125.30300140    4.90999985    2.39000010
   13.20472240  125.27200317    4.90999985    2.39000010
   13.20805550  127.44999695    4.90999985    2.39000010
   13.20888901  128.26300049    4.90999985    2.39000010
   13.21138859  132.93499756    4.90999985    2.39000010
   13.21472168  124.38099670    4.90999985    2.39000010
   13.21805477  130.85699463    4.90999985    2.39000010
   13.22416592  130.85699463    4.90999985    2.39000010
   13.22833252  126.46099854    4.90999985    2.39000010
   13.23166656  126.38999939    4.90999985    2.39000010
   13.23472214  132.15100098    4.90999985    2.40000010
   13.23805618  129.45300293    4.90999985    2.39000010
   13.24111176  133.41200256    4.90999985    2.40000010
   13.24222279  130.02299500    4.90999985    2.40000010
   13.24499989  136.71299744    4.90999985    2.40000010
   13.24805546  127.98899841    4.90999985    2.40000010
   13.25138855  128.19999695    4.90999985    2.40000010
   13.25444412  124.77500153    4.90999985    2.40000010
   13.25777817  124.94000244    4.90999985    2.40000010
   13.26111126  124.53800201    4.90999985    2.40000010
   13.26694393  124.53800201    4.90999985    2.40000010
   13.27111053  120.74700165    4.90999985    2.40000010
   13.27444458  113.98999786    4.90999985    2.42000008
   13.27555561  117.34400177    4.90999985    2.40000010
   13.27805519  123.95400238    4.90999985    2.40000010
   13.28111076  116.90699768    4.90999985    2.40000010
   13.28444481  129.21600342    4.90999985    2.40000010
   13.28750038  131.78100586    4.90999985    2.40000010
   13.29083347  121.74400330    4.90999985    2.40000010
   13.29416752  123.33699799    4.90999985    2.42000008
   13.29722309  126.78500366    4.90999985    2.40000010
   13.30055618  123.30400085    4.90999985    2.40000010
   13.30388927  129.50599670    4.90999985    2.40000010
   13.31000042  129.50599670    4.90999985    2.42000008
   13.31388950  127.69499969    4.90999985    2.42000008
   13.31722260  122.86299896    4.90999985    2.42000008
   13.32055569  123.07800293    4.90999985    2.42000008
   13.32361126  122.81099701    4.90999985    2.42000008
   13.32694435  120.56999969    4.90999985    2.42000008
   13.33027744  123.61199951    4.90999985    2.42000008
   13.33333302  121.83399963    4.90999985    2.42000008
   13.33666611  121.82199860    4.90999985    2.42000008
   13.34000015  121.36000061    4.90999985    2.42000008
   13.34222221  123.84100342    4.90999985    2.42000008
   13.34361076  121.74800110    4.90999985    2.44000006
   13.34666634  118.77300262    4.90999985    2.42000008
   13.35277843  118.77300262    4.90999985    2.44000006
   13.35694504  114.97699738    4.90999985    2.42000008
   13.36000061  123.09700012    4.90999985    2.42000008
   13.36333370  124.14399719    4.90999985    2.42000008
   13.36666679  121.63899994    4.90999985    2.44000006
   13.36972237  123.28600311    4.90999985    2.44000006
   13.37305546  128.06900024    4.90999985    2.44000006
   13.37555599  122.93599701    4.90999985    2.44000006
   13.37666702  121.15000153    4.90999985    2.44000006
   13.37972260  128.07800293    4.90999985    2.42000008
   13.38305569  131.21000671    4.90999985    2.44000006
   13.38611126  128.54899597    4.90999985    2.44000006
   13.38944435  129.60800171    4.90999985    2.44000006
   13.39555550  129.60800171    4.90999985    2.44000006
   13.39972210  125.35800171    4.90999985    2.46000004
   13.40305519  127.18800354    4.90999985    2.46000004
   13.40611076  133.17599487    4.90999985    2.46000004
   13.40888882  125.35900116    4.90999985    2.46000004
   13.40999985  125.32199860    4.90999985    2.44000006
   13.41305542  128.27499390    4.90999985    2.44000006
   13.41638851  128.10000610    4.90999985    2.46000004
   13.41944504  127.13200378    4.90999985    2.46000004
   13.42277813  124.68199921    4.90999985    2.46000004
   13.42611122  123.48799896    4.90999985    2.46000004
   13.42916679  125.29900360    4.90999985    2.46000004
   13.43249989  123.29599762    4.90999985    2.46000004
   13.43833351  123.29599762    4.90999985    2.46000004
   13.44250011  122.59100342    4.90999985    2.46000004
   13.44583321  123.72399902    4.90999985    2.44000006
   13.44888878  131.12500000    4.90999985    2.46000004
   13.45222187  128.29899597    4.90999985    2.46000004
   13.45527744  123.58200073    4.90999985    2.46000004
   13.45861053  122.62799835    4.90999985    2.46000004
   13.46194458  126.76999664    4.90999985    2.46000004
   13.46500015  131.56199646    4.90999985    2.46000004
   13.46833324  131.35499573    4.90999985    2.46000004
   13.47138882  125.19000244    4.90999985    2.46000004
   13.47472191  129.02299500    4.90999985    2.46000004
   13.47555542  125.28099823    4.90999985    2.46000004
   13.48111057  125.28099823    4.90999985    2.48000002
   13.48527813  126.53099823    4.90999985    2.46000004
   13.48861122  129.61500549    4.90999985    2.46000004
   13.49194431  127.90000153    4.90999985    2.46000004
   13.49499989  125.36299896    4.90999985    2.46000004
   13.49833393  127.45999908    4.90999985    2.46000004
   13.50166702  127.37999725    4.90999985    2.46000004
   13.50472260  123.20800018    4.90999985    2.46000004
   13.50805569  121.60500336    4.90999985    2.48000002
   13.50888920  125.89900208    4.90999985    2.46000004
   13.51138878  121.29599762    4.90999985    2.46000004
   13.51472187  126.23100281    4.90999985    2.48000002
   13.51805496  125.77200317    4.90999985    2.48000002
   13.52416611  125.77200317    4.90999985    2.46000004
   13.52805519  125.74400330    4.90999985    2.46000004
   13.53138828  126.05899811    4.90999985    2.48000002
   13.53472233  124.30500031    4.90999985    2.48000002
   13.53777790  125.53099823    4.90999985    2.48000002
   13.54111195  123.76599884    4.90999985    2.48000002
   13.54222298  123.26499939    4.90999985    2.48000002
   13.54444504  124.61599731    4.90999985    2.48000002
   13.54777813  124.86499786    4.90999985    2.48000002
   13.55111122  122.26499939    4.90999985    2.48000002
   13.55416679  123.56400299    4.90999985    2.48000002
   13.55749989  124.97499847    4.90999985    2.48000002
   13.56083393  130.06100464    4.90999985    2.48000002
   13.56694412  130.06100464    4.90999985    2.48000002
   13.57111073  128.54200745    4.90999985    2.48000002
   13.57416630  128.11500549    4.90999985    2.50000000
   13.57555580  131.74299622    4.90999985    2.48000002
   13.57777786  126.92900085    4.90999985    2.48000002
   13.58111095  133.17999268    4.90999985    2.48000002
   13.58444405  127.50599670    4.90999985    2.48000002
   13.58749962  123.47899628    4.90999985    2.48000002
   13.59083271  129.37199402    4.90999985    2.48000002
   13.59416676  124.78800201    4.90999985    2.50000000
   13.59722233  127.13500214    4.90999985    2.48000002
   13.60055637  131.89900208    4.90999985    2.48000002
   13.60361195  132.21299744    4.90999985    2.50000000
   13.60972214  132.21299744    4.90999985    2.50000000
   13.61388969  129.31500244    4.90999985    2.50000000
   13.61722279  133.44500732    4.90999985    2.50000000
   13.62027836  128.75900269    4.90999985    2.50000000
   13.62361145  128.07800293    4.90999985    2.50000000
   13.62666702  127.81500244    4.90999985    2.50000000
   13.63000011  123.21399689    4.90999985    2.50000000
   13.63333321  127.99700165    4.90999985    2.50000000
   13.63638878  131.61199951    4.90999985    2.50000000
   13.63972187  129.89399719    4.90999985    2.50000000
   13.64222240  131.04899597    4.90999985    2.50000000
   13.64305496  128.27400208    4.90999985    2.51999998
   13.64638901  125.63800049    4.90999985    2.51999998
   13.65249920  125.63800049    4.90999985    2.50000000
   13.65666676  127.48200226    4.90999985    2.50000000
   13.65999985  125.91400146    4.90999985    2.50000000
   13.66333294  122.71399689    4.90999985    2.51999998
   13.66638851  123.16799927    4.90999985    2.50000000
   13.66972256  120.68599701    4.90999985    2.51999998
   13.67277813  126.56999969    4.90999985    2.50000000
   13.67555618  128.81300354    4.90999985    2.51999998
   13.67638874  124.44400024    4.90999985    2.50000000
   13.67972279  126.51499939    4.90999985    2.51999998
   13.68305588  130.37600708    4.90999985    2.51999998
   13.68611145  128.33700562    4.90999985    2.51999998
   13.68944454  123.39900208    4.90999985    2.51999998
   13.69555569  123.39900208    4.90999985    2.51999998
   13.69944477  124.70899963    4.90999985    2.51999998
   13.70277786  131.70599365    4.90999985    2.51999998
   13.70611095  131.17700195    4.90999985    2.51999998
   13.70888901  126.53399658    4.90999985    2.51999998
   13.70944405  128.23699951    4.90999985    2.51999998
   13.71277714  123.52500153    4.90999985    2.51999998
   13.71611118  124.81999969    4.90999985    2.51999998
   13.71916580  128.54699707    4.90999985    2.51999998
   13.72249985  125.59799957    4.90999985    2.51999998
   13.72583294  128.53900146    4.90999985    2.50000000
   13.72888851  124.46900177    4.90999985    2.51999998
   13.73222160  126.41300201    4.90999985    2.51999998
   13.73833370  126.41300201    4.90999985    2.51999998
   13.74250031  123.60800171    4.90999985    2.51999998
   13.74555588  120.17600250    4.90999985    2.51999998
   13.74888897  124.48400116    4.90999985    2.53999996
   13.75222206  128.12800598    4.90999985    2.51999998
   13.75527763  126.47699738    4.90999985    2.51999998
   13.75861073  129.45599365    4.90999985    2.51999998
   13.76194477  130.44000244    4.90999985    2.51999998
   13.76500034  128.32800293    4.90999985    2.51999998
   13.76833344  124.94499969    4.90999985    2.51999998
   13.77138901  124.20600128    4.90999985    2.51999998
   13.77472210  128.52099609    4.90999985    2.51999998
   13.77555561  127.71099854    4.90999985    2.53999996
   13.79611111  127.71099854    4.90999985    2.53999996
   13.80027771  128.63600159    4.90999985    2.53999996
   13.80361176  128.50500488    4.90999985    2.51999998
   13.80666733  127.17299652    4.90999985    2.51999998
   13.80888939  131.33599854    4.90999985    2.53999996
   13.81055546  133.71499634    4.90999985    2.53999996
   13.81361103  127.09400177    4.90999985    2.53999996
   13.81694412  126.33499908    4.90999985    2.51999998
   13.81999969  122.57099915    4.90999985    2.53999996
   13.82333374  125.32299805    4.90999985    2.51999998
   13.82666683  137.87899780    4.90999985    2.53999996
   13.82972240  135.21899414    4.90999985    2.53999996
   13.83305550  128.77299500    4.90999985    2.53999996
   13.83888817  128.77299500    4.90999985    2.53999996
   13.84305477  129.71200562    4.90999985    2.53999996
   13.84611034  125.55899811    4.90999985    2.53999996
   13.84944439  123.89099884    4.90999985    2.53999996
   13.85277843  127.79599762    4.90999985    2.53999996
   13.85583401  125.05899811    4.90999985    2.53999996
   13.85916710  123.68699646    4.90999985    2.53999996
   13.86250019  120.47299957    4.90999985    2.53999996
   13.86555576  131.27799988    4.90999985    2.53999996
   13.86888885  131.51899719    4.90999985    2.55999994
   13.87194443  128.75500488    4.90999985    2.53999996
   13.87527752  133.60099792    4.90999985    2.55999994
   13.87583351  125.96499634    4.90999985    2.53999996
   13.88166714  125.96499634    4.90999985    2.55999994
   13.88583279  130.76400757    4.90999985    2.53999996
   13.88916683  128.31300354    4.90999985    2.55999994
   13.89222240  134.22500610    4.90999985    2.55999994
   13.89555550  128.01100159    4.90999985    2.53999996
   13.89888859  129.34899902    4.90999985    2.53999996
   13.90194416  126.08899689    4.90999985    2.53999996
   13.90527725  122.81099701    4.90999985    2.55999994
   13.90833282  125.18399811    4.90999985    2.55999994
   13.90916634  125.93599701    4.90999985    2.55999994
   13.91222191  128.18699646    4.90999985    2.55999994
   13.91527748  127.83899689    4.90999985    2.55999994
   13.91861153  130.69999695    4.90999985    2.55999994
   13.92444515  130.69999695    4.90999985    2.55999994
   13.92861176  130.85699463    4.90999985    2.55999994
   13.93194485  135.00799561    4.90999985    2.55999994
   13.93527794  130.90199280    4.90999985    2.55999994
   13.93833351  128.96400452    4.90999985    2.55999994
   13.94166660  133.08299255    4.90999985    2.55999994
   13.94250011  128.52299500    4.90999985    2.55999994
   13.94499969  142.00100708    4.90999985    2.55999994
   13.94833374  131.09100342    4.90999985    2.55999994
   13.95166683  129.42599487    4.90999985    2.55999994
   13.95472240  129.33700562    4.90999985    2.55999994
   13.95805550  133.77499390    4.90999985    2.55999994
   13.96138859  131.44999695    4.90999985    2.55999994
   13.96749973  131.44999695    4.90999985    2.55999994
   13.97166634  123.22299957    4.90999985    2.53999996
   13.97472191  125.25499725    4.90999985    2.55999994
   13.97583294  123.31999969    4.90999985    2.55999994
   13.97861099  117.73100281    4.90999985    2.55999994
   13.98166656  128.19999695    4.90999985    2.55999994
   13.98500061  129.75100708    4.90999985    2.55999994
   13.98805618  129.58900452    4.90999985    2.55999994
   13.99138927  127.79599762    4.90999985    2.55999994
   13.99472237  132.37800598    4.90999985    2.55999994
   13.99777794  133.71499634    4.90999985    2.55999994
   14.00111103  134.77200317    4.90999985    2.55999994
   14.00444412  137.68899536    4.90999985    2.55999994
   14.01027775  137.68899536    4.90999985    2.57999992
   14.01444435  126.55100250    4.90999985    2.57999992
   14.01749992  132.47000122    4.90999985    2.57999992
   14.02083302  130.97700500    4.90999985    2.57999992
   14.02416611  137.15299988    4.90999985    2.55999994
   14.02722168  132.77400208    4.90999985    2.57999992
   14.03055573  135.99899292    4.90999985    2.57999992
   14.03388977  130.97599792    4.90999985    2.57999992
   14.03694534  132.48399353    4.90999985    2.55999994
   14.04027843  128.95700073    4.90999985    2.55999994
   14.04250050  131.28599548    4.90999985    2.57999992
   14.04388905  126.75800323    4.90999985    2.57999992
   14.04694462  127.01999664    4.90999985    2.57999992
   14.05305576  127.01999664    4.90999985    2.59999990
   14.05722237  137.92300415    4.90999985    2.57999992
   14.06055546  136.16499329    4.90999985    2.57999992
   14.06361103  136.77699280    4.90999985    2.57999992
   14.06694412  142.44799805    4.90999985    2.57999992
   14.07027817  150.83200073    4.90999985    2.57999992
   14.07333374  153.23699951    4.90999985    2.57999992
   14.07583332  147.18800354    4.90999985    2.57999992
   14.07722187  157.15100098    4.90999985    2.57999992
   14.08027744  161.16700745    4.90999985    2.57999992
   14.08361053  167.26100159    4.90999985    2.57999992
   14.08666611  160.49099731    4.90999985    2.57999992
   14.09000015  160.19200134    4.90999985    2.57999992
   14.09583282  160.19200134    4.90999985    2.57999992
   14.10000038  195.80299377    4.90999985    2.57999992
   14.10333347  191.36799622    4.90999985    2.57999992
   14.10666752  212.63999939    4.90999985    2.57999992
   14.10916710  221.53500366    4.90999985    2.59999990
   14.11027813  229.71899414    4.90999985    2.57999992
   14.11333370  262.45001221    4.90999985    2.57999992
   14.11666679  269.75000000    4.90999985    2.57999992
   14.11999989  285.69900513    4.90999985    2.59999990
   14.12305546  322.75000000    4.90999985    2.57999992
   14.12500000  344.31201172    4.90999985    2.57999992
   14.12638855  334.71499634    4.90999985    2.57999992
   14.12777805  335.88299561    4.90999985    2.57999992
   14.12916660  339.72399902    4.90999985    2.57999992
   14.13055611  305.61199951    4.90999985    2.57999992
   14.13194466  257.21600342    4.90999985    2.57999992
   14.13333321  194.37100220    4.90999985    2.57999992
   14.13333321  322.75000000    4.90999985    2.57999992
   14.13361073  160.19200134    4.90999985    2.57999992
   14.13361073  195.80299377    4.90999985    2.57999992
   14.13361073  191.36799622    4.90999985    2.57999992
   14.13361073  212.63999939    4.90999985    2.57999992
   14.13361073  229.71899414    4.90999985    2.57999992
   14.13361073  262.45001221    4.90999985    2.57999992
   14.13388920  269.75000000    4.90999985    2.57999992
   14.13388920  285.69900513    4.90999985    2.59999990
   14.13444424  191.90400696    4.90999985    2.57999992
   14.13749981  117.16100311    4.90999985    2.57999992
   14.14083290  107.35600281    4.90999985    2.57999992
   14.14416695   99.73139954    4.90999985    2.57999992
   14.14722252   77.30989838    4.90999985    2.59999990
   14.15416622   77.30989838    4.90999985    2.59999990
   14.15833282   -1.00000000    4.90999985    2.57999992
   14.16138840   -1.00000000    4.90999985    2.59999990
   14.16472149   -1.00000000    4.90999985    2.57999992
   14.16805553   -1.00000000    4.90999985    2.57999992
   14.17138958   -1.00000000    4.90999985    2.59999990
   14.17472267   -1.00000000    4.90999985    2.57999992
   14.17777824   -1.00000000    4.90999985    2.57999992
   14.18111134   -1.00000000    4.90999985    2.59999990
   14.18416691   -1.00000000    4.90999985    2.59999990
   14.18750000   -1.00000000    4.90999985    2.57999992
   14.19083309   -1.00000000    4.90999985    2.57999992
   14.20111084   -1.00000000    4.90999985    2.59999990
   14.20416641   -1.00000000    4.90999985    2.59999990
   14.20749950   -1.00000000    4.90999985    2.59999990
   14.21083355   -1.00000000    4.90999985    2.59999990
   14.21388912   -1.00000000    4.90999985    2.59999990
   14.21722221   -1.00000000    4.90999985    2.59999990
   14.22055531   -1.00000000    4.90999985    2.59999990
   14.22361088   -1.00000000    4.90999985    2.59999990
   14.22694397   -1.00000000    4.90999985    2.59999990
   14.22999954   -1.00000000    4.90999985    2.59999990
   14.23333359   -1.00000000    4.90999985    2.59999990
   14.25527763  130.07499695    4.90999985    2.59999990
   14.25861073  128.41000366    4.90999985    2.59999990
   14.26166630  133.84399414    4.90999985    2.59999990
   14.26500034  135.75399780    4.90999985    2.59999990
   14.26722240  136.12100220    4.90999985    2.59999990
   14.26861095  133.62300110    4.90999985    2.59999990
   14.27277756  133.62300110    4.90999985    2.59999990
   14.27666664  135.08399963    4.90999985    2.61999989
   14.27999973  131.15400696    4.90999985    2.61999989
   14.28333378  131.16900635    4.90999985    2.59999990
   14.28638935  133.40199280    4.90999985    2.59999990
   14.28972244  128.77200317    4.90999985    2.59999990
   14.29305553  130.74800110    4.90999985    2.59999990
   14.29611111  129.88900757    4.90999985    2.59999990
   14.29944515  134.42799377    4.90999985    2.61999989
   14.30055618  131.80900574    4.90999985    2.61999989
   14.30305576  133.02699280    4.90999985    2.59999990
   14.30638885  134.66400146    4.90999985    2.59999990
   14.30944443  128.19599915    4.90999985    2.61999989
   14.31555557  128.19599915    4.90999985    2.61999989
   14.31972218  122.46600342    4.90999985    2.59999990
   14.32277775  131.28199768    4.90999985    2.61999989
   14.32611084  130.22300720    4.90999985    2.61999989
   14.32944393  132.54100037    4.90999985    2.59999990
   14.33249950  129.98399353    4.90999985    2.61999989
   14.33388901  129.41299438    4.90999985    2.61999989
   14.33611107  136.13699341    4.90999985    2.61999989
   14.33944416  132.63699341    4.90999985    2.59999990
   14.34249973  132.20799255    4.90999985    2.59999990
   14.34583282  132.94200134    4.90999985    2.59999990
   14.34888840  130.79400635    4.90999985    2.59999990
   14.35222244  137.86099243    4.90999985    2.61999989
   14.35833359  137.86099243    4.90999985    2.61999989
   14.36250019  130.62199402    4.90999985    2.61999989
   14.36583328  128.91499329    4.90999985    2.61999989
   14.36722279  132.19099426    4.90999985    2.61999989
   14.36944485  127.90899658    4.90999985    2.61999989
   14.37277794  127.05500031    4.90999985    2.61999989
   14.37583351  136.44200134    4.90999985    2.61999989
   14.37916660  130.93200684    4.90999985    2.59999990
   14.38222218  130.57499695    4.90999985    2.61999989
   14.38555527  129.07200623    4.90999985    2.61999989
   14.38888836  128.82299805    4.90999985    2.64000010
   14.39194393  138.79200745    4.90999985    2.61999989
   14.39527798  137.33299255    4.90999985    2.61999989
   14.40111065  137.33299255    4.90999985    2.61999989
   14.40527725  132.92399597    4.90999985    2.61999989
   14.40861034  135.33599854    4.90999985    2.61999989
   14.41166592  132.28599548    4.90999985    2.61999989
   14.41499996  135.74000549    4.90999985    2.61999989
   14.41833401  132.81199646    4.90999985    2.61999989
   14.42138958  136.13499451    4.90999985    2.61999989
   14.42472267  132.22500610    4.90999985    2.61999989
   14.42805576  130.21400452    4.90999985    2.61999989
   14.43111134  128.37399292    4.90999985    2.61999989
   14.43388939  128.16799927    4.90999985    2.61999989
   14.43472195  128.30799866    4.90999985    2.61999989
   14.43805599  131.46600342    4.90999985    2.61999989
   14.44416714  131.46600342    4.90999985    2.61999989
   14.44805527  136.99299622    4.90999985    2.61999989
   14.45138836  136.63600159    4.90999985    2.61999989
   14.45472240  135.02200317    4.90999985    2.61999989
   14.45777798  137.92599487    4.90999985    2.64000010
   14.46111107  129.37800598    4.90999985    2.61999989
   14.46444416  129.36199951    4.90999985    2.61999989
   14.46722221  134.75900269    4.90999985    2.64000010
   14.46805477  134.90100098    4.90999985    2.64000010
   14.47138882  131.01699829    4.90999985    2.61999989
   14.47444439  131.81700134    4.90999985    2.61999989
   14.47777748  133.57099915    4.90999985    2.61999989
   14.48083305  128.95399475    4.90999985    2.61999989
   14.48694515  128.95399475    4.90999985    2.61999989
   14.49111176  130.03799438    4.90999985    2.64000010
   14.49416733  133.57699585    4.90999985    2.64000010
   14.49750042  134.21299744    4.90999985    2.64000010
   14.50055599  131.64199829    4.90999985    2.61999989
   14.50111103  130.58200073    4.90999985    2.61999989
   14.50444412  134.50900269    4.90999985    2.61999989
   14.50749969  131.74400330    4.90999985    2.64000010
   14.51083374  128.69099426    4.90999985    2.64000010
   14.51388931  131.47599792    4.90999985    2.64000010
   14.51722240  130.76600647    4.90999985    2.61999989
   14.52055550  133.75500488    4.90999985    2.64000010
   14.52361107  128.95500183    4.90999985    2.64000010
   14.52972221  128.95500183    4.90999985    2.64000010
   14.53388977  129.29100037    4.90999985    2.64000010
   14.53444481  132.93699646    4.90999985    2.64000010
   14.53750038  137.81500244    4.90999985    2.64000010
   14.54083347  138.65400696    4.90999985    2.64000010
   14.54416752  133.39999390    4.90999985    2.64000010
   14.54722309  128.64900208    4.90999985    2.64000010
   14.55055618  139.44900513    4.90999985    2.64000010
   14.55361176  138.29100037    4.90999985    2.64000010
   14.55694485  137.26699829    4.90999985    2.64000010
   14.56027794  136.57800293    4.90999985    2.64000010
   14.56333351  135.40800476    4.90999985    2.64000010
   14.56666660  135.00700378    4.90999985    2.64000010
   14.56777763  135.96299744    4.90999985    2.64000010
   14.57250023  135.96299744    4.90999985    2.64000010
   14.57666683  126.92900085    4.90999985    2.64000010
   14.57999992  132.41900635    4.90999985    2.64000010
   14.58333302  126.49700165    4.90999985    2.64000010
   14.58638859  132.14700317    4.90999985    2.64000010
   14.58972168  133.33500671    4.90999985    2.64000010
   14.59305477  134.11999512    4.90999985    2.64000010
   14.59611034  130.36099243    4.90999985    2.64000010
   14.59944439  128.60000610    4.90999985    2.64000010
   14.60111141  132.77999878    4.90999985    2.64000010
   14.60277843  130.61099243    4.90999985    2.64000010
   14.60611153  127.56199646    4.90999985    2.66000009
   14.60944462  127.22299957    4.90999985    2.64000010
   14.61555576  127.22299957    4.90999985    2.64000010
   14.61944485  136.45899963    4.90999985    2.64000010
   14.62277794  135.27600098    4.90999985    2.64000010
   14.62611103  138.16799927    4.90999985    2.64000010
   14.62916660  131.20799255    4.90999985    2.64000010
   14.63249969  131.43899536    4.90999985    2.64000010
   14.63444424  129.71899414    4.90999985    2.64000010
   14.63583279  138.07499695    4.90999985    2.64000010
   14.63916683  135.60400391    4.90999985    2.64000010
   14.64249992  133.05999756    4.90999985    2.64000010
   14.64555550  126.69200134    4.90999985    2.64000010
   14.64888859  126.16999817    4.90999985    2.64000010
   14.65222168  128.32400513    4.90999985    2.64000010
   14.65833282  128.32400513    4.90999985    2.64000010
   14.66249943  126.60399628    4.90999985    2.66000009
   14.76305580   -1.00000000   -1.00000000   -1.00000000
   14.90166664   -1.00000000   -1.00000000   -1.00000000
   15.02499962   -1.00000000   -1.00000000   -1.00000000
   15.09527779   81.79620361    4.90999985    2.66000009
   15.09861088  132.27600098    4.90999985    2.67000008
   15.10194492  133.49400330    4.90999985    2.66000009
   15.10500050  135.45100403    4.90999985    2.66000009
   15.10833359  132.32699585    4.90999985    2.67000008
   15.11166668  128.37500000    4.90999985    2.67000008
   15.11555576  128.37500000    4.90999985    2.67000008
   15.11972237  126.94999695    4.90999985    2.67000008
   15.12305546  127.51799774    4.90999985    2.67000008
   15.12611103  129.60200500    4.90999985    2.67000008
   15.12861156  127.48300171    4.90999985    2.67000008
   15.13000011  131.02299500    4.90999985    2.67000008
   15.13305569  131.66600037    4.90999985    2.66000009
   15.13638878  129.92500305    4.90999985    2.67000008
   15.13972187  129.37199402    4.90999985    2.66000009
   15.14277744  130.08299255    4.90999985    2.67000008
   15.14611053  120.10800171    4.90999985    2.66000009
   15.14916611  123.02400208    4.90999985    2.66000009
   15.15249920  126.19400024    4.90999985    2.69000006
   15.15861034  126.19400024    4.90999985    2.67000008
   15.16249943  128.42599487    4.90999985    2.67000008
   15.16583252  130.36199951    4.90999985    2.67000008
   15.16916656  124.23799896    4.90999985    2.66000009
   15.17222214  120.82900238    4.90999985    2.66000009
   15.17555618  123.65599823    4.90999985    2.66000009
   15.17861176  120.45099640    4.90999985    2.67000008
   15.18194485  122.22100067    4.90999985    2.66000009
   15.18527794  126.28099823    4.90999985    2.67000008
   15.18833351  130.75799561    4.90999985    2.67000008
   15.19166660  109.15899658    4.90999985    2.67000008
   15.19499969  131.03999329    4.90999985    2.67000008
   15.19527817  135.58000183    4.90999985    2.67000008
   15.20138836  135.58000183    4.90999985    2.67000008
   15.20555496  130.12100220    4.90999985    2.67000008
   15.20861053  123.97499847    4.90999985    2.67000008
   15.21194458  122.15100098    4.90999985    2.67000008
   15.21527767  127.09600067    4.90999985    2.67000008
   15.21833324  123.90000153    4.90999985    2.66000009
   15.22166634  128.44599915    4.90999985    2.67000008
   15.22472191  125.28600311    4.90999985    2.69000006
   15.22805500  125.00000000    4.90999985    2.69000006
   15.22861099  123.96099854    4.90999985    2.69000006
   15.23166656  125.30500031    4.90999985    2.67000008
   15.23500061  126.85800171    4.90999985    2.69000006
   15.23805618  126.89700317    4.90999985    2.67000008
   15.24416733  126.89700317    4.90999985    2.67000008
   15.24833393  121.82900238    4.90999985    2.67000008
   15.25166702  131.83900452    4.90999985    2.67000008
   15.25472260  123.05000305    4.90999985    2.67000008
   15.25805569  125.78099823    4.90999985    2.67000008
   15.26111126  130.45399475    4.90999985    2.67000008
   15.26194477  125.97000122    4.90999985    2.67000008
   15.26472187  127.08000183    4.90999985    2.67000008
   15.26805496  125.93000031    4.90999985    2.69000006
   15.27111053  127.10500336    4.90999985    2.67000008
   15.27444458  125.98000336    4.90999985    2.69000006
   15.27777767  128.38299561    4.90999985    2.69000006
   15.28083324  129.86799622    4.90999985    2.67000008
   15.28694534  129.86799622    4.90999985    2.67000008
   15.29111195  130.44200134    4.90999985    2.67000008
   15.29444504  130.47599792    4.90999985    2.67000008
   15.29527855  124.72899628    4.90999985    2.67000008
   15.29805565  120.38099670    4.90999985    2.67000008
   15.30138874  130.62699890    4.90999985    2.67000008
   15.30444431  125.58899689    4.90999985    2.69000006
   15.30777836  123.97799683    4.90999985    2.69000006
   15.31111145  124.61499786    4.90999985    2.67000008
   15.31416702  122.79399872    4.90999985    2.67000008
   15.31750011  116.49299622    4.90999985    2.67000008
   15.32055569  122.06700134    4.90999985    2.69000006
   15.32388878  123.97200012    4.90999985    2.67000008
   15.32999992  123.97200012    4.90999985    2.69000006
   15.33388901  123.61599731    4.90999985    2.67000008
   15.33722210  121.30999756    4.90999985    2.67000008
   15.34055519  121.94100189    4.90999985    2.69000006
   15.34361076  123.22499847    4.90999985    2.69000006
   15.34694386  122.02100372    4.90999985    2.69000006
   15.35027790  117.89199829    4.90999985    2.67000008
   15.35333347  128.61000061    4.90999985    2.67000008
   15.35666752  125.29399872    4.90999985    2.69000006
   15.35972214  124.38800049    4.90999985    2.67000008
   15.36194515  123.27999878    4.90999985    2.67000008
   15.36333370  130.33399963    4.90999985    2.67000008
   15.36666679  125.08200073    4.90999985    2.67000008
   15.37277794  125.08200073    4.90999985    2.67000008
   15.37694454  118.32800293    4.90999985    2.67000008
   15.38000011  137.01100159    4.90999985    2.67000008
   15.38333321  128.12600708    4.90999985    2.67000008
   15.38638878  123.82599640    4.90999985    2.67000008
   15.38972187  119.74199677    4.90999985    2.69000006
   15.39305496  123.49500275    4.90999985    2.67000008
   15.39527798  118.58699799    4.90999985    2.67000008
   15.39666653  118.02300262    4.90999985    2.67000008
   15.39999962  126.86000061    4.90999985    2.69000006
   15.40305519  127.10199738    4.90999985    2.69000006
   15.40638828  126.48000336    4.90999985    2.69000006
   15.40944386  120.70300293    4.90999985    2.69000006
   15.41555500  120.70300293    4.90999985    2.67000008
   15.41972256  119.91699982    4.90999985    2.69000006
   15.42277813  121.66699982    4.90999985    2.69000006
   15.42611122  118.12500000    4.90999985    2.67000008
   15.42861176  126.42500305    4.90999985    2.69000006
   15.42972279  125.68599701    4.90999985    2.69000006
   15.43305588  126.22399902    4.90999985    2.67000008
   15.43611145  120.50299835    4.90999985    2.69000006
   15.43944454  121.75800323    4.90999985    2.69000006
   15.44250011  115.83100128    4.90999985    2.69000006
   15.44583321  126.45700073    4.90999985    2.69000006
   15.44916630  123.47699738    4.90999985    2.69000006
   15.45222187  124.82399750    4.90999985    2.69000006
   15.45833302  124.82399750    4.90999985    2.69000006
   15.46249962  120.09100342    4.90999985    2.69000006
   15.46583271  127.00000000    4.90999985    2.67000008
   15.46888828  134.38900757    4.90999985    2.69000006
   15.47222137  131.44500732    4.90999985    2.69000006
   15.47555542  124.71600342    4.90999985    2.69000006
   15.47861099  128.57899475    4.90999985    2.69000006
   15.48194408  113.63999939    4.90999985    2.69000006
   15.48500061  126.17600250    4.90999985    2.69000006
   15.48833370  125.73500061    4.90999985    2.67000008
   15.49166679  123.33200073    4.90999985    2.69000006
   15.49472237  131.33000183    4.90999985    2.69000006
   15.49527836  128.04800415    4.90999985    2.69000006
   15.50111103  128.04800415    4.90999985    2.69000006
   15.50527763  126.19200134    4.90999985    2.69000006
   15.50861073  127.85199738    4.90999985    2.69000006
   15.51194477  125.95400238    4.90999985    2.69000006
   15.51500034  124.04900360    4.90999985    2.69000006
   15.51833344  131.27900696    4.90999985    2.69000006
   15.52166653  130.32499695    4.90999985    2.69000006
   15.52472210  119.20500183    4.90999985    2.69000006
   15.52805519  125.02600098    4.90999985    2.69000006
   15.52861118  125.38400269    4.90999985    2.69000006
   15.53166676  127.53299713    4.90999985    2.69000006
   15.53500080  122.76899719    4.90999985    2.69000006
   15.53805637  126.69699860    4.90999985    2.67000008
   15.54416752  126.69699860    4.90999985    2.69000006
   15.54833412  127.90499878    4.90999985    2.69000006
   15.55138874  133.91099548    4.90999985    2.69000006
   15.55472279  126.12999725    4.90999985    2.69000006
   15.55777836  128.10000610    4.90999985    2.69000006
   15.56111145  129.24699402    4.90999985    2.69000006
   15.56194496  126.34600067    4.90999985    2.69000006
   15.56472206  120.04599762    4.90999985    2.69000006
   15.56805515  122.12400055    4.90999985    2.69000006
   15.57111073  126.75900269    4.90999985    2.69000006
   15.57444477  125.87300110    4.90999985    2.69000006
   15.57777786  128.60099792    4.90999985    2.69000006
   15.58083344  128.63400269    4.90999985    2.69000006
   15.58694458  128.63400269    4.90999985    2.69000006
   15.59111118  128.44900513    4.90999985    2.69000006
   15.59416676  121.38700104    4.90999985    2.71000004
   15.59527779  122.19599915    4.90999985    2.69000006
   15.59777737  124.36000061    4.90999985    2.69000006
   15.60111141  130.04699707    4.90999985    2.71000004
   15.60416698  128.23599243    4.90999985    2.69000006
   15.60750008  125.13700104    4.90999985    2.69000006
   15.61083412  127.94699860    4.90999985    2.67000008
   15.61388969  122.40100098    4.90999985    2.69000006
   15.61722279  123.92700195    4.90999985    2.69000006
   15.62027836  124.30899811    4.90999985    2.69000006
   15.62361145  124.69100189    4.90999985    2.69000006
   15.62972260  124.69100189    4.90999985    2.67000008
   15.63388920  125.29599762    4.90999985    2.69000006
   15.63722229  118.64299774    4.90999985    2.69000006
   15.64027786  118.77700043    4.90999985    2.67000008
   15.64361095  120.74900055    4.90999985    2.67000008
   15.64694405  121.71900177    4.90999985    2.69000006
   15.64999962  123.27100372    4.90999985    2.69000006
   15.65333271  124.48200226    4.90999985    2.69000006
   15.65638828  125.28199768    4.90999985    2.69000006
   15.65972137  120.80300140    4.90999985    2.69000006
   15.66194439  120.20600128    4.90999985    2.69000006
   15.66333294  121.94699860    4.90999985    2.71000004
   15.66666698  127.17299652    4.90999985    2.71000004
   15.67250061  127.17299652    4.90999985    2.71000004
   15.67666721  124.21499634    4.90999985    2.69000006
   15.68000031  126.86100006    4.90999985    2.71000004
   15.68333340  122.57800293    4.90999985    2.69000006
   15.68638897  125.48600006    4.90999985    2.71000004
   15.68972206  127.50299835    4.90999985    2.69000006
   15.69305515  121.42400360    4.90999985    2.71000004
   15.69527817  123.93900299    4.90999985    2.69000006
   15.69666672  121.30200195    4.90999985    2.71000004
   15.69999981  121.69000244    4.90999985    2.71000004
   15.70305538  122.49099731    4.90999985    2.69000006
   15.70638847  120.77700043    4.90999985    2.71000004
   15.70972157  114.65000153    4.90999985    2.69000006
   15.71555519  114.65000153    4.90999985    2.71000004
   15.71972179  126.89499664    4.90999985    2.69000006
   15.72277737  118.88600159    4.90999985    2.69000006
   15.72611046  119.58399963    4.90999985    2.69000006
   15.72861099  120.30699921    4.90999985    2.71000004
   15.72972202  123.05000305    4.90999985    2.71000004
   15.73305511  121.57399750    4.90999985    2.69000006
   15.73611164  125.74099731    4.90999985    2.69000006
   15.73944473  126.64600372    4.90999985    2.71000004
   15.74277782  125.14700317    4.90999985    2.69000006
   15.74583340  122.75000000    4.90999985    2.71000004
   15.74916649  119.95999908    4.90999985    2.69000006
   15.75222206  124.38700104    4.90999985    2.69000006
   15.75833321  124.38700104    4.90999985    2.69000006
   15.76249981  122.84400177    4.90999985    2.71000004
   15.76555538  123.29699707    4.90999985    2.71000004
   15.76888847  118.56900024    4.90999985    2.71000004
   15.77222157  111.70800018    4.90999985    2.69000006
   15.77527714  122.45899963    4.90999985    2.69000006
   15.77861118  123.14299774    4.90999985    2.69000006
   15.78194427  122.45500183    4.90999985    2.69000006
   15.78500080  114.13099670    4.90999985    2.69000006
   15.78833389  117.32599640    4.90999985    2.69000006
   15.79138947  122.83100128    4.90999985    2.69000006
   15.79472256  123.50399780    4.90999985    2.71000004
   15.79555607  123.91799927    4.90999985    2.71000004
   15.80111122  123.91799927    4.90999985    2.71000004
   15.80527782  126.55200195    4.90999985    2.69000006
   15.80861092  120.51000214    4.90999985    2.69000006
   15.81166649  121.62999725    4.90999985    2.71000004
   15.81500053  124.38800049    4.90999985    2.69000006
   15.81833363  128.27900696    4.90999985    2.69000006
   15.82138920  121.62300110    4.90999985    2.69000006
   15.82472229  124.06800079    4.90999985    2.71000004
   15.82777786  125.70600128    4.90999985    2.69000006
   15.82888889  122.94000244    4.90999985    2.71000004
   15.83138847  123.38700104    4.90999985    2.71000004
   15.83472157  119.42199707    4.90999985    2.69000006
   15.83777714  122.67099762    4.90999985    2.69000006
   15.84388828  122.67099762    4.90999985    2.71000004
   15.84805489  107.00000000    4.90999985    2.71000004
   15.85138893  123.30000305    4.90999985    2.71000004
   15.85472298  123.43000031    4.90999985    2.69000006
   15.85777855  120.68800354    4.90999985    2.69000006
   15.86111164  126.88899994    4.90999985    2.71000004
   15.86222267  119.85600281    4.90999985    2.71000004
   15.86472225  127.41300201    4.90999985    2.71000004
   15.86805534  125.98400116    4.90999985    2.71000004
   15.87111092  120.28099823    4.90999985    2.71000004
   15.87444496  127.16999817    4.90999985    2.69000006
   15.87777805  119.99099731    4.90999985    2.71000004
   15.88083363  116.36299896    4.90999985    2.69000006
   15.88694477  116.36299896    4.90999985    2.69000006
   15.89111137  121.34400177    4.90999985    2.71000004
   15.89416695  123.67199707    4.90999985    2.69000006
   15.89555550  118.64299774    4.90999985    2.71000004
   15.89777756  123.24900055    4.90999985    2.71000004
   15.90111065  127.24600220    4.90999985    2.71000004
   15.90416622  126.28700256    4.90999985    2.69000006
   15.90749931  120.73600006    4.90999985    2.69000006
   15.91083336  127.27899933    4.90999985    2.71000004
   15.91388893  128.31799316    4.90999985    2.71000004
   15.91722298  118.75800323    4.90999985    2.71000004
   15.92055607  128.38600159    4.90999985    2.69000006
   15.92361164  122.21299744    4.90999985    2.71000004
   15.92972279  122.21299744    4.90999985    2.71000004
   15.93388939  123.73000336    4.90999985    2.71000004
   15.93694496  126.99400330    4.90999985    2.71000004
   15.94027805  118.77500153    4.90999985    2.71000004
   15.94361115  121.66799927    4.90999985    2.71000004
   15.94666672  127.52200317    4.90999985    2.71000004
   15.94999981  116.44799805    4.90999985    2.71000004
   15.95333290  122.44599915    4.90999985    2.71000004
   15.95638847  119.23300171    4.90999985    2.71000004
   15.95972157  126.81500244    4.90999985    2.71000004
   15.96222210  125.55999756    4.90999985    2.71000004
   15.96333313  120.88400269    4.90999985    2.71000004
   15.96666622  124.23000336    4.90999985    2.71000004
   15.97249985  124.23000336    4.90999985    2.71000004
   15.97666645  114.32900238    4.90999985    2.69000006
   15.97999954  121.06400299    4.90999985    2.71000004
   15.98305511  118.20999908    4.90999985    2.71000004
   15.98638916  121.94599915    4.90999985    2.71000004
   15.98972225  122.77500153    4.90999985    2.71000004
   15.99277782  120.09799957    4.90999985    2.71000004
   15.99555588  113.13999939    4.90999985    2.71000004
   15.99638939  110.47200012    4.90999985    2.71000004
   15.99972248  120.32399750    4.90999985    2.71000004
   16.00277710  115.36699677    4.90999985    2.69000006
   16.00611115  117.26899719    4.90999985    2.71000004
   16.00944519  121.30500031    4.90999985    2.71000004
   16.01527786  121.30500031    4.90999985    2.71000004
   16.01944351  121.12999725    4.90999985    2.71000004
   16.02277756  111.54000092    4.90999985    2.71000004
   16.02611160  116.02400208    4.90999985    2.71000004
   16.02888870  121.13200378    4.90999985    2.69000006
   16.02972221  114.03199768    4.90999985    2.71000004
   16.03305435  121.94000244    4.90999985    2.71000004
   16.03610992  114.57800293    4.90999985    2.71000004
   16.03944397  119.46800232    4.90999985    2.71000004
   16.04277802  123.08599854    4.90999985    2.71000004
   16.04583359  117.31400299    4.90999985    2.71000004
   16.04916573  123.40399933    4.90999985    2.71000004
   16.05249977  124.93099976    4.90999985    2.71000004
   16.05833244  124.93099976    4.90999985    2.71000004
   16.06250000  122.02300262    4.90999985    2.71000004
   16.06555557  112.98100281    4.90999985    2.71000004
   16.06888962  122.89600372    4.90999985    2.71000004
   16.07194519  123.12200165    4.90999985    2.71000004
   16.07527924  124.32399750    4.90999985    2.71000004
   16.07861137  122.31999969    4.90999985    2.71000004
   16.08166695  120.66300201    4.90999985    2.71000004
   16.08500099  118.07499695    4.90999985    2.71000004
   16.08833313  120.14099884    4.90999985    2.71000004
   16.09138870  119.21900177    4.90999985    2.71000004
   16.09472275  120.59100342    4.90999985    2.71000004
   16.09555626  117.99099731    4.90999985    2.69000006
   16.11611176  117.99099731    4.90999985    2.71000004
   16.12027740  115.63500214    4.90999985    2.71000004
   16.12361145  119.69899750    4.90999985    2.71000004
   16.12694550  117.77400208    4.90999985    2.71000004
   16.12888908  117.76999664    4.90999985    2.71000004
   16.13027763  120.54299927    4.90999985    2.71000004
   16.13361168  117.26799774    4.90999985    2.71000004
   16.13694382  118.80899811    4.90999985    2.71000004
   16.13999939  121.38800049    4.90999985    2.71000004
   16.14333344  119.72000122    4.90999985    2.71000004
   16.14666748  118.75399780    4.90999985    2.71000004
   16.14972115  124.77300262    4.90999985    2.71000004
   16.15305519  119.30599976    4.90999985    2.71000004
   16.15888786  119.30599976    4.90999985    2.71000004
   16.16305542  121.44400024    4.90999985    2.69000006
   16.16638756  123.00399780    4.90999985    2.71000004
   16.16944313  120.55899811    4.90999985    2.71000004
   16.17277718  119.09999847    4.90999985    2.71000004
   16.17611122  119.18000031    4.90999985    2.73000002
   16.17916679  116.93800354    4.90999985    2.69000006
   16.18249893  122.83200073    4.90999985    2.71000004
   16.18583298  118.53900146    4.90999985    2.73000002
   16.18888855  124.32599640    4.90999985    2.71000004
   16.19222069  125.40100098    4.90999985    2.73000002
   16.19527626  120.24099731    4.90999985    2.73000002
   16.19583321  121.26899719    4.90999985    2.73000002
   16.20194435  121.26899719    4.90999985    2.71000004
   16.20583344  123.03099823    4.90999985    2.71000004
   16.20916748  125.87000275    4.90999985    2.71000004
   16.21250153  125.10199738    4.90999985    2.73000002
   16.21555710  122.71499634    4.90999985    2.71000004
   16.21888924  121.18099976    4.90999985    2.71000004
   16.22222328  125.92199707    4.90999985    2.71000004
   16.22527885  123.79499817    4.90999985    2.71000004
   16.22861099  123.88600159    4.90999985    2.71000004
   16.22916794  122.16899872    4.90999985    2.71000004
   16.23222351  122.77500153    4.90999985    2.71000004
   16.23527718  127.27799988    4.90999985    2.71000004
   16.23861122  128.05799866    4.90999985    2.71000004
   16.24472237  128.05799866    4.90999985    2.71000004
   16.24888992  118.53299713    4.90999985    2.71000004
   16.25194359  121.23200226    4.90999985    2.71000004
   16.25527763  124.17700195    4.90999985    2.71000004
   16.25861168  125.02200317    4.90999985    2.71000004
   16.26166725  123.49500275    4.90999985    2.71000004
   16.26250076  125.96099854    4.90999985    2.71000004
   16.26527786  121.14600372    4.90999985    2.71000004
   16.26833344  120.38899994    4.90999985    2.71000004
   16.27166557  127.55500031    4.90999985    2.71000004
   16.27499962  122.96499634    4.90999985    2.71000004
   16.27805519  121.87999725    4.90999985    2.71000004
   16.28138924  124.07599640    4.90999985    2.71000004
   16.28750038  124.07599640    4.90999985    2.71000004
   16.29166603  126.54100037    4.90999985    2.71000004
   16.29500008  125.09300232    4.90999985    2.71000004
   16.29583359  125.68800354    4.90999985    2.71000004
   16.29861069  126.38300323    4.90999985    2.71000004
   16.30166626  120.79299927    4.90999985    2.71000004
   16.30499840  124.37599945    4.90999985    2.71000004
   16.30833244  119.47299957    4.90999985    2.71000004
   16.31138802  119.46199799    4.90999985    2.69000006
   16.31472206  124.69000244    4.90999985    2.71000004
   16.31777954  121.25199890    4.90999985    2.71000004
   16.32111168  121.26499939    4.90999985    2.71000004
   16.32444572  123.87400055    4.90999985    2.71000004
   16.33027840  123.87400055    4.90999985    2.71000004
   16.33444595  118.55899811    4.90999985    2.71000004
   16.33777809  119.87000275    4.90999985    2.71000004
   16.34083366  119.19200134    4.90999985    2.71000004
   16.34416771  125.64499664    4.90999985    2.71000004
   16.34749985  123.18399811    4.90999985    2.71000004
   16.35055542  120.65100098    4.90999985    2.71000004
   16.35388947  117.89900208    4.90999985    2.71000004
   16.35722351  124.22100067    4.90999985    2.71000004
   16.36027908  120.75499725    4.90999985    2.71000004
   16.36250114  123.88800049    4.90999985    2.71000004
   16.36388969  123.15499878    4.90999985    2.71000004
   16.36722183  126.66300201    4.90999985    2.71000004
   16.37333298  126.66300201    4.90999985    2.71000004
   16.37722206  124.10600281    4.90999985    2.71000004
   16.38055611  124.51399994    4.90999985    2.71000004
   16.38388824  119.61799622    4.90999985    2.71000004
   16.38694382  125.09500122    4.90999985    2.71000004
   16.39027786  117.63200378    4.90999985    2.73000002
   16.39361191  128.98199463    4.90999985    2.71000004
   16.39583397  118.57099915    4.90999985    2.71000004
   16.39722252  120.37799835    4.90999985    2.71000004
   16.40055466  120.58300018    4.90999985    2.71000004
   16.40361023  119.74099731    4.90999985    2.71000004
   16.40694427  112.03500366    4.90999985    2.71000004
   16.40999985  117.92800140    4.90999985    2.71000004
   16.41611099  117.92800140    4.90999985    2.71000004
   16.42027664  119.01699829    4.90999985    2.71000004
   16.42333221  118.20700073    4.90999985    2.73000002
   16.42666626  121.40100098    4.90999985    2.71000004
   16.42916679  122.83200073    4.90999985    2.71000004
   16.43027687  122.12400055    4.90999985    2.73000002
   16.43361092  123.35900116    4.90999985    2.73000002
   16.43666649  123.22699738    4.90999985    2.71000004
   16.43999863  117.81999969    4.90999985    2.71000004
   16.44305420  119.11299896    4.90999985    2.73000002
   16.44638824  122.52899933    4.90999985    2.71000004
   16.44972038  120.46600342    4.90999985    2.71000004
   16.45277786  121.37400055    4.90999985    2.71000004
   16.45888901  121.37400055    4.90999985    2.71000004
   16.46305656  115.50599670    4.90999985    2.71000004
   16.46638870  123.70700073    4.90999985    2.69000006
   16.46944427  123.78900146    4.90999985    2.71000004
   16.47277832  122.78700256    4.90999985    2.71000004
   16.47583389  122.99500275    4.90999985    2.71000004
   16.47916794  121.49800110    4.90999985    2.73000002
   16.48250008  125.64099884    4.90999985    2.73000002
   16.48555565  120.65299988    4.90999985    2.73000002
   16.48888969  125.19999695    4.90999985    2.71000004
   16.49222183  120.80400085    4.90999985    2.71000004
   16.49527740  120.94300079    4.90999985    2.71000004
   16.49583435  126.94799805    4.90999985    2.71000004
   16.50166702  126.94799805    4.90999985    2.71000004
   16.50583267  123.95400238    4.90999985    2.71000004
   16.50916672  124.12799835    4.90999985    2.73000002
   16.51222229  117.89199829    4.90999985    2.69000006
   16.51555634  123.52799988    4.90999985    2.71000004
   16.51888847  120.16100311    4.90999985    2.71000004
   16.52194405  117.12999725    4.90999985    2.73000002
   16.52527809  124.26100159    4.90999985    2.71000004
   16.52861023  120.33699799    4.90999985    2.71000004
   16.52916718  118.38999939    4.90999985    2.71000004
   16.53194427  122.56900024    4.90999985    2.73000002
   16.53527641  119.61199951    4.90999985    2.71000004
   16.53833199  123.88800049    4.90999985    2.71000004
   16.54472160  123.88800049    4.90999985    2.73000002
   16.54861069  121.38800049    4.90999985    2.71000004
   16.55194283  124.47899628    4.90999985    2.71000004
   16.55527687  123.77999878    4.90999985    2.71000004
   16.55833244  123.84500122    4.90999985    2.71000004
   16.56166649  123.37599945    4.90999985    2.71000004
   16.56250000  121.82599640    4.90999985    2.71000004
   16.56527710  127.25599670    4.90999985    2.71000004
   16.56861115  127.26699829    4.90999985    2.71000004
   16.57166672  122.45800018    4.90999985    2.73000002
   16.57500076  124.45400238    4.90999985    2.73000002
   16.57833481  124.33699799    4.90999985    2.71000004
   16.58139038  120.54499817    4.90999985    2.71000004
   16.58750153  120.54499817    4.90999985    2.73000002
   16.59166718  121.06400299    4.90999985    2.71000004
   16.59472275  124.14700317    4.90999985    2.71000004
   16.59583473  118.32299805    4.90999985    2.71000004
   16.59833336  120.24700165    4.90999985    2.71000004
   16.60166740  119.85299683    4.90999985    2.71000004
   16.60472298  122.10600281    4.90999985    2.73000002
   16.60805511  125.05500031    4.90999985    2.71000004
   16.61111069  119.68499756    4.90999985    2.71000004
   16.61444473  122.92099762    4.90999985    2.71000004
   16.61777878  123.95600128    4.90999985    2.71000004
   16.62083435  120.35299683    4.90999985    2.71000004
   16.62416649  121.34100342    4.90999985    2.71000004
   16.63027763  121.34100342    4.90999985    2.73000002
   16.63444519  127.28500366    4.90999985    2.71000004
   16.63777733  122.60900116    4.90999985    2.75000000
   16.64083290  122.40399933    4.90999985    2.71000004
   16.64416695  123.71199799    4.90999985    2.73000002
   16.64722252  122.12599945    4.90999985    2.71000004
   16.65055466  121.31800079    4.90999985    2.71000004
   16.65388870  128.34800720    4.90999985    2.71000004
   16.65694427  119.88800049    4.90999985    2.71000004
   16.66027832  123.45700073    4.90999985    2.73000002
   16.66250038  115.29399872    4.90999985    2.73000002
   16.66388893  128.90299988    4.90999985    2.73000002
   16.66722107  120.84600067    4.90999985    2.71000004
   16.67305565  120.84600067    4.90999985    2.71000004
   16.67722130  121.47399902    4.90999985    2.71000004
   16.68055534  124.00900269    4.90999985    2.71000004
   16.68361092  121.42800140    4.90999985    2.71000004
   16.68694305  122.58999634    4.90999985    2.71000004
   16.69027710  121.97599792    4.90999985    2.71000004
   16.69333267  118.98899841    4.90999985    2.73000002
   16.69583321  126.16000366    4.90999985    2.73000002
   16.69694328  119.73600006    4.90999985    2.71000004
   16.70027924  121.47100067    4.90999985    2.71000004
   16.70333481  121.88500214    4.90999985    2.71000004
   16.70666695  116.01399994    4.90999985    2.71000004
   16.71000099  121.01499939    4.90999985    2.71000004
   16.71611214  121.01499939    4.90999985    2.71000004
   16.72000122  123.64099884    4.90999985    2.73000002
   16.72333336  121.58300018    4.90999985    2.71000004
   16.72666740  123.45600128    4.90999985    2.71000004
   16.72916794  122.97100067    4.90999985    2.71000004
   16.73027802  125.63200378    4.90999985    2.71000004
   16.73361206  121.30999756    4.90999985    2.71000004
   16.73666763  122.52500153    4.90999985    2.73000002
   16.73999977  127.14900208    4.90999985    2.73000002
   16.74333382  123.92900085    4.90999985    2.71000004
   16.74666786  126.34999847    4.90999985    2.71000004
   16.75000000  130.27799988    4.90999985    2.71000004
   16.75333405  125.67500305    4.90999985    2.71000004
   16.75888824  125.67500305    4.90999985    2.71000004
   16.76305580  121.16000366    4.90999985    2.71000004
   16.76611137  119.35500336    4.90999985    2.71000004
   16.76944351  122.68000031    4.90999985    2.71000004
   16.77277756  120.29000092    4.90999985    2.71000004
   16.77583313  126.38600159    4.90999985    2.71000004
   16.77916718  120.64299774    4.90999985    2.71000004
   16.78249931  122.83799744    4.90999985    2.71000004
   16.78555489  120.55400085    4.90999985    2.71000004
   16.78888893  117.88899994    4.90999985    2.69000006
   16.79194450  124.87699890    4.90999985    2.71000004
   16.79527664  121.71800232    4.90999985    2.71000004
   16.79583359  125.74800110    4.90999985    2.71000004
   16.80166626  125.74800110    4.90999985    2.64000010
   16.80583191  126.69100189    4.90999985    2.71000004
   16.80916595  119.78099823    4.90999985    2.71000004
   16.81222153  123.54299927    4.90999985    2.71000004
   16.81555557  122.03700256    4.90999985    2.71000004
   16.81861115  123.11100006    4.90999985    2.71000004
   16.82194519  123.29599762    4.90999985    2.71000004
   16.82527924  126.30300140    4.90999985    2.71000004
   16.82833481  120.97499847    4.90999985    2.71000004
   16.82916832  118.12400055    4.90999985    2.71000004
   16.83194542  125.87500000    4.90999985    2.73000002
   16.83527756  123.18399811    4.90999985    2.71000004
   16.83833313  121.35800171    4.90999985    2.71000004
   16.84444427  121.35800171    4.90999985    2.73000002
   16.84861183  121.43099976    4.90999985    2.71000004
   16.85194397  122.86000061    4.90999985    2.71000004
   16.85499954  124.67199707    4.90999985    2.71000004
   16.85833359  125.08100128    4.90999985    2.73000002
   16.86166763  124.17500305    4.90999985    2.71000004
   16.86250114  122.61499786    4.90999985    2.71000004
   16.86499977  126.56400299    4.90999985    2.71000004
   16.86833382  121.77799988    4.90999985    2.71000004
   16.87138939  124.34100342    4.90999985    2.71000004
   16.87472153  123.01799774    4.90999985    2.71000004
   16.87805557  122.76799774    4.90999985    2.71000004
   16.88111115  122.07099915    4.90999985    2.71000004
   16.88750076  122.07099915    4.90999985    2.71000004
   16.89138794  124.37300110    4.90999985    2.71000004
   16.89472198  123.59100342    4.90999985    2.71000004
   16.89611053  126.10800171    4.90999985    2.71000004
   16.89833260  130.67900085    4.90999985    2.71000004
   16.90166664  125.25599670    4.90999985    2.71000004
   16.90472221  117.68199921    4.90999985    2.71000004
   16.90805435  122.96199799    4.90999985    2.71000004
   16.91138840  124.91999817    4.90999985    2.71000004
   16.91444397  125.70500183    4.90999985    2.71000004
   16.91777802  123.30799866    4.90999985    2.71000004
   16.92111015  126.61599731    4.90999985    2.71000004
   16.92416573  128.97200012    4.90999985    2.71000004
   16.93027687  128.97200012    4.90999985    2.71000004
   16.93444443  118.72299957    4.90999985    2.71000004
   16.93750000  126.47599792    4.90999985    2.71000004
   16.94083214  122.58399963    4.90999985    2.71000004
   16.94416618  128.73800659    4.90999985    2.71000004
   16.94722176  125.20099640    4.90999985    2.71000004
   16.95055580  128.61599731    4.90999985    2.71000004
   16.95388985  122.34700012    4.90999985    2.71000004
   16.95694542  123.47599792    4.90999985    2.71000004
   16.96027946  123.86699677    4.90999985    2.71000004
   16.96277809  129.69400024    4.90999985    2.71000004
   16.96389008  130.69000244    4.90999985    2.71000004
   16.96722221  135.65400696    4.90999985    2.71000004
   16.97305679  135.65400696    4.90999985    2.71000004
   16.97722244  126.15100098    4.90999985    2.71000004
   16.98055649  128.83599854    4.90999985    2.71000004
   16.98361206  124.47100067    0.09000000    0.79000002
   16.98694420  128.25000000    0.05000000    0.25999999
   16.98999977  129.29499817    0.05000000    0.25999999
   16.99333382  121.63500214    0.05000000    0.25999999
   16.99611092  124.09999847    0.05000000    0.25999999
   16.99694443  125.81500244    0.05000000    0.25999999
   17.00027847  124.28199768    0.05000000    0.25999999
   17.00333405  131.03100586    0.05000000    0.25999999
   17.00666618  123.66600037    0.05000000    0.25999999
   17.01000023  121.88500214    0.05000000    0.25999999
   17.01583290  121.88500214    0.05000000    0.25999999
   17.02000046  125.47899628    0.05000000    0.25999999
   17.02333260  126.97599792    0.05000000    0.25999999
   17.02638817  127.82900238    0.05000000    0.25999999
   17.02944374  126.24600220    0.05000000    0.25999999
   17.03000069  128.32400513    0.05000000    0.25999999
   17.03333282  125.52899933    0.05000000    0.25999999
   17.03638840  126.73200226    0.05000000    0.25999999
   17.03972244  127.99500275    0.05000000    0.25999999
   17.04305458  124.45500183    0.05000000    0.25999999
   17.04611015  129.47200012    0.05000000    0.25999999
   17.04944420  128.06300354    0.05000000    0.25999999
   17.05277634  133.77600098    0.05000000    0.25999999
   17.05888748  133.77600098    0.05000000    0.25999999
   17.06277657  127.57399750    0.05000000    0.25999999
   17.06611061  125.82800293    0.05000000    0.25999999
   17.06944466  127.34600067    0.05000000    0.25999999
   17.07250023  132.63000488    0.05000000    0.25999999
   17.07583427  124.61399841    0.05000000    0.25999999
   17.07916832  124.51100159    0.05000000    0.25999999
   17.08222389  124.70899963    0.05000000    0.25999999
   17.08555603  136.10499573    0.05000000    0.25999999
   17.08861160  126.94899750    0.05000000    0.25999999
   17.09194565  126.88099670    0.05000000    0.25999999
   17.09527779  127.95899963    0.05000000    0.25999999
   17.09611130  124.96399689    0.05000000    0.25999999
   17.10166740  124.96399689    0.05000000    0.25999999
   17.10583305  129.00199890    0.05000000    0.25999999
   17.10888863  130.82099915    0.05000000    0.25999999
   17.11222267  131.50000000    0.05000000    0.25999999
   17.12972260  132.89399719    0.05000000    0.25999999
   17.13222313  129.38800049    0.05000000    0.25999999
   17.13527679  120.80899811    0.05000000    0.25999999
   17.13861084  130.67999268    0.05000000    0.25999999
   17.14472198  130.67999268    0.05000000    0.25999999
   17.14861107  124.36100006    0.05000000    0.25999999
   17.15194321  126.48000336    0.05000000    0.25999999
   17.15527725  124.98799896    0.05000000    0.25999999
   17.15833282  126.39399719    0.05000000    0.25999999
   17.16166687  128.58299255    0.05000000    0.25999999
   17.16305542  127.83399963    0.05000000    0.25999999
   17.16527748  125.99299622    0.05000000    0.25999999
   17.16833305  123.71399689    0.05000000    0.25999999
   17.17166519  129.99499512    0.05000000    0.25999999
   17.17472076  125.68299866    0.05000000    0.25999999
   17.17805481  127.11000061    0.05000000    0.25999999
   17.18138885   96.65390015    0.05000000    0.25999999
   17.18750000   96.65390015    0.05000000    0.25999999
   17.19166565  125.91100311    0.05000000    0.25999999
   17.19472122  124.11799622    0.05000000    0.25999999
   17.19638824  129.77699280    0.05000000    0.25999999
   17.19861031  126.08200073    0.05000000    0.25999999
   17.20166779  126.23200226    0.05000000    0.25999999
   17.20499992  122.56500244    0.05000000    0.25999999
   17.20805550  121.69400024    0.05000000    0.25999999
   17.21138954  127.15899658    0.05000000    0.25999999
   17.21472359  129.15400696    0.05000000    0.25999999
   17.21777916  128.92500305    0.05000000    0.25999999
   17.22111130  121.78299713    0.05000000    0.25999999
   17.22444534  124.56199646    0.05000000    0.25999999
   17.23027802  124.56199646    0.05000000    0.25999999
   17.23444557  128.50999451    0.05000000    0.25999999
   17.23777771  126.16600037    0.05000000    0.25999999
   17.24083328  130.27299500    0.05000000    0.25999999
   17.24416733  124.81199646    0.05000000    0.25999999
   17.24722290  126.07199860    0.05000000    0.25999999
   17.25055504  126.73500061    0.05000000    0.25999999
   17.25388908  124.63400269    0.05000000    0.25999999
   17.25694466  123.72499847    0.05000000    0.25999999
   17.26027870  125.65599823    0.05000000    0.25999999
   17.26305580  125.46299744    0.05000000    0.25999999
   17.26388931  122.08100128    0.05000000    0.25999999
   17.26694489  130.21899414    0.05000000    0.25999999
   17.27305603  130.21899414    0.05000000    0.25999999
   17.27722168  125.69799805    0.05000000    0.25999999
   17.28055573  127.43000031    0.05000000    0.25999999
   17.28361130  117.75700378    0.05000000    0.25999999
   17.28694344  125.66600037    0.05000000    0.25999999
   17.29027748  126.22200012    0.05000000    0.25999999
   17.29333305  127.89900208    0.05000000    0.25999999
   17.29638863  127.66699982    0.05000000    0.25999999
   17.29722214  132.35400391    0.05000000    0.25999999
   17.30027771  130.58900452    0.05000000    0.25999999
   17.30360985  125.37100220    0.05000000    0.25999999
   17.30666542  125.65000153    0.05000000    0.25999999
   17.30999947  127.71399689    0.05000000    0.25999999
   17.31611061  127.71399689    0.05000000    0.25999999
   17.32000160  126.10700226    0.05000000    0.25999999
   17.32333374  130.05400085    0.05000000    0.25999999
   17.32666779  127.43199921    0.05000000    0.25999999
   17.32972336  130.80299377    0.05000000    0.25999999
   17.33027840  126.63400269    0.05000000    0.25999999
   17.33333397  128.15499878    0.05000000    0.25999999
   17.33666801  123.95600128    0.05000000    0.25999999
   17.33972359  124.66200256    0.05000000    0.25999999
   17.34305573  127.33599854    0.05000000    0.25999999
   17.34638977  129.34100342    0.05000000    0.25999999
   17.34944534  128.12899780    0.05000000    0.25999999
   17.35277748  128.02099609    0.05000000    0.25999999
   17.35888863  128.02099609    0.05000000    0.25999999
   17.36305618  123.91999817    0.05000000    0.25999999
   17.36333466  126.55899811    0.05000000    0.25999999
   17.36666679  128.02200317    0.05000000    0.25999999
   17.37000084  128.02900696    0.05000000    0.25999999
   17.37305641  129.15800476    0.05000000    0.25999999
   17.37638855  125.89700317    0.05000000    0.25999999
   17.37972260  134.84100342    0.05000000    0.25999999
   17.38277817  119.18900299    0.05000000    0.25999999
   17.38611031  127.05200195    0.05000000    0.25999999
   17.38944435  124.05799866    0.05000000    0.25999999
   17.39249992  122.57099915    0.05000000    0.25999999
   17.39583397  129.16499329    0.05000000    0.25999999
   17.39666748  125.02899933    0.05000000    0.25999999
   17.40166664  125.02899933    0.05000000    0.25999999
   17.40583229  129.32899475    0.05000000    0.25999999
   17.40916634  130.19299316    0.05000000    0.25999999
   17.41222191  129.11999512    0.05000000    0.25999999
   17.41555595  128.01499939    0.05000000    0.25999999
   17.41860962  122.98300171    0.05000000    0.25999999
   17.42194366  130.11199951    0.05000000    0.25999999
   17.42527771  128.31399536    0.05000000    0.25999999
   17.42833328  126.55000305    0.05000000    0.25999999
   17.43000031  126.37400055    0.05000000    0.25999999
   17.43194389  123.01000214    0.05000000    0.25999999
   17.43527603  124.93599701    0.05000000    0.25999999
   17.43833160  127.21299744    0.05000000    0.25999999
   17.44444275  127.21299744    0.05000000    0.25999999
   17.44861031  126.97399902    0.05000000    0.25999999
   17.45194435  131.30299377    0.05000000    0.25999999
   17.45499992  125.67400360    0.05000000    0.25999999
   17.45833397  128.13900757    0.05000000    0.25999999
   17.46166801  133.77200317    0.05000000    0.25999999
   17.46333504  125.63099670    0.05000000    0.25999999
   17.46527863  134.03799438    0.05000000    0.25999999
   17.46861076  128.87800598    0.05000000    0.25999999
   17.47166634  120.12100220    0.05000000    0.25999999
   17.47500038  127.04799652    0.05000000    0.25999999
   17.47833443  126.83300018    0.05000000    0.25999999
   17.48139000  127.58899689    0.05000000    0.25999999
   17.48750114  127.58899689    0.05000000    0.25999999
   17.49138832  133.14500427    0.05000000    0.25999999
   17.49472237  132.16999817    0.05000000    0.25999999
   17.49694443  133.66499329    0.05000000    0.25999999
   17.49833298  128.83200073    0.05000000    0.25999999
   17.50166702  129.46000671    0.05000000    0.25999999
   17.50472260  124.22299957    0.05000000    0.25999999
   17.50805473  126.57599640    0.05000000    0.25999999
   17.51138878  125.33399963    0.05000000    0.25999999
   17.51444435  127.66200256    0.05000000    0.25999999
   17.51777840  129.97999573    0.05000000    0.25999999
   17.52111053  121.50099945    0.05000000    0.25999999
   17.52416611  129.73300171    0.05000000    0.25999999
   17.53027725  129.73300171    0.05000000    0.25999999
   17.53444481  122.42900085    0.05000000    0.25999999
   17.53750038  131.08999634    0.05000000    0.25999999
   17.54083252  127.32700348    0.05000000    0.25999999
   17.54416656  132.38499451    0.05000000    0.25999999
   17.54722214  126.44300079    0.05000000    0.25999999
   17.55055428  131.35000610    0.05000000    0.25999999
   17.55388832  128.92999268    0.05000000    0.25999999
   17.55694389  132.55499268    0.05000000    0.25999999
   17.56027794  126.47899628    0.05000000    0.25999999
   17.56361008  128.29600525    0.05000000    0.25999999
   17.56388855  127.40699768    0.05000000    0.25999999
   17.56722260  128.96099854    0.05000000    0.25999999
   17.57305717  128.96099854    0.05000000    0.25999999
   17.57722282  131.45799255    0.05000000    0.25999999
   17.58055687  125.61399841    0.05000000    0.25999999
   17.58361244  133.66700745    0.05000000    0.25999999
   17.58694458  129.48899841    0.05000000    0.25999999
   17.59000015  133.63400269    0.05000000    0.25999999
   17.59333420  131.76199341    0.05000000    0.25999999
   17.59666824  133.37199402    0.05000000    0.25999999
   17.59694481  120.08699799    0.05000000    0.25999999
   17.60027885  124.65599823    0.05000000    0.25999999
   17.60361099  123.99900055    0.05000000    0.25999999
   17.60666656  128.35000610    0.05000000    0.25999999
   17.61000061  131.88900757    0.05000000    0.25999999
   17.61583328  131.88900757    0.05000000    0.25999999
   17.62000084  127.82199860    0.05000000    0.25999999
   17.62333298  134.25500488    0.05000000    0.25999999
   17.62638855  131.68099976    0.05000000    0.25999999
   17.62972260  131.93099976    0.05000000    0.25999999
   17.63027763  134.21600342    0.05000000    0.25999999
   17.63333321  128.73399353    0.05000000    0.25999999
   17.63666725  129.46699524    0.05000000    0.25999999
   17.63999939  135.81799316    0.05000000    0.25999999
   17.64305496  131.45799255    0.05000000    0.25999999
   17.64638901  126.84899902    0.05000000    0.25999999
   17.64944458  126.16300201    0.05000000    0.25999999
   17.65277672  133.37100220    0.05000000    0.25999999
   17.65916634  133.37100220    0.05000000    0.25999999
   17.66333389  125.48300171    0.05000000    0.25999999
   17.66416550  128.60099792    0.05000000    0.25999999
   17.66722107  134.48899841    0.05000000    0.25999999
   17.67027664  128.45199585    0.05000000    0.25999999
   17.67361069  135.11700439    0.05000000    0.25999999
   17.67694473  126.27100372    0.05000000    0.25999999
   17.68000031  135.62300110    0.05000000    0.25999999
   17.68333244  135.83399963    0.05000000    0.25999999
   17.68666649  131.84800720    0.05000000    0.25999999
   17.68972206  134.93499756    0.05000000    0.25999999
   17.69305420  133.20199585    0.05000000    0.25999999
   17.69638824  132.42500305    0.05000000    0.25999999
   17.69749832  129.55200195    0.05000000    0.25999999
   17.70222282  129.55200195    0.05000000    0.25999999
   17.70611191  134.65199280    0.05000000    0.25999999
   17.70944595  127.06800079    0.05000000    0.25999999
   17.71277809  125.45200348    0.05000000    0.25999999
   17.71583366  123.89900208    0.05000000    0.25999999
   17.71916771  127.91600037    0.05000000    0.25999999
   17.72249985  124.05500031    0.05000000    0.25999999
   17.72583389  128.97500610    0.05000000    0.25999999
   17.72888947  124.98400116    0.05000000    0.25999999
   17.73055649  127.67900085    0.05000000    0.25999999
   17.73250008  127.13899994    0.05000000    0.25999999
   17.73583412  127.91200256    0.05000000    0.25999999
   17.73916626  126.73500061    0.05000000    0.25999999
   17.74472237  126.73500061    0.05000000    0.25999999
   17.74888992  125.73100281    0.05000000    0.25999999
   17.75194359  124.85199738    0.05000000    0.25999999
   17.75527763  127.73100281    0.05000000    0.25999999
   17.75833321  126.10199738    0.05000000    0.25999999
   17.76166725  128.64399719    0.05000000    0.25999999
   17.76388931  125.31600189    0.05000000    0.25999999
   17.76527786  125.09400177    0.05000000    0.25999999
   17.76833344  130.79299927    0.05000000    0.25999999
   17.77166557  127.46900177    0.05000000    0.25999999
   17.77472115  130.67300415    0.05000000    0.25999999
   17.77805519  126.59899902    0.05000000    0.25999999
   17.78138924  125.97000122    0.05000000    0.25999999
   17.78750038  125.97000122    0.05000000    0.25999999
   17.79166603  125.67299652    0.05000000    0.25999999
   17.79472160  125.75000000    0.05000000    0.25999999
   17.79722214  128.75599670    0.05000000    0.25999999
   17.79861069  127.19499969    0.05000000    0.25999999
   17.80166626  134.52699280    0.05000000    0.25999999
   17.80527687  131.04800415    0.05000000    0.25999999
   17.80861092  123.59700012    0.05000000    0.25999999
   17.81166649  131.42399597    0.05000000    0.25999999
   17.81499863  128.36799622    0.05000000    0.25999999
   17.81805611  127.28600311    0.05000000    0.25999999
   17.82139015  121.82499695    0.05000000    0.25999999
   17.82472229  130.00100708    0.05000000    0.25999999
   17.83027840  130.00100708    0.05000000    0.25999999
   17.83444595  127.68299866    0.05000000    0.25999999
   17.83777809  129.26400757    0.05000000    0.25999999
   17.84083366  126.68699646    0.05000000    0.25999999
   17.84416771  128.93899536    0.05000000    0.25999999
   17.84749985  126.96800232    0.05000000    0.25999999
   17.85055542  129.27299500    0.05000000    0.25999999
   17.85388947  124.79399872    0.05000000    0.25999999
   17.85694504  124.78399658    0.05000000    0.25999999
   17.86027908  129.90400696    0.05000000    0.25999999
   17.86361122  131.01300049    0.05000000    0.25999999
   17.86555672  117.77200317    0.05000000    0.25999999
   17.86750031  129.74299622    0.05000000    0.25999999
   17.87305641  129.74299622    0.05000000    0.25999999
   17.87722206  129.08799744    0.05000000    0.25999999
   17.88055611  125.10500336    0.05000000    0.25999999
   17.88388824  127.78700256    0.05000000    0.25999999
   17.88694382  125.72000122    0.05000000    0.25999999
   17.89027786  129.36000061    0.05000000    0.25999999
   17.89333344  129.92799377    0.05000000    0.25999999
   17.89666748  128.88699341    0.05000000    0.25999999
   17.89861107  125.84100342    0.05000000    0.25999999
   17.90027809  130.15299988    0.05000000    0.25999999
   17.90333366  127.75900269    0.05000000    0.25999999
   17.90666580  132.30999756    0.05000000    0.25999999
   17.90999985  127.44000244    0.05000000    0.25999999
   17.91611099  127.44000244    0.05000000    0.25999999
   17.92027664  126.61699677    0.05000000    0.25999999
   17.92333221  121.10299683    0.05000000    0.25999999
   17.92666626  123.07199860    0.05000000    0.25999999
   17.92972183  126.51000214    0.05000000    0.25999999
   17.93222237  123.43099976    0.05000000    0.25999999
   17.93361092  125.98999786    0.05000000    0.25999999
   17.93666649  123.19499969    0.05000000    0.25999999
   17.93999863  126.86199951    0.05000000    0.25999999
   17.94305420  123.25000000    0.05000000    0.25999999
   17.94638824  129.64900208    0.05000000    0.25999999
   17.94972038  120.33999634    0.05000000    0.25999999
   17.95277786  120.65000153    0.05000000    0.25999999
   17.95888901  120.65000153    0.05000000    0.25999999
   17.96305656  123.91200256    0.05000000    0.25999999
   17.96555710  123.43000031    0.05000000    0.25999999
   17.96666718  128.06500244    0.05000000    0.25999999
   17.96972275  124.28500366    0.05000000    0.25999999
   17.97305679  126.64299774    0.05000000    0.25999999
   17.97611237  124.15000153    0.05000000    0.25999999
   17.97944450  130.98599243    0.05000000    0.25999999
   17.98277855  124.51899719    0.05000000    0.25999999
   17.98583412  123.02600098    0.05000000    0.25999999
   17.98916626  123.57700348    0.05000000    0.25999999
   17.99250031  121.87000275    0.05000000    0.25999999
   17.99555588  123.52500153    0.05000000    0.25999999
   18.00166702  123.52500153    0.05000000    0.25999999
   18.00583267  127.26100159    0.05000000    0.25999999
   18.00944519  115.09999847    0.05000000    0.25999999
   18.01250076  132.95300293    0.05000000    0.25999999
   18.01583290  129.94500732    0.05000000    0.25999999
   18.01916695  129.44900513    0.05000000    0.25999999
   18.02222252  121.76999664    0.05000000    0.25999999
   18.02555466  129.37199402    0.05000000    0.25999999
   18.02888870  128.03300476    0.05000000    0.25999999
   18.03194427  123.31099701    0.05000000    0.25999999
   18.03249931  125.94799805    0.05000000    0.25999999
   18.03555489  124.86299896    0.05000000    0.25999999
   18.03888893  127.80100250    0.05000000    0.25999999
   18.04444313  127.80100250    0.05000000    0.25999999
   18.04861069  125.52200317    0.05000000    0.25999999
   18.05194283  127.26100159    0.05000000    0.25999999
   18.05527687  127.08399963    0.05000000    0.25999999
   18.05833244  130.39999390    0.05000000    0.25999999
   18.06166649  126.43699646    0.05000000    0.25999999
   18.06499863  137.64500427    0.05000000    0.25999999
   18.06583214  122.18099976    0.05000000    0.25999999
   18.06833458  125.55999756    0.05000000    0.25999999
   18.07166672  126.49299622    0.05000000    0.25999999
   18.07472229  127.82800293    0.05000000    0.25999999
   18.07805634  127.36799622    0.05000000    0.25999999
   18.08139038  119.10800171    0.05000000    0.25999999
   18.08750153  119.10800171    0.05000000    0.25999999
   18.09166718  131.77400208    0.05000000    0.25999999
   18.09472275  125.48000336    0.05000000    0.25999999
   18.09805679  128.00100708    0.05000000    0.25999999
   18.09944534  141.53100586    0.05000000    0.25999999
   18.10166740  134.49600220    0.05000000    0.25999999
   18.10499954  138.84399414    0.05000000    0.25999999
   18.10805511  129.33399963    0.05000000    0.25999999
   18.11138916  126.38300323    0.05000000    0.25999999
   18.11444473  125.16200256    0.05000000    0.25999999
   18.11777878  134.63900757    0.05000000    0.25999999
   18.12111092  137.19000244    0.05000000    0.25999999
   18.12416649  135.19999695    0.05000000    0.25999999
   18.14694405  134.81199646    0.05000000    0.25999999
   18.14722252  129.35800171    0.05000000    0.25999999
   18.14777756  138.17799377    0.05000000    0.25999999
   18.15111160  133.30200195    0.05000000    0.25999999
   18.15416718  128.13699341    0.05000000    0.25999999
   18.15749931  132.11500549    0.05000000    0.25999999
   18.16055489  127.28800201    0.05000000    0.25999999
   18.16388893  120.34600067    0.05000000    0.25999999
   18.16722107  128.41099548    0.05000000    0.25999999
   18.17305565  128.41099548    0.05000000    0.25999999
   18.17722130  128.40199280    0.05000000    0.25999999
   18.18055534  128.84800720    0.05000000    0.25999999
   18.18111038  119.23699951    0.05000000    0.25999999
   18.18416595  124.00199890    0.05000000    0.25999999
   18.18722153  121.31800079    0.05000000    0.25999999
   18.19055557  123.75000000    0.05000000    0.25999999
   18.19361115  125.97000122    0.05000000    0.25999999
   18.19694328  122.68800354    0.05000000    0.25999999
   18.20027924  130.28399658    0.05000000    0.25999999
   18.20333481  132.24000549    0.05000000    0.25999999
   18.20666695  133.26800537    0.05000000    0.25999999
   18.21000099  128.81700134    0.05000000    0.25999999
   18.21611214  128.81700134    0.05000000    0.25999999
   18.22000122  122.73300171    0.05000000    0.25999999
   18.22333336  128.93800354    0.05000000    0.25999999
   18.22666740  121.47200012    0.05000000    0.25999999
   18.22972298  122.90799713    0.05000000    0.25999999
   18.23305511  125.03800201    0.05000000    0.25999999
   18.23638916  123.98600006    0.05000000    0.25999999
   18.23944473  122.47699738    0.05000000    0.25999999
   18.24277878  125.21800232    0.05000000    0.25999999
   18.24611092  121.13899994    0.05000000    0.25999999
   18.24777794  130.06700134    0.05000000    0.25999999
   18.24972153  120.52999878    0.05000000    0.25999999
   18.25277710  127.16500092    0.05000000    0.25999999
   18.25888824  127.16500092    0.05000000    0.25999999
   18.26305580  118.38899994    0.05000000    0.25999999
   18.26611137  125.69799805    0.05000000    0.25999999
   18.26944351  128.52200317    0.05000000    0.25999999
   18.27277756  121.64199829    0.05000000    0.25999999
   18.27583313  128.55999756    0.05000000    0.25999999
   18.27916718  129.46299744    0.05000000    0.25999999
   18.28111076  126.87799835    0.05000000    0.25999999
   18.28277779  130.58399963    0.05000000    0.25999999
   18.28583336  119.03900146    0.05000000    0.25999999
   18.28916550  122.85700226    0.05000000    0.25999999
   18.29222107  122.76100159    0.05000000    0.25999999
   18.29555511  125.44200134    0.05000000    0.25999999
   18.30166626  125.44200134    0.05000000    0.25999999
   18.30583191  124.57700348    0.05000000    0.25999999
   18.30916595  123.95400238    0.05000000    0.25999999
   18.31222153  126.97299957    0.05000000    0.25999999
   18.31444359  128.51800537    0.05000000    0.25999999
   18.31583214  122.62000275    0.05000000    0.25999999
   18.31888962  126.72000122    0.05000000    0.25999999
   18.32222366  125.90499878    0.05000000    0.25999999
   18.32527924  125.68699646    0.05000000    0.25999999
   18.32861137  126.68399811    0.05000000    0.25999999
   18.33194542  127.01499939    0.05000000    0.25999999
   18.33500099  128.99600220    0.05000000    0.25999999
   18.33833313  127.48999786    0.05000000    0.25999999
   18.34444427  127.48999786    0.05000000    0.25999999
   18.34861183  133.74400330    0.05000000    0.25999999
   18.35194397  124.58000183    0.05000000    0.25999999
   18.35499954  127.32199860    0.05000000    0.25999999
   18.35833359  137.55400085    0.05000000    0.25999999
   18.36166763  136.24600220    0.05000000    0.25999999
   18.36472321  133.47000122    0.05000000    0.25999999
   18.36805534  121.70500183    0.05000000    0.25999999
   18.37138939  119.50299835    0.05000000    0.25999999
   18.37444496  136.50000000    0.05000000    0.25999999
   18.37777710  127.34200287    0.05000000    0.25999999
   18.38083267  130.31399536    0.05000000    0.25999999
   18.38138962  129.98599243    0.05000000    0.25999999
   18.38750076  129.98599243    0.05000000    0.25999999
   18.39138794  118.68399811    0.05000000    0.25999999
   18.39472198  120.70099640    0.05000000    0.25999999
   18.39805603  118.98100281    0.05000000    0.25999999
   18.40111160  124.82499695    0.05000000    0.25999999
   18.40444374  127.56300354    0.05000000    0.25999999
   18.40777779  128.95399475    0.05000000    0.25999999
   18.41083336  130.97099304    0.05000000    0.25999999
   18.41416550  120.98400116    0.05000000    0.25999999
   18.41499901  123.59700012    0.05000000    0.25999999
   18.41805458  125.85199738    0.05000000    0.25999999
   18.42111015  128.80999756    0.05000000    0.25999999
   18.42444420  120.21499634    0.05000000    0.25999999
   18.43027687  120.21499634    0.05000000    0.25999999
   18.43444443  120.00499725    0.05000000    0.25999999
   18.43750000  123.99500275    0.05000000    0.25999999
   18.44083214  122.18699646    0.05000000    0.25999999
   18.44416618  120.15799713    0.05000000    0.25999999
   18.44722176  122.82399750    0.05000000    0.25999999
   18.44805527  121.18099976    0.05000000    0.25999999
   18.45083427  120.49900055    0.05000000    0.25999999
   18.45416832  123.66400146    0.05000000    0.25999999
   18.45722389  121.11900330    0.05000000    0.25999999
   18.46055603  119.17400360    0.05000000    0.25999999
   18.46361160  119.72699738    0.05000000    0.25999999
   18.46694565  117.86199951    0.05000000    0.25999999
   18.47305679  117.86199951    0.05000000    0.25999999
   18.47722244  115.29000092    0.05000000    0.25999999
   18.48055649  116.10900116    0.05000000    0.25999999
   18.48139000  113.16500092    0.05000000    0.25999999
   18.48416710  113.96099854    0.05000000    0.25999999
   18.48750114  115.59500122    0.05000000    0.25999999
   18.49055672  116.62999725    0.05000000    0.25999999
   18.49388885  114.34999847    0.05000000    0.25999999
   18.49694443  125.26899719    0.05000000    0.25999999
   18.50027847  117.60700226    0.05000000    0.25999999
   18.50361061  115.51000214    0.05000000    0.25999999
   18.50666618  114.62200165    0.05000000    0.25999999
   18.51000023  117.99199677    0.05000000    0.25999999
   18.51583290  117.99199677    0.05000000    0.25999999
   18.52000046  115.48799896    0.05000000    0.25999999
   18.52333260  115.41600037    0.05000000    0.25999999
   18.52638817  121.63999939    0.05000000    0.25999999
   18.52972221  118.16000366    0.05000000    0.25999999
   18.53305435  122.65200043    0.05000000    0.25999999
   18.53610992  116.23999786    0.05000000    0.25999999
   18.53944397  119.36799622    0.05000000    0.25999999
   18.54277802  117.56700134    0.05000000    0.25999999
   18.54583359  117.39499664    0.05000000    0.25999999
   18.54805565  116.70899963    0.05000000    0.25999999
   18.54944420  117.69999695    0.05000000    0.25999999
   18.55277634  118.10199738    0.05000000    0.25999999
   18.55888748  118.10199738    0.05000000    0.25999999
   18.56277657  120.45200348    0.05000000    0.25999999
   18.56611061  120.07199860    0.05000000    0.25999999
   18.56944466  120.65899658    0.05000000    0.25999999
   18.57250023  121.25499725    0.05000000    0.25999999
   18.57583427  119.90399933    0.05000000    0.25999999
   18.57916832  119.74199677    0.05000000    0.25999999
   18.58139038  121.94000244    0.05000000    0.25999999
   18.58277893  124.15200043    0.05000000    0.25999999
   18.58611107  124.94999695    0.05000000    0.25999999
   18.58916664  122.19899750    0.05000000    0.25999999
   18.59250069  121.47200012    0.05000000    0.25999999
   18.59555626  123.24900055    0.05000000    0.25999999
   18.60166740  123.24900055    0.05000000    0.25999999
   18.60583305  118.78199768    0.05000000    0.25999999
   18.60888863  126.04100037    0.05000000    0.25999999
   18.61222267  115.98500061    0.05000000    0.25999999
   18.61472321  122.50199890    0.05000000    0.25999999
   18.61583328  121.80699921    0.05000000    0.25999999
   18.61916733  118.46600342    0.05000000    0.25999999
   18.62222290  113.58799744    0.05000000    0.25999999
   18.62555504  116.43800354    0.05000000    0.25999999
   18.62861061  117.63099670    0.05000000    0.25999999
   18.63194466  123.69499969    0.05000000    0.25999999
   18.63527679  122.18399811    0.05000000    0.25999999
   18.63833237  122.92400360    0.05000000    0.25999999
   18.64444351  122.92400360    0.05000000    0.25999999
   18.64861107  118.48999786    0.05000000    0.25999999
   18.65194321  123.21399689    0.05000000    0.25999999
   18.65499878  121.98300171    0.05000000    0.25999999
   18.65833282  120.24900055    0.05000000    0.25999999
   18.66138840  121.23600006    0.05000000    0.25999999
   18.66472244  120.61100006    0.05000000    0.25999999
   18.66805458  119.57399750    0.05000000    0.25999999
   18.67111015  114.45500183    0.05000000    0.25999999
   18.67444420  116.43800354    0.05000000    0.25999999
   18.67777634  116.60600281    0.05000000    0.25999999
   18.68083191  116.34899902    0.05000000    0.25999999
   18.68138885  120.64900208    0.05000000    0.25999999
   18.68722153  120.64900208    0.05000000    0.25999999
   18.69138718  115.07399750    0.05000000    0.25999999
   18.69472122  122.71600342    0.05000000    0.25999999
   18.69777679  121.43499756    0.05000000    0.25999999
   18.70111275  113.62599945    0.05000000    0.25999999
   18.70444489  116.96800232    0.05000000    0.25999999
   18.70750046  118.80899811    0.05000000    0.25999999
   18.71083450  119.34100342    0.05000000    0.25999999
   18.71416664  116.70400238    0.05000000    0.25999999
   18.71472359  116.37599945    0.05000000    0.25999999
   18.71750069  115.25199890    0.05000000    0.25999999
   18.72083473  118.22699738    0.05000000    0.25999999
   18.72389030  117.55300140    0.05000000    0.25999999
   18.73027802  117.55300140    0.05000000    0.25999999
   18.73416710  119.59600067    0.05000000    0.25999999
   18.73750114  115.89700317    0.05000000    0.25999999
   18.74083328  122.43199921    0.05000000    0.25999999
   18.74388885  120.76200104    0.05000000    0.25999999
   18.74722290  118.75700378    0.05000000    0.25999999
   18.74805641  116.62200165    0.05000000    0.25999999
   18.75083351  112.47100067    0.05000000    0.25999999
   18.75416756  122.16600037    0.05000000    0.25999999
   18.75722313  120.27500153    0.05000000    0.25999999
   18.76055527  117.81199646    0.05000000    0.25999999
   18.76388931  116.78199768    0.05000000    0.25999999
   18.76694489  116.53800201    0.05000000    0.25999999
   18.77305603  116.53800201    0.05000000    0.25999999
   18.77722168  117.82599640    0.05000000    0.25999999
   18.78027725  118.95500183    0.05000000    0.25999999
   18.78138924  116.46900177    0.05000000    0.25999999
   18.78388786  121.99700165    0.05000000    0.25999999
   18.78722191  117.80400085    0.05000000    0.25999999
   18.79027748  116.41699982    0.05000000    0.25999999
   18.79361153  121.41899872    0.05000000    0.25999999
   18.79694366  111.22899628    0.05000000    0.25999999
   18.79999924  118.82499695    0.05000000    0.25999999
   18.80333328  117.19400024    0.05000000    0.25999999
   18.80638885  118.85700226    0.05000000    0.25999999
   18.80972099  117.47299957    0.05000000    0.25999999
   18.81583214  117.47299957    0.05000000    0.25999999
   18.82000160  116.12799835    0.05000000    0.25999999
   18.82333374  117.56999969    0.05000000    0.25999999
   18.82638931  120.79900360    0.05000000    0.25999999
   18.82972336  118.92400360    0.05000000    0.25999999
   18.83277893  115.31500244    0.05000000    0.25999999
   18.83611107  118.79199982    0.05000000    0.25999999
   18.83944511  119.43199921    0.05000000    0.25999999
   18.84250069  120.72499847    0.05000000    0.25999999
   18.84583473  118.07499695    0.05000000    0.25999999
   18.84805679  118.46099854    0.05000000    0.25999999
   18.84944534  119.19300079    0.05000000    0.25999999
   18.85277748  117.24600220    0.05000000    0.25999999
   18.85861206  117.24600220    0.05000000    0.25999999
   18.86277771  118.41600037    0.05000000    0.25999999
   18.86611176  115.03600311    0.05000000    0.25999999
   18.86916733  109.67700195    0.05000000    0.25999999
   18.87249947  114.75499725    0.05000000    0.25999999
   18.87583351  116.89600372    0.05000000    0.25999999
   18.87888908  118.16500092    0.05000000    0.25999999
   18.88138962  121.79299927    0.05000000    0.25999999
   18.88249969  123.38500214    0.05000000    0.25999999
   18.88583374  126.35700226    0.05000000    0.25999999
   18.88888931  118.10399628    0.05000000    0.25999999
   18.89222145  120.82399750    0.05000000    0.25999999
   18.89555550  124.18000031    0.05000000    0.25999999
   18.90166664  124.18000031    0.05000000    0.25999999
   18.90555573  119.05200195    0.05000000    0.25999999
   18.90888786  122.87999725    0.05000000    0.25999999
   18.91222191  120.56099701    0.05000000    0.25999999
   18.91472244  122.25199890    0.05000000    0.25999999
   18.91583252  121.08000183    0.05000000    0.25999999
   18.91916656  122.88200378    0.05000000    0.25999999
   18.92222214  116.47100067    0.05000000    0.25999999
   18.92555428  120.85800171    0.05000000    0.25999999
   18.92860985  119.66300201    0.05000000    0.25999999
   18.93194389  114.19100189    0.05000000    0.25999999
   18.93527603  119.79699707    0.05000000    0.25999999
   18.93833160  121.16899872    0.05000000    0.25999999
   18.94444275  121.16899872    0.05000000    0.25999999
   18.94861031  118.14099884    0.05000000    0.25999999
   18.95166779  116.21399689    0.05000000    0.25999999
   18.95499992  117.65399933    0.05000000    0.25999999
   18.95833397  119.09799957    0.05000000    0.25999999
   18.96138954  115.63099670    0.05000000    0.25999999
   18.96472359  121.44699860    0.05000000    0.25999999
   18.96777916  118.65000153    0.05000000    0.25999999
   18.97111130  122.98200226    0.05000000    0.25999999
   18.97444534  117.73000336    0.05000000    0.25999999
   18.97750092  118.85900116    0.05000000    0.25999999
   18.98083305  125.75800323    0.05000000    0.25999999
   18.98139000  118.52700043    0.05000000    0.25999999
   18.98722267  118.52700043    0.05000000    0.25999999
   18.99138832  116.58300018    0.05000000    0.25999999
   18.99472237  118.50299835    0.05000000    0.25999999
   18.99777794  116.56700134    0.05000000    0.25999999
   19.00111198  119.56099701    0.05000000    0.25999999
   19.00444412  120.59700012    0.05000000    0.25999999
   19.00749969  122.82199860    0.05000000    0.25999999
   19.01083374  119.55000305    0.05000000    0.25999999
   19.01416588  115.44300079    0.05000000    0.25999999
   19.01472282  116.47599792    0.05000000    0.25999999
   19.01749992  120.24700165    0.05000000    0.25999999
   19.02083397  119.27400208    0.05000000    0.25999999
   19.02388954  118.48300171    0.05000000    0.25999999
   19.03000069  118.48300171    0.05000000    0.25999999
   19.03416634  117.53299713    0.05000000    0.25999999
   19.03750038  116.67299652    0.05000000    0.25999999
   19.04055595  115.89700317    0.05000000    0.25999999
   19.04388809  116.71900177    0.05000000    0.25999999
   19.04722214  113.61900330    0.05000000    0.25999999
   19.04805565  125.62999725    0.05000000    0.25999999
   19.05055428  119.28199768    0.05000000    0.25999999
   19.05388832  116.79599762    0.05000000    0.25999999
   19.05694389  117.63500214    0.05000000    0.25999999
   19.06027794  117.05699921    0.05000000    0.25999999
   19.06361008  113.51599884    0.05000000    0.25999999
   19.06666756  117.03399658    0.05000000    0.25999999
   19.07305717  117.03399658    0.05000000    0.25999999
   19.07694626  114.71600342    0.05000000    0.25999999
   19.08027840  118.30200195    0.05000000    0.25999999
   19.08166695  115.09200287    0.05000000    0.25999999
   19.08388901  114.27700043    0.05000000    0.25999999
   19.08722305  119.06199646    0.05000000    0.25999999
   19.09055710  116.23200226    0.05000000    0.25999999
   19.09361267  115.77799988    0.05000000    0.25999999
   19.09694481  118.89099884    0.05000000    0.25999999
   19.10000038  113.30400085    0.05000000    0.25999999
   19.10333443  114.50900269    0.05000000    0.25999999
   19.10666656  120.18299866    0.05000000    0.25999999
   19.10972214  115.15499878    0.05000000    0.25999999
   19.11583328  115.15499878    0.05000000    0.25999999
   19.12000084  115.01300049    0.05000000    0.25999999
   19.12305641  114.65399933    0.05000000    0.25999999
   19.12638855  114.32299805    0.05000000    0.25999999
   19.12972260  115.86900330    0.05000000    0.25999999
   19.13277817  116.58599854    0.05000000    0.25999999
   19.13611031  121.26300049    0.05000000    0.25999999
   19.13916588  116.16799927    0.05000000    0.25999999
   19.14249992  115.76000214    0.05000000    0.25999999
   19.14583397  119.81999969    0.05000000    0.25999999
   19.16416550  119.08000183    0.05000000    0.25999999
   19.16833305  119.08000183    0.05000000    0.25999999
   19.17249870  114.97799683    0.05000000    0.25999999
   19.17555428  116.76999664    0.05000000    0.25999999
   19.17888832  111.35900116    0.05000000    0.25999999
   19.18222237  115.95099640    0.05000000    0.25999999
