    HOUR (UT)   FLARE FACTOR    SKY TESTER    SUN TESTER
   11.92166710   -1.00000000   -1.00000000   -1.00000000
   11.99444485  236.91099548    0.00000000    0.00000000
   11.99777794  226.38900757    0.00000000    0.00000000
   12.00083351  213.64500427    0.00000000    0.00000000
   12.00416660  205.23899841    0.00000000    0.00000000
   12.00749969  217.07600403    0.00000000    0.00000000
   12.01083374  227.38900757    0.00000000    0.00000000
   12.01500034  227.38900757    0.00000000    0.00000000
   12.01888847  221.06100464    0.00000000    0.00000000
   12.02222157  206.55900574    0.00000000    0.00000000
   12.02555561  197.51699829    0.00000000    0.00000000
   12.02777767  194.40400696    0.00000000    0.00000000
   12.02888870  217.01800537    0.00000000    0.00000000
   12.03222179  227.94599915    1.85000002    1.69000006
   12.03555584  202.84199524    1.85000002    1.69000006
   12.03861141  216.25799561    1.85000002    1.69000006
   12.04194450  204.26600647    1.85000002    1.69000006
   12.04500008  186.38999939    1.85000002    1.69000006
   12.04833412  193.84700012    1.85000002    1.69000006
   12.05166721  212.96800232    1.85000002    1.69000006
   12.05777836  212.96800232    1.85000002    1.69000006
   12.06194496  176.38200378    1.85000002    1.69000006
   12.06500053  185.02299500    1.85000002    1.69000006
   12.06861115  181.10699463    1.85000002    1.69000006
   12.07194424  199.45500183    1.85000002    1.69000006
   12.07499981  177.39300537    1.85000002    1.69000006
   12.07833290  178.83299255    1.85000002    1.69000006
   12.08166695  177.69500732    1.85000002    1.69000006
   12.08472157  182.81599426    1.85000002    1.69000006
   12.08805561  186.74200439    1.85000002    1.69000006
   12.09111118  182.51400757    1.85000002    1.69000006
   12.09444427  187.65899658    1.85000002    1.69000006
   12.09472179  161.77900696    1.85000002    1.69000006
   12.10055637  161.77900696    1.85000002    1.69000006
   12.10472298  207.72999573    1.85000002    1.69000006
   12.10805607  180.78399658    1.85000002    1.69000006
   12.11111164  178.40199280    1.85000002    1.69000006
   12.11444473  196.17799377    1.85000002    1.69000006
   12.11777782  185.60400391    1.85000002    1.69000006
   12.12083340  174.16900635    1.85000002    1.69000006
   12.12416649  177.83900452    1.85000002    1.69000006
   12.12722206  173.53799438    1.85000002    1.69000006
   12.12777805  173.17199707    1.85000002    1.69000006
   12.13083363  204.91600037    1.85000002    1.69000006
   12.13388920  173.90299988    1.85000002    1.69000006
   12.13722229  172.47200012    1.85000002    1.69000006
   12.14333344  172.47200012    1.85000002    1.69000006
   12.14750004  164.59399414    1.85000002    1.69000006
   12.15083313  172.03700256    1.85000002    1.69000006
   12.15416622  170.64599609    1.85000002    1.69000006
   12.15722179  168.24600220    1.85000002    1.69000006
   12.16055489  162.78999329    1.85000002    1.69000006
   12.16111088  192.31300354    1.85000002    1.69000006
   12.16416645  163.48300171    1.85000002    1.69000006
   12.16722298  179.58900452    1.85000002    1.69000006
   12.17055607  165.12500000    1.85000002    1.69000006
   12.17388916  167.53500366    1.85000002    1.69000006
   12.17694473  162.31599426    1.85000002    1.69000006
   12.18027782  165.57400513    1.85000002    1.69000006
   12.18638897  165.57400513    1.85000002    1.69000006
   12.19027805  167.03999329    1.85000002    1.69000006
   12.19361115  158.18200684    1.85000002    1.69000006
   12.19444466  162.44900513    1.85000002    1.69000006
   12.19722271  167.96800232    1.85000002    1.69000006
   12.20055580  167.84800720    1.85000002    1.69000006
   12.20361137  153.74299622    1.85000002    1.69000006
   12.20694447  153.93299866    1.85000002    1.69000006
   12.21000004  162.52299500    1.85000002    1.69000006
   12.21333313  164.90800476    1.85000002    1.69000006
   12.21666622  163.32899475    1.85000002    1.69000006
   12.21972179  162.46099854    1.85000002    1.69000006
   12.22305489  160.99699402    1.85000002    1.69000006
   12.22916603  160.99699402    1.85000002    1.69000006
   12.23333359  158.47900391    1.85000002    1.69000006
   12.23638916  174.70100403    1.85000002    1.69000006
   12.23972225  173.58599854    1.85000002    1.69000006
   12.24305534  156.28799438    1.85000002    1.69000006
   12.24611092  147.52200317    1.85000002    1.69000006
   12.24944496  156.59100342    1.85000002    1.69000006
   12.25249958  160.80099487    1.85000002    1.69000006
   12.25583363  157.31599426    1.85000002    1.69000006
   12.25916672  163.32699585    1.85000002    1.69000006
   12.26111126  162.76800537    1.85000002    1.69000006
   12.26277733  145.59599304    1.85000002    1.69000006
   12.26611137  159.62399292    1.85000002    1.69000006
   12.27222157  159.62399292    1.85000002    1.69000006
   12.27638817  152.54800415    1.85000002    1.69000006
   12.27972221  153.94200134    1.85000002    1.69000006
   12.28277779  154.41999817    1.85000002    1.69000006
   12.28611183  155.53900146    1.85000002    1.69000006
   12.28944492  144.94400024    1.85000002    1.69000006
   12.29250050  156.55700684    1.85000002    1.69000006
   12.29444504  144.43600464    1.85000002    1.69000006
   12.29611111  140.82699585    1.85000002    1.69000006
   12.29944515  153.39100647    1.85000002    1.69000006
   12.30249977  152.01199341    1.85000002    1.69000006
   12.30638885  150.44299316    1.85000002    1.69000006
   12.30944443  145.01600647    1.85000002    1.69000006
   12.31472206  145.01600647    1.85000002    1.69000006
   12.31888866  137.70599365    1.85000002    1.69000006
   12.32222176  148.61000061    1.85000002    1.69000006
   12.32527733  141.30400085    1.85000002    1.69000006
   12.32777786  148.02099609    1.85000002    1.69000006
   12.32888889  142.61999512    1.85000002    1.69000006
   12.33222198  142.63099670    1.85000002    1.69000006
   12.33527756  144.14999390    1.85000002    1.69000006
   12.33861065  143.29400635    1.85000002    1.69000006
   12.34166622  144.07699585    1.85000002    1.69000006
   12.34499931  143.73800659    1.85000002    1.69000006
   12.34833336  146.84500122    1.85000002    1.69000006
   12.35138893  150.95399475    1.85000002    1.69000006
   12.35777855  150.95399475    1.85000002    1.69000006
   12.36166668  143.61199951    1.85000002    1.69000006
   12.36500072  159.74899292    1.85000002    1.69000006
   12.36833382  151.25000000    1.85000002    1.69000006
   12.37138939  149.83599854    1.85000002    1.69000006
   12.37472248  139.30700684    1.85000002    1.69000006
   12.37805557  136.35099792    1.85000002    1.69000006
   12.38111115  139.77900696    1.85000002    1.69000006
   12.38444424  143.61399841    1.85000002    1.69000006
   12.38777733  138.63299561    1.85000002    1.69000006
   12.39083290  138.23800659    1.85000002    1.69000006
   12.39416695  137.25599670    1.85000002    1.69000006
   12.39472198  144.98199463    1.85000002    1.69000006
   12.40055561  144.98199463    1.85000002    1.69000006
   12.40472221  137.81599426    1.85000002    1.69000006
   12.40805531  141.51199341    1.85000002    1.69000006
   12.41111088  133.25799561    1.85000002    1.69000006
   12.41444397  137.41600037    1.85000002    1.69000006
   12.41750050  131.17900085    1.85000002    1.69000006
   12.42083359  141.98500061    1.85000002    1.69000006
   12.42416668  143.39100647    1.85000002    1.69000006
   12.42722225  139.16700745    1.85000002    1.69000006
   12.42805576  135.34300232    1.85000002    1.69000006
   12.43083382  139.50000000    1.85000002    1.69000006
   12.43416691  152.48899841    1.85000002    1.69000006
   12.43750000  138.36000061    1.85000002    1.69000006
   12.44333363  138.36000061    1.85000002    1.69000006
   12.44750023  133.15600586    1.85000002    1.69000006
   12.45083332  131.00900269    1.85000002    1.69000006
   12.45388889  140.86599731    1.85000002    1.69000006
   12.45722198  138.93200684    1.85000002    1.69000006
   12.46027756  127.74700165    1.85000002    1.69000006
   12.46138859  140.32299805    1.85000002    1.69000006
   12.46388912  142.80599976    1.85000002    1.69000006
   12.46722221  137.62199402    1.85000002    1.69000006
   12.47055531  139.87500000    1.85000002    1.69000006
   12.47361088  138.89300537    1.85000002    1.69000006
   12.47694397  150.25599670    1.85000002    1.69000006
   12.47999954  143.84899902    1.85000002    1.69000006
   12.48611164  143.84899902    1.85000002    1.69000006
   12.49027824  144.73300171    1.85000002    1.69000006
   12.49361134  140.87600708    1.85000002    1.69000006
   12.49472237  136.77699280    1.85000002    1.69000006
   12.49694443  135.36900330    1.85000002    1.69000006
   12.50027752  153.11000061    1.85000002    1.69000006
   12.50361156  141.73599243    1.85000002    1.69000006
   12.50666714  151.71200562    1.85000002    1.69000006
   12.51000023  147.97999573    1.85000002    1.69000006
   12.51333332  154.27799988    1.85000002    1.69000006
   12.51638889  145.01499939    1.85000002    1.69000006
   12.51972198  147.17199707    1.85000002    1.69000006
   12.52277756  150.91200256    1.85000002    1.69000006
   12.52888870  150.91200256    1.85000002    1.69000006
   12.53305531  153.05799866    1.85000002    1.69000006
   12.53638935  157.31700134    1.85000002    1.69000006
   12.53972244  154.60699463    1.85000002    1.69000006
   12.54277802  157.61999512    1.85000002    1.69000006
   12.54611111  152.75700378    1.85000002    1.69000006
   12.54944515  150.84100342    1.85000002    1.69000006
   12.55249977  146.68699646    1.85000002    1.69000006
   12.55583382  146.87199402    1.85000002    1.69000006
   12.55888939  140.33700562    1.85000002    1.69000006
   12.56138897  137.74400330    1.85000002    1.69000006
   12.56250000  151.15299988    1.85000002    1.69000006
   12.56583309  164.65800476    1.85000002    1.69000006
   12.57194424  164.65800476    1.85000002    1.69000006
   12.57611084  148.11900330    1.85000002    1.69000006
   12.57916641  167.72099304    1.85000002    1.69000006
   12.58249950  148.49200439    1.85000002    1.69000006
   12.58555508  152.90400696    1.85000002    1.69000006
   12.58888817  152.05599976    1.85000002    1.69000006
   12.59222221  157.92599487    1.85000002    1.69000006
   12.59472179  160.59199524    1.85000002    1.69000006
   12.59555531  163.16299438    1.85000002    1.69000006
   12.59888840  160.38499451    1.85000002    1.69000006
   12.60222244  153.07200623    1.85000002    1.69000006
   12.60527802  141.48800659    1.85000002    1.69000006
   12.60861111  146.77000427    1.85000002    1.69000006
   12.61472225  146.77000427    1.85000002    1.69000006
   12.61888885  144.05000305    1.85000002    1.69000006
   12.62194443  140.00700378    1.85000002    1.69000006
   12.62527752  150.70599365    1.85000002    1.69000006
   12.62805557  138.12899780    1.85000002    1.69000006
   12.62888908  147.30499268    1.85000002    1.69000006
   12.63222218  161.84199524    1.85000002    1.69000006
   12.63555527  145.33299255    1.85000002    1.69000006
   12.63861084  150.36399841    1.85000002    1.69000006
   12.64194393  135.78500366    1.85000002    1.69000006
   12.64527798  148.64599609    1.85000002    1.69000006
   12.64833355  153.32899475    1.85000002    1.69000006
   12.65166664  148.73699951    1.85000002    1.69000006
   12.65749931  148.73699951    1.85000002    1.69000006
   12.66166592  145.03599548    1.85000002    1.69000006
   12.66499996  140.43600464    1.85000002    1.69000006
   12.66805553  141.17900085    1.85000002    1.69000006
   12.67138958  138.62800598    1.85000002    1.69000006
   12.67472267  137.50599670    1.85000002    1.69000006
   12.67777824  149.55700684    1.85000002    1.69000006
   12.68111134  144.45799255    1.85000002    1.69000006
   12.68444443  149.23199463    1.85000002    1.69000006
   12.68777752  176.19500732    1.85000002    1.69000006
   12.69083309  143.51199341    1.85000002    1.69000006
   12.69416714  147.21200562    1.85000002    1.69000006
   12.69472218  155.35699463    1.85000002    1.69000006
   12.70027733  155.35699463    1.85000002    1.69000006
   12.70444393  153.88800049    1.85000002    1.69000006
   12.70777798  153.85000610    1.85000002    1.69000006
   12.71111107  152.01600647    1.85000002    1.69000006
   12.71416664  149.43800354    1.85000002    1.69000006
   12.71749973  155.84100342    1.85000002    1.69000006
   12.72055531  150.22099304    1.85000002    1.69000006
   12.72388840  142.11599731    1.85000002    1.69000006
   12.72722149  142.96800232    1.85000002    1.69000006
   12.72805500  142.18600464    1.85000002    1.69000006
   12.73083305  152.60499573    1.85000002    1.69000006
   12.73388958  147.01699829    1.85000002    1.69000006
   12.73722267  155.94599915    1.85000002    1.69000006
   12.74333382  155.94599915    1.85000002    1.69000006
   12.74750042  146.74600220    1.85000002    1.69000006
   12.75055599  148.82899475    1.85000002    1.69000006
   12.75388908  158.14799500    1.85000002    1.69000006
   12.75694466  137.14700317    1.85000002    1.69000006
   12.76027775  142.88699341    1.85000002    1.69000006
   12.76138878  144.10800171    1.85000002    1.69000006
   12.76416683  140.75599670    1.85000002    1.69000006
   12.76722240  126.17600250    1.85000002    1.69000006
   12.77055550  166.93699646    1.85000002    1.69000006
   12.77361107  140.98599243    1.85000002    1.69000006
   12.77694416  154.27699280    1.85000002    1.69000006
   12.78027725  148.32400513    1.85000002    1.69000006
   12.78611183  148.32400513    1.85000002    1.69000006
   12.79027843  142.57000732    1.85000002    1.69000006
   12.79333401  141.98199463    1.85000002    1.69000006
   12.79472256  146.24800110    1.85000002    1.69000006
   12.79722309  138.42300415    1.85000002    1.69000006
   12.80027771  140.32600403    1.85000002    1.69000006
   12.80361176  146.69400024    1.85000002    1.69000006
   12.80666733  139.44599915    1.85000002    1.69000006
   12.81000042  159.19000244    1.85000002    1.69000006
   12.81333351  148.53599548    1.85000002    1.69000006
   12.81638908  150.86500549    1.85000002    1.69000006
   12.81972218  161.24600220    1.85000002    1.69000006
   12.82305527  233.24800110    1.85000002    1.69000006
   12.82888889  233.24800110    1.85000002    1.69000006
   12.83305550  142.59700012    1.85000002    1.69000006
   12.83638859  152.60699463    1.85000002    1.69000006
   12.83944416  196.29600525    1.85000002    1.69000006
   12.84277725  145.75700378    1.85000002    1.69000006
   12.84611034  152.22300720    1.85000002    1.69000006
   12.84916592  150.87699890    1.85000002    1.69000006
   12.85249996  173.78999329    1.85000002    1.69000006
   12.85583401  167.57600403    1.85000002    1.69000006
   12.85888958  176.86399841    1.85000002    1.69000006
   12.86138916  166.23300171    1.85000002    1.69000006
   12.86277771  174.64300537    1.85000002    1.69000006
   12.86583328  186.07099915    1.85000002    1.69000006
   12.87166691  186.07099915    1.85000002    1.69000006
   12.87583351  185.50399780    1.85000002    1.69000006
   12.87916660  197.93099976    1.85000002    1.69000006
   12.88249969  199.37300110    1.85000002    1.69000006
   12.88555527  215.06100464    1.85000002    1.69000006
   12.88888836  166.68499756    1.85000002    1.69000006
   12.89222240  176.11099243    1.85000002    1.69000006
   12.89472198  190.36199951    1.85000002    1.69000006
   12.89583302  177.94000244    1.85000002    1.69000006
   12.89888859  170.37899780    1.85000002    1.69000006
   12.90222168  206.64700317    1.85000002    1.69000006
   12.90555477  190.58299255    1.85000002    1.69000006
   12.90861034  194.94900513    1.85000002    1.69000006
   12.91472149  194.94900513    1.85000002    1.69000006
   12.91888905  261.90399170    1.85000002    1.69000006
   12.92194462  217.71600342    1.85000002    1.69000006
   12.92527771  176.62500000    1.85000002    1.69000006
   12.92805576  200.76100159    1.85000002    1.69000006
   12.92888927  175.44400024    1.85000002    1.69000006
   12.93194485  225.81599426    1.85000002    1.69000006
   12.93527794  174.55700684    1.85000002    1.69000006
   12.93861103  205.58000183    1.85000002    1.69000006
   12.94166660  182.81599426    1.85000002    1.69000006
   12.94499969  173.54100037    1.85000002    1.69000006
   12.94805527  168.23300171    1.85000002    1.69000006
   12.95138836  168.44799805    1.85000002    1.69000006
   12.95749950  168.44799805    1.85000002    1.69000006
   12.96166611  188.11199951    1.85000002    1.69000006
   12.96500015  200.51699829    1.85000002    1.69000006
   12.96805477  173.97300720    1.85000002    1.69000006
   12.97138882  138.06599426    1.85000002    1.69000006
   12.97444439  172.40400696    1.85000002    1.69000006
   12.97777748  162.53900146    1.85000002    1.69000006
   12.98111057  162.73599243    1.85000002    1.69000006
   12.98416710  157.85299683    1.85000002    1.69000006
   12.98750019  148.92700195    1.85000002    1.69000006
   12.99083328  151.91900635    1.85000002    1.69000006
   12.99388885  146.49699402    1.85000002    1.69000006
   12.99472237  158.11999512    1.85000002    1.69000006
   13.01527786  158.11999512    1.85000002    1.69000006
   13.01944447  167.61399841    1.85000002    1.69000006
   13.02277756  179.74299622    1.85000002    1.69000006
   13.02611065  167.82499695    1.85000002    1.69000006
   13.02805519  152.47399902    1.85000002    1.69000006
   13.02972221  169.27799988    1.85000002    1.69000006
   13.03277779  187.69700623    1.85000002    1.69000006
   13.03611183  177.20399475    1.85000002    1.69000006
   13.03944492  139.79200745    1.85000002    1.69000006
   13.04250050  181.21400452    1.85000002    1.69000006
   13.04583359  205.22599792    1.85000002    1.69000006
   13.04916668  180.47599792    1.85000002    1.69000006
   13.05222225  204.72200012    1.85000002    1.69000006
   13.05805588  204.72200012    1.85000002    1.69000006
   13.06222248  183.50500488    1.85000002    1.69000006
   13.06555557  173.11399841    1.85000002    1.69000006
   13.06861115  160.08900452    1.85000002    1.69000006
   13.07194424  169.13499451    1.85000002    1.69000006
   13.07527733  185.54600525    1.85000002    1.69000006
   13.07833290  229.97799683    1.85000002    1.69000006
   13.08166695  203.37399292    1.85000002    1.69000006
   13.08500004  196.68800354    1.85000002    1.69000006
   13.08805561  207.12600708    1.85000002    1.69000006
   13.09138870  198.34899902    1.85000002    1.69000006
   13.09444427  213.60899353    1.85000002    1.69000006
   13.09527779  203.51100159    1.85000002    1.69000006
   13.10083389  203.51100159    1.85000002    1.69000006
   13.10500050  249.95300293    1.85000002    1.69000006
   13.10833359  262.54098511    1.85000002    1.69000006
   13.11166668  247.00900269    1.85000002    1.69000006
   13.11472225  256.61401367    1.85000002    1.69000006
   13.11805534  281.93399048    1.85000002    1.69000006
   13.12111092  339.42898560    1.85000002    1.69000006
   13.12444496  285.14498901    1.85000002    1.69000006
   13.12777805  279.42999268    1.85000002    1.69000006
   13.12833309  282.86599731    1.85000002    1.69000006
   13.13138866  280.44000244    1.85000002    1.69000006
   13.13472176  249.05200195    1.85000002    1.69000006
   13.13777733  244.86500549    1.85000002    1.69000006
   13.14388847  244.86500549    1.85000002    1.69000006
   13.14805508  275.72601318    1.85000002    1.69000006
   13.15111065  275.85000610    1.85000002    1.69000006
   13.15444374  326.35699463    1.85000002    1.69000006
   13.15749931  319.36300659    1.85000002    1.69000006
   13.16083336  329.68701172    1.85000002    1.69000006
   13.16166592  295.34698486    1.85000002    1.69000006
   13.16444397  320.57400513    1.85000002    1.69000006
   13.16777802  323.01901245    1.85000002    1.69000006
   13.17111111  296.78900146    1.85000002    1.69000006
   13.17416668  337.07299805    1.85000002    1.69000006
   13.17750072  305.20498657    1.85000002    1.69000006
   13.18083382  318.15499878    1.85000002    1.69000006
   13.18666649  318.15499878    1.85000002    1.69000006
   13.19083309  392.23400879    1.85000002    1.69000006
   13.19416714  351.07199097    1.85000002    1.69000006
   13.19499969  378.76400757    1.85000002    1.69000006
   13.19777775  356.74398804    1.85000002    1.69000006
   13.20111084  373.36599731    1.85000002    1.69000006
   13.20416641  373.99700928    1.85000002    1.69000006
   13.20749950  389.58599854    1.85000002    1.69000006
   13.21055508  367.26599121    1.85000002    1.69000006
   13.21388912  416.23800659    1.85000002    1.69000006
   13.21583271  348.60900879    1.85000002    1.69000006
   13.21583271  373.99700928    1.85000002    1.69000006
   13.21611118  389.58599854    1.85000002    1.69000006
   13.21611118  367.26599121    1.85000002    1.69000006
   13.21611118  416.23800659    1.85000002    1.69000006
   13.21611118  318.15499878    1.85000002    1.69000006
   13.21638870  392.23400879    1.85000002    1.69000006
   13.21638870  351.07199097    1.85000002    1.69000006
   13.21638870  356.74398804    1.85000002    1.69000006
   13.21638870  373.36599731    1.85000002    1.69000006
   13.21833324  398.08099365    1.85000002    1.69000006
   13.22166634  380.36898804    1.85000002    1.69000006
   13.22472191  353.77398682    1.85000002    1.69000006
   13.22805500  375.87200928    1.85000002    1.69000006
   13.23138809  379.57299805    1.85000002    1.69000006
   13.23666668  379.57299805    1.85000002    1.69000006
   13.24083328  402.81298828    1.85000002    1.69000006
   13.24277782  402.63699341    1.85000002    1.69000006
   13.24416733  393.01098633    1.85000002    1.69000006
   13.24555588  394.48098755    1.85000002    1.69000006
   13.24694443  350.92999268    1.85000002    1.69000006
   13.24833393  382.90600586    1.85000002    1.69000006
   13.24972248  432.99700928    1.85000002    1.69000006
   13.25111103  405.27099609    1.85000002    1.69000006
   13.25249958  351.11300659    1.85000002    1.69000006
   13.25388908  399.19299316    1.85000002    1.69000006
   13.25527763  431.76800537    1.85000002    1.69000006
   13.25666714  387.35501099    1.85000002    1.69000006
   13.25805569  416.66299438    1.85000002    1.69000006
   13.25944424  404.36499023    1.85000002    1.69000006
   13.26083374  389.30099487    1.85000002    1.69000006
   13.26222229  409.18701172    1.85000002    1.69000006
   13.26361084  375.02200317    1.85000002    1.69000006
   13.26500034  383.04598999    1.85000002    1.69000006
   13.26638889  383.38299561    1.85000002    1.69000006
   13.26777744  376.49798584    1.85000002    1.69000006
   13.26916599  400.67599487    1.85000002    1.69000006
   13.27055550  385.85900879    1.85000002    1.69000006
   13.27194405  397.76800537    1.85000002    1.69000006
   13.27333355  354.13500977    1.85000002    1.69000006
   13.27472210  420.69500732    1.85000002    1.69000006
   13.27611065  372.87799072    1.85000002    1.69000006
   13.27750015  363.91799927    1.85000002    1.69000006
   13.27888870  332.94299316    1.85000002    1.69000006
   13.27888870  398.08099365    1.85000002    1.69000006
   13.27888870  380.36898804    1.85000002    1.69000006
   13.27888870  353.77398682    1.85000002    1.69000006
   13.27916622  375.87200928    1.85000002    1.69000006
   13.27916622  379.57299805    1.85000002    1.69000006
   13.27916622  402.81298828    1.85000002    1.69000006
   13.27972221  379.50698853    1.85000002    1.69000006
   13.28416729  384.56298828    1.85000002    1.69000006
   13.28777790  384.89401245    1.85000002    1.69000006
   13.28972244  384.63900757    1.85000002    1.69000006
   13.29111195  371.45498657    1.85000002    1.69000006
   13.29250050  387.38299561    1.85000002    1.69000006
   13.29388905  385.51998901    1.85000002    1.69000006
   13.29527855  356.02600098    1.85000002    1.69000006
   13.29666710  372.10699463    1.85000002    1.69000006
   13.29805565  414.84399414    1.85000002    1.69000006
   13.29944515  408.70199585    1.85000002    1.69000006
   13.30083370  385.09399414    1.85000002    1.69000006
   13.30249977  415.35000610    1.85000002    1.69000006
   13.30361176  380.62298584    1.85000002    1.69000006
   13.30500031  381.22500610    1.85000002    1.69000006
   13.30638885  405.14599609    1.85000002    1.69000006
   13.30777836  424.44500732    1.85000002    1.69000006
   13.30916691  400.51699829    1.85000002    1.69000006
   13.31055546  390.48498535    1.85000002    1.69000006
   13.31194496  393.39001465    1.85000002    1.69000006
   13.31333351  421.62500000    1.85000002    1.69000006
   13.31472206  387.07699585    1.85000002    1.69000006
   13.31611156  390.14599609    1.85000002    1.69000006
   13.31750011  404.26800537    1.85000002    1.69000006
   13.31888866  370.32998657    1.85000002    1.69000006
   13.32027817  394.41799927    1.85000002    1.69000006
   13.32166672  370.42800903    1.85000002    1.69000006
   13.32305527  392.64999390    1.85000002    1.69000006
   13.32444477  357.03399658    1.85000002    1.69000006
   13.32583332  367.11999512    1.85000002    1.69000006
   13.32722187  368.60198975    1.85000002    1.69000006
   13.32861137  385.22000122    1.85000002    1.69000006
   13.32999992  347.95401001    1.85000002    1.69000006
   13.33138847  341.56799316    1.85000002    1.69000006
   13.33277798  369.28399658    1.85000002    1.69000006
   13.33416653  355.41101074    1.85000002    1.69000006
   13.33555508  361.07199097    1.85000002    1.69000006
   13.33694458  365.27600098    1.85000002    1.69000006
   13.33833313  367.92199707    1.85000002    1.69000006
   13.33972168  365.16799927    1.85000002    1.69000006
   13.34111118  326.48699951    1.85000002    1.69000006
   13.34249973  340.78799438    1.85000002    1.69000006
   13.34388828  331.26998901    1.85000002    1.69000006
   13.34527779  314.73001099    1.85000002    1.69000006
   13.34666634  341.70300293    1.85000002    1.69000006
   13.34805489  347.58499146    1.85000002    1.69000006
   13.34944439  347.80200195    1.85000002    1.69000006
   13.35083389  366.64898682    1.85000002    1.69000006
   13.35222244  353.53500366    1.85000002    1.69000006
   13.35361195  369.16699219    1.85000002    1.69000006
   13.35500050  360.01400757    1.85000002    1.69000006
   13.35638905  342.10501099    1.85000002    1.69000006
   13.35777855  360.42498779    1.85000002    1.69000006
   13.35916710  374.31799316    1.85000002    1.69000006
   13.36055565  367.53298950    1.85000002    1.69000006
   13.36194515  359.74600220    1.85000002    1.69000006
   13.36333370  316.64801025    1.85000002    1.69000006
   13.36472225  355.46398926    1.85000002    1.69000006
   13.36611176  318.02999878    1.85000002    1.69000006
   13.36750031  359.29299927    1.85000002    1.69000006
   13.36888885  354.65200806    1.85000002    1.69000006
   13.37027836  344.99398804    1.85000002    1.69000006
   13.37166691  327.49499512    1.85000002    1.69000006
   13.37305546  336.27398682    1.85000002    1.69000006
   13.37444496  337.06100464    1.85000002    1.69000006
   13.37583351  338.06100464    1.85000002    1.69000006
   13.37722206  369.74600220    1.85000002    1.69000006
   13.37861156  325.49600220    1.85000002    1.69000006
   13.38000011  340.13000488    1.85000002    1.69000006
   13.38138866  362.38500977    1.85000002    1.69000006
   13.38277817  329.51501465    1.85000002    1.69000006
   13.38416672  355.32199097    1.85000002    1.69000006
   13.38555527  329.17300415    1.85000002    1.69000006
   13.38694477  348.50100708    1.85000002    1.69000006
   13.38833332  321.40701294    1.85000002    1.69000006
   13.38972187  340.87799072    1.85000002    1.69000006
   13.39111137  339.12200928    1.85000002    1.69000006
   13.39249992  356.07299805    1.85000002    1.69000006
   13.39388847  339.90899658    1.85000002    1.69000006
   13.39527798  357.61898804    1.85000002    1.69000006
   13.39666653  350.51800537    1.85000002    1.69000006
   13.39805508  336.12500000    1.85000002    1.69000006
   13.39944458  326.10800171    1.85000002    1.69000006
   13.40083313  348.42098999    1.85000002    1.69000006
   13.40222168  336.85900879    1.85000002    1.69000006
   13.40361118  336.04901123    1.85000002    1.69000006
   13.40499973  314.07000732    1.85000002    1.69000006
   13.40638828  347.12701416    1.85000002    1.69000006
   13.40777779  336.77301025    1.85000002    1.69000006
   13.40944386  336.29501343    1.85000002    1.69000006
   13.41055489  338.91400146    1.85000002    1.69000006
   13.41194439  325.62399292    1.85000002    1.69000006
   13.41333294  341.08599854    1.85000002    1.69000006
   13.41472149  346.11300659    1.85000002    1.69000006
   13.41611099  332.38900757    1.85000002    1.69000006
   13.41750050  354.08801270    1.85000002    1.69000006
   13.41888905  346.04998779    1.85000002    1.69000006
   13.42027855  308.80700684    1.85000002    1.69000006
   13.42166710  354.76901245    1.85000002    1.69000006
   13.42305565  332.41900635    1.85000002    1.69000006
   13.42444515  341.26000977    1.85000002    1.69000006
   13.42583370  357.39001465    1.85000002    1.69000006
   13.42722225  343.93798828    1.85000002    1.69000006
   13.42861176  327.21701050    1.85000002    1.69000006
   13.43000031  336.16900635    1.85000002    1.69000006
   13.43138885  316.08300781    1.85000002    1.69000006
   13.43277836  332.75698853    1.85000002    1.69000006
   13.43416691  363.12701416    1.85000002    1.69000006
   13.43555546  345.57998657    1.85000002    1.69000006
   13.43694496  335.77200317    1.85000002    1.69000006
   13.43833351  350.29699707    1.85000002    1.69000006
   13.43972206  352.37600708    1.85000002    1.69000006
   13.44111156  313.05099487    1.85000002    1.69000006
   13.44250011  321.86499023    1.85000002    1.69000006
   13.44388866  316.68099976    1.85000002    1.69000006
   13.44527817  325.60501099    1.85000002    1.69000006
   13.44666672  347.21798706    1.85000002    1.69000006
   13.44805527  333.11099243    1.85000002    1.69000006
   13.44944477  333.08599854    1.85000002    1.69000006
   13.45083332  306.50601196    1.85000002    1.69000006
   13.45222187  320.73999023    1.85000002    1.69000006
   13.45361137  332.89700317    1.85000002    1.69000006
   13.45499992  299.96301270    1.85000002    1.69000006
   13.45499992  379.50698853    1.85000002    1.69000006
   13.45499992  384.56298828    1.85000002    1.69000006
   13.45527744  384.89401245    1.85000002    1.69000006
   13.45583344  329.93798828    1.85000002    1.69000006
   13.45888901  327.61401367    1.85000002    1.69000006
   13.46222210  325.61099243    1.85000002    1.69000006
   13.46527767  316.23800659    1.85000002    1.69000006
   13.46861076  323.80700684    1.85000002    1.69000006
   13.47194386  334.69500732    1.85000002    1.69000006
   13.47611046  334.69500732    1.85000002    1.69000006
   13.48027706  319.13400269    1.85000002    1.69000006
   13.48333359  331.10800171    1.85000002    1.69000006
   13.48722267  344.80899048    1.85000002    1.69000006
   13.48944473  336.59201050    1.85000002    1.69000006
   13.49111176  312.01599121    1.85000002    1.69000006
   13.49444485  335.06500244    1.85000002    1.69000006
   13.49638939  325.93899536    1.85000002    1.69000006
   13.49777794  322.53298950    1.85000002    1.69000006
   13.49916649  322.68301392    1.85000002    1.69000006
   13.50055599  292.82598877    1.85000002    1.69000006
   13.50194454  284.12799072    1.85000002    1.69000006
   13.50333309  325.20098877    1.85000002    1.69000006
   13.50472260  311.67800903    1.85000002    1.69000006
   13.50611115  322.60900879    1.85000002    1.69000006
   13.50749969  305.70999146    1.85000002    1.69000006
   13.50888920  320.37701416    1.85000002    1.69000006
   13.51027775  304.07501221    1.85000002    1.69000006
   13.51166630  305.37799072    1.85000002    1.69000006
   13.51305580  310.06298828    1.85000002    1.69000006
   13.51444435  290.75500488    1.85000002    1.69000006
   13.51583290  318.48001099    1.85000002    1.69000006
   13.51722240  322.31201172    1.85000002    1.69000006
   13.51861095  318.45800781    1.85000002    1.69000006
   13.51999950  342.58200073    1.85000002    1.69000006
   13.52138901  335.96499634    1.85000002    1.69000006
   13.52305508  288.16900635    1.85000002    1.69000006
   13.52416611  309.54400635    1.85000002    1.69000006
   13.52555561  306.65798950    1.85000002    1.69000006
   13.52694416  301.20401001    1.85000002    1.69000006
   13.52833271  320.59600830    1.85000002    1.69000006
   13.52972221  313.02301025    1.85000002    1.69000006
   13.53111076  297.82598877    1.85000002    1.69000006
   13.53249931  280.53399658    1.85000002    1.69000006
   13.53388977  280.11801147    1.85000002    1.69000006
   13.53527832  321.63598633    1.85000002    1.69000006
   13.53666687  305.99798584    1.85000002    1.69000006
   13.53805637  312.83999634    1.85000002    1.69000006
   13.53944492  321.28500366    1.85000002    1.69000006
   13.54083347  312.56900024    1.85000002    1.69000006
   13.54222298  293.66101074    1.85000002    1.69000006
   13.54361153  304.43399048    1.85000002    1.69000006
   13.54500008  298.87799072    1.85000002    1.69000006
   13.54638958  309.54299927    1.85000002    1.69000006
   13.54777813  310.55200195    1.85000002    1.69000006
   13.54916668  312.03298950    1.85000002    1.69000006
   13.55055618  328.95700073    1.85000002    1.69000006
   13.55194473  310.56799316    1.85000002    1.69000006
   13.55333328  303.49200439    1.85000002    1.69000006
   13.55472279  303.90701294    1.85000002    1.69000006
   13.55611134  309.76400757    1.85000002    1.69000006
   13.55749989  304.59201050    1.85000002    1.69000006
   13.55888939  306.19699097    1.85000002    1.69000006
   13.56027794  314.76901245    1.85000002    1.69000006
   13.56166649  333.57000732    1.85000002    1.69000006
   13.56305599  307.45999146    1.85000002    1.69000006
   13.56444454  286.09201050    1.85000002    1.69000006
   13.56583309  314.19900513    1.85000002    1.69000006
   13.56722260  258.56500244    1.85000002    1.69000006
   13.56722260  312.01599121    1.85000002    1.69000006
   13.56722260  335.06500244    1.85000002    1.69000006
   13.56750011  325.61099243    1.85000002    1.69000006
   13.56750011  316.23800659    1.85000002    1.69000006
   13.56750011  323.80700684    1.85000002    1.69000006
   13.56750011  334.69500732    1.85000002    1.69000006
   13.56750011  319.13400269    1.85000002    1.69000006
   13.56750011  331.10800171    1.85000002    1.69000006
   13.56777763  344.80899048    1.85000002    1.69000006
   13.56833363  296.35299683    1.85000002    1.69000006
   13.57138920  301.50698853    1.85000002    1.69000006
   13.57472229  312.63500977    1.85000002    1.69000006
   13.57805538  260.00399780    1.85000002    1.69000006
   13.58111095  294.30398560    1.85000002    1.69000006
   13.58805561  294.30398560    1.85000002    1.69000006
   13.59222221  308.50698853    1.85000002    1.69000006
   13.59527779  288.10000610    1.85000002    1.69000006
   13.59861088  288.72900391    1.85000002    1.69000006
   13.60111141  309.79098511    1.85000002    1.69000006
   13.60222244  291.12799072    1.85000002    1.69000006
   13.60555553  304.80499268    1.85000002    1.69000006
   13.60888958  291.51800537    1.85000002    1.69000006
   13.61194515  305.88900757    1.85000002    1.69000006
   13.61527824  299.90899658    1.85000002    1.69000006
   13.61861134  290.21398926    1.85000002    1.69000006
   13.62166691  295.53100586    1.85000002    1.69000006
   13.62500000  300.77301025    1.85000002    1.69000006
   13.63083363  300.77301025    1.85000002    1.69000006
   13.63500023  277.59899902    1.85000002    1.69000006
   13.63805580  259.10299683    1.85000002    1.69000006
   13.64138889  287.47299194    1.85000002    1.69000006
   13.64472198  269.84698486    1.85000002    1.69000006
   13.64777756  288.75601196    1.85000002    1.69000006
   13.65111065  275.60400391    1.85000002    1.69000006
   13.65444374  282.02600098    1.85000002    1.69000006
   13.65777779  281.04800415    1.85000002    1.69000006
   13.66083336  285.21398926    1.85000002    1.69000006
   13.66416645  289.00000000    1.85000002    1.69000006
   13.66722298  281.95300293    1.85000002    1.69000006
   13.66777802  279.55200195    1.85000002    1.69000006
   13.67361164  279.55200195    1.85000002    1.69000006
   13.67777824  271.29501343    1.85000002    1.69000006
   13.68111134  288.26800537    1.85000002    1.69000006
   13.68416691  275.76098633    1.85000002    1.69000006
   13.68750000  292.03601074    1.85000002    1.69000006
   13.69083309  283.86300659    1.85000002    1.69000006
   13.69388866  283.49499512    1.85000002    1.69000006
   13.69722271  275.42898560    1.85000002    1.69000006
   13.70027733  277.11801147    1.85000002    1.69000006
   13.70111084  288.55801392    1.85000002    1.69000006
   13.70388889  288.44100952    1.85000002    1.69000006
   13.70722198  290.95700073    1.85000002    1.69000006
   13.71027756  276.47299194    1.85000002    1.69000006
   13.71638870  276.47299194    1.85000002    1.69000006
   13.72055531  281.67401123    1.85000002    1.69000006
   13.72388840  277.88000488    1.85000002    1.69000006
   13.72722149  289.45199585    1.85000002    1.69000006
   13.73027706  289.89999390    1.85000002    1.69000006
   13.73361111  287.46701050    1.85000002    1.69000006
   13.73444462  270.07901001    1.85000002    1.69000006
   13.73722267  296.57699585    1.85000002    1.69000006
   13.74055576  276.84100342    1.85000002    1.69000006
   13.74388885  271.35900879    1.85000002    1.69000006
   13.74694443  271.96499634    1.85000002    1.69000006
   13.75027752  287.17098999    1.85000002    1.69000006
   13.75361156  276.54800415    1.85000002    1.69000006
   13.75944424  276.54800415    1.85000002    1.69000006
   13.76361084  272.74398804    1.85000002    1.69000006
   13.76666641  281.44699097    1.85000002    1.69000006
   13.76777744  281.59899902    1.85000002    1.69000006
   13.77027798  259.07998657    1.85000002    1.69000006
   13.77361107  271.28500366    1.85000002    1.69000006
   13.77666664  263.81900024    1.85000002    1.69000006
   13.77999973  243.19299316    1.85000002    1.69000006
   13.78333378  262.79400635    1.85000002    1.69000006
   13.78638935  269.44198608    1.85000002    1.69000006
   13.78972244  283.02899170    1.85000002    1.69000006
   13.79277802  281.53100586    1.85000002    1.69000006
   13.79611111  275.68301392    1.85000002    1.69000006
   13.80222225  275.68301392    1.85000002    1.69000006
   13.80638885  268.64498901    1.85000002    1.69000006
   13.80944443  234.71699524    1.85000002    1.69000006
   13.81277752  275.47500610    1.85000002    1.69000006
   13.81611156  271.62799072    1.85000002    1.69000006
   13.81916618  286.34698486    1.85000002    1.69000006
   13.82250023  277.99700928    1.85000002    1.69000006
   13.82555580  292.38198853    1.85000002    1.69000006
   13.82888889  284.84201050    1.85000002    1.69000006
   13.83222198  279.09799194    1.85000002    1.69000006
   13.83444405  280.46798706    1.85000002    1.69000006
   13.83583260  281.50799561    1.85000002    1.69000006
   13.83916664  284.38800049    1.85000002    1.69000006
   13.84499931  284.38800049    1.85000002    1.69000006
   13.84916592  250.75399780    1.85000002    1.69000006
   13.85249996  254.90199280    1.85000002    1.69000006
   13.85555553  258.67800903    1.85000002    1.69000006
   13.85916710  265.30200195    1.85000002    1.69000006
   13.86222267  269.76300049    1.85000002    1.69000006
   13.86555576  279.38000488    1.85000002    1.69000006
   13.86777782  250.24200439    1.85000002    1.69000006
   13.86916637  265.01800537    1.85000002    1.69000006
   13.87250042  269.46600342    1.85000002    1.69000006
   13.87555599  259.58700562    1.85000002    1.69000006
   13.87888908  259.84298706    1.85000002    1.69000006
   13.88194466  263.75201416    1.85000002    1.69000006
   13.88777733  263.75201416    1.85000002    1.69000006
   13.89194393  259.44500732    1.85000002    1.69000006
   13.89527798  249.76600647    1.85000002    1.69000006
   13.89861107  237.79499817    1.85000002    1.69000006
   13.90111065  247.72300720    1.85000002    1.69000006
   13.90222168  251.44999695    1.85000002    1.69000006
   13.90555477  251.70300293    1.85000002    1.69000006
   13.90861034  264.50000000    1.85000002    1.69000006
   13.91194439  242.53399658    1.85000002    1.69000006
   13.91499996  236.66799927    1.85000002    1.69000006
   13.91833401  261.93301392    1.85000002    1.69000006
   13.92166710  256.23498535    1.85000002    1.69000006
   13.92472267  262.30300903    1.85000002    1.69000006
   13.93083382  262.30300903    1.85000002    1.69000006
   13.93500042  270.00201416    1.85000002    1.69000006
   13.93805599  262.15600586    1.85000002    1.69000006
   13.94027805  256.82998657    1.85000002    1.69000006
   13.94138908  265.29800415    1.85000002    1.69000006
   13.94277763  270.95999146    1.85000002    1.69000006
   13.94416714  265.70498657    1.85000002    1.69000006
   13.94555569  267.29299927    1.85000002    1.69000006
   13.94694424  262.60400391    1.85000002    1.69000006
   13.94833374  264.93798828    1.85000002    1.69000006
   13.94972229  258.61599731    1.85000002    1.69000006
   13.95111084  261.43399048    1.85000002    1.69000006
   13.95249939  256.51098633    1.85000002    1.69000006
   13.95388889  260.00500488    1.85000002    1.69000006
   13.95527744  250.23399353    1.85000002    1.69000006
   13.95666695  251.19299316    1.85000002    1.69000006
   13.95805550  235.06199646    1.85000002    1.69000006
   13.95805550  261.93301392    1.85000002    1.69000006
   13.95833302  256.23498535    1.85000002    1.69000006
   13.95833302  262.30300903    1.85000002    1.69000006
   13.95833302  270.00201416    1.85000002    1.69000006
   13.95833302  262.15600586    1.85000002    1.69000006
   13.95861053  251.70300293    1.85000002    1.69000006
   13.95861053  264.50000000    1.85000002    1.69000006
   13.95861053  242.53399658    1.85000002    1.69000006
   13.95861053  236.66799927    1.85000002    1.69000006
   13.95916653  245.80299377    1.85000002    1.69000006
   13.96249962  241.79400635    1.85000002    1.69000006
   13.96555519  247.37100220    1.85000002    1.69000006
   13.96888828  239.58399963    1.85000002    1.69000006
   13.97222137  234.02499390    1.85000002    1.69000006
   13.97888851  234.02499390    1.85000002    1.69000006
   13.98305511  228.64199829    1.85000002    1.69000006
   13.98638916  249.99099731    1.85000002    1.69000006
   13.98944473  248.27600098    1.85000002    1.69000006
   13.99194431  234.98500061    1.85000002    1.69000006
   13.99305534  249.78100586    1.85000002    1.69000006
   13.99638939  241.13999939    1.85000002    1.69000006
   13.99944496  241.96200562    1.85000002    1.69000006
   14.00277805  235.51499939    1.85000002    1.69000006
   14.00583363  239.04100037    1.85000002    1.69000006
   14.00916672  234.85200500    1.85000002    1.69000006
   14.03194427  234.85200500    1.85000002    1.69000006
   14.03611183  238.12600708    1.85000002    1.69000006
   14.03916740  227.33900452    1.85000002    1.69000006
   14.04250050  248.59199524    1.85000002    1.69000006
   14.04583359  241.90400696    1.85000002    1.69000006
   14.04888916  237.37100220    1.85000002    1.69000006
   14.05222225  239.38800049    1.85000002    1.69000006
   14.05527782  231.99000549    1.85000002    1.69000006
   14.05861092  245.04200745    1.85000002    1.69000006
   14.06194496  240.72000122    1.85000002    1.69000006
   14.06277752  229.86199951    1.85000002    1.69000006
   14.06527805  246.75000000    1.85000002    1.69000006
   14.06861115  238.32699585    1.85000002    1.69000006
   14.07472229  238.32699585    1.85000002    1.69000006
   14.07861137  227.96099854    1.85000002    1.69000006
   14.08194447  226.16000366    1.85000002    1.69000006
   14.08527756  223.33599854    1.85000002    1.69000006
   14.08833313  227.14399719    1.85000002    1.69000006
   14.09166622  228.83900452    1.85000002    1.69000006
   14.09499931  222.77099609    1.85000002    1.69000006
   14.09611034  223.19000244    1.85000002    1.69000006
   14.09833336  236.00100708    1.85000002    1.69000006
   14.10166740  234.08200073    1.85000002    1.69000006
   14.10500050  222.55299377    1.85000002    1.69000006
   14.10805607  213.84700012    1.85000002    1.69000006
   14.11138916  222.20199585    1.85000002    1.69000006
   14.11750031  222.20199585    1.85000002    1.69000006
   14.12166691  207.32800293    1.85000002    1.69000006
   14.12472248  217.69799805    1.85000002    1.69000006
   14.12805557  214.69400024    1.85000002    1.69000006
   14.12944412  207.81599426    1.85000002    1.69000006
   14.13166714  227.89199829    1.85000002    1.69000006
   14.13500023  221.23599243    1.85000002    1.69000006
   14.13805580  227.53700256    1.85000002    1.69000006
   14.14138889  231.04400635    1.85000002    1.69000006
   14.14444447  232.02799988    1.85000002    1.69000006
   14.14777756  237.75700378    1.85000002    1.69000006
   14.15111065  236.13900757    1.85000002    1.69000006
   14.15416622  233.56199646    1.85000002    1.69000006
   14.16027737  233.56199646    1.85000002    1.69000006
   14.16444397  225.48699951    1.85000002    1.69000006
   14.16777802  228.93400574    1.85000002    1.69000006
   14.17083359  216.87399292    1.85000002    1.69000006
   14.17416668  212.18600464    1.85000002    1.69000006
   14.17750072  219.40499878    1.85000002    1.69000006
   14.18055630  209.64500427    1.85000002    1.69000006
   14.18388939  216.13900757    1.85000002    1.69000006
   14.18694496  213.37600708    1.85000002    1.69000006
   14.19027805  207.89500427    1.85000002    1.69000006
   14.19361115  219.64300537    1.85000002    1.69000006
   14.19611073  211.49499512    1.85000002    1.69000006
   14.19722271  193.48199463    1.85000002    1.69000006
   14.20305538  193.48199463    1.85000002    1.69000006
   14.20722198  204.17700195    1.85000002    1.69000006
   14.21055508  214.88400269    1.85000002    1.69000006
   14.21388912  205.68099976    1.85000002    1.69000006
   14.21694374  196.69400024    1.85000002    1.69000006
   14.22027779  205.53500366    1.85000002    1.69000006
   14.22361088  209.92799377    1.85000002    1.69000006
   14.22666645  224.49600220    1.85000002    1.69000006
   14.22944355  219.17399597    1.85000002    1.69000006
   14.23027706  207.76300049    1.85000002    1.69000006
   14.23361111  206.13800049    1.85000002    1.69000006
   14.23666668  212.87500000    1.85000002    1.69000006
   14.24000072  210.44000244    1.85000002    1.69000006
   14.24611092  210.44000244    1.85000002    1.69000006
   14.25027752  218.59700012    1.85000002    1.69000006
   14.25333309  218.06900024    1.85000002    1.69000006
   14.25666714  208.38800049    1.85000002    1.69000006
   14.25972176  215.05700684    1.85000002    1.69000006
   14.26277733  213.61799622    1.85000002    1.69000006
   14.26333332  210.39199829    1.85000002    1.69000006
   14.26666641  218.06399536    1.85000002    1.69000006
   14.26972198  203.32499695    1.85000002    1.69000006
   14.27305508  208.23500061    1.85000002    1.69000006
   14.27638817  205.31300354    1.85000002    1.69000006
   14.27944374  203.93699646    1.85000002    1.69000006
   14.28277779  195.63099670    1.85000002    1.69000006
   14.28888893  195.63099670    1.85000002    1.69000006
   14.29305553  206.78999329    1.85000002    1.69000006
   14.29611111  199.57200623    1.85000002    1.69000006
   14.29666710  196.40600586    1.85000002    1.69000006
   14.30000019  193.15800476    1.85000002    1.69000006
   14.30305576  193.56399536    1.85000002    1.69000006
   14.30638885  204.42799377    1.85000002    1.69000006
   14.30972195  196.99499512    1.85000002    1.69000006
   14.31277752  190.68299866    1.85000002    1.69000006
   14.31611156  201.02099609    1.85000002    1.69000006
   14.31916618  193.85800171    1.85000002    1.69000006
   14.32250023  193.50900269    1.85000002    1.69000006
   14.32583332  191.99200439    1.85000002    1.69000006
   14.33166695  191.99200439    1.85000002    1.69000006
   14.33583260  205.25000000    1.85000002    1.69000006
   14.33916664  189.70199585    1.85000002    1.69000006
   14.34222221  211.46699524    1.85000002    1.69000006
   14.34555531  216.50999451    1.85000002    1.69000006
   14.34861088  207.49600220    1.85000002    1.69000006
   14.35194492  175.98800659    1.85000002    1.69000006
   14.35527802  197.83099365    1.85000002    1.69000006
   14.35861111  206.10699463    1.85000002    1.69000006
   14.36166668  199.10499573    1.85000002    1.69000006
   14.36305618  198.86999512    1.85000002    1.69000006
   14.36527824  193.73800659    1.85000002    1.69000006
   14.36861134  190.39900208    1.85000002    1.69000006
   14.37444496  190.39900208    1.85000002    1.69000006
   14.37861156  186.27699280    1.85000002    1.69000006
   14.38194466  191.11999512    1.85000002    1.69000006
   14.38500023  188.62300110    1.85000002    1.69000006
   14.38833332  187.14799500    1.85000002    1.69000006
   14.39166641  193.11799622    1.85000002    1.69000006
   14.39472198  190.10400391    1.85000002    1.69000006
   14.39638901  178.25700378    1.85000002    1.69000006
   14.39833355  171.64999390    1.85000002    1.69000006
   14.40166664  187.71299744    1.85000002    1.69000006
   14.40472221  195.08299255    1.85000002    1.69000006
   14.40805531  203.29699707    1.85000002    1.69000006
   14.41138840  186.94700623    1.85000002    1.69000006
   14.41750050  186.94700623    1.85000002    1.69000006
   14.42138958  189.66700745    1.85000002    1.69000006
   14.42500019  185.15299988    1.85000002    1.69000006
   14.42805576  196.90400696    1.85000002    1.69000006
   14.42972279  182.47200012    1.85000002    1.69000006
   14.43166733  190.94900513    1.85000002    1.69000006
   14.43500042  185.46899414    1.85000002    1.69000006
   14.43805599  185.92500305    1.85000002    1.69000006
   14.44138908  184.83399963    1.85000002    1.69000006
   14.44444466  180.95199585    1.85000002    1.69000006
   14.44777775  182.80299377    1.85000002    1.69000006
   14.45111084  188.35899353    1.85000002    1.69000006
   14.45416641  193.74200439    1.85000002    1.69000006
   14.46027756  193.74200439    1.85000002    1.69000006
   14.46444416  183.32299805    1.85000002    1.69000006
   14.46749973  175.61300659    1.85000002    1.69000006
   14.47083282  170.47700500    1.85000002    1.69000006
   14.47416592  184.44500732    1.85000002    1.69000006
   14.47722149  169.35299683    1.85000002    1.69000006
   14.48055553  179.80900574    1.85000002    1.69000006
   14.48388958  185.15100098    1.85000002    1.69000006
   14.48694515  181.08500671    1.85000002    1.69000006
   14.49027824  178.56799316    1.85000002    1.69000006
   14.49333382  168.29800415    1.85000002    1.69000006
   14.49638939  180.26300049    1.85000002    1.69000006
   14.49694443  180.60299683    1.85000002    1.69000006
   14.50305557  180.60299683    1.85000002    1.69000006
   14.50722218  180.28100586    1.85000002    1.69000006
   14.51055527  181.13999939    1.85000002    1.69000006
   14.51361084  172.22500610    1.85000002    1.69000006
   14.51694393  160.19799805    1.85000002    1.69000006
   14.51999950  172.32299805    1.85000002    1.69000006
   14.52333355  174.61000061    1.85000002    1.69000006
   14.52666664  173.22200012    1.85000002    1.69000006
   14.52972221  167.40499878    1.85000002    1.69000006
   14.53027725  169.78199768    1.85000002    1.69000006
   14.53361130  171.45500183    1.85000002    1.69000006
   14.53666687  181.82499695    1.85000002    1.69000006
   14.54000092  169.08299255    1.85000002    1.69000006
   14.54583359  169.08299255    1.85000002    1.69000006
   14.55000019  177.71699524    1.85000002    1.69000006
   14.55333328  164.75199890    1.85000002    1.69000006
   14.55666733  168.56100464    1.85000002    1.69000006
   14.55972195  166.30400085    1.85000002    1.69000006
   14.56305599  151.59599304    1.85000002    1.69000006
   14.56361103  147.70899963    1.85000002    1.69000006
   14.56666660  165.00300598    1.85000002    1.69000006
   14.56999969  153.35099792    1.85000002    1.69000006
   14.57333374  163.00599670    1.85000002    1.69000006
   14.57638836  155.20300293    1.85000002    1.69000006
   14.57972240  154.91799927    1.85000002    1.69000006
   14.58277798  160.19500732    1.85000002    1.69000006
   14.58888817  160.19500732    1.85000002    1.69000006
   14.59305477  160.37399292    1.85000002    1.69000006
   14.59611034  161.04800415    1.85000002    1.69000006
   14.59694386  167.05999756    1.85000002    1.69000006
   14.59972191  168.70799255    1.85000002    1.69000006
   14.60305595  158.32800293    1.85000002    1.69000006
   14.60638905  153.17999268    1.85000002    1.69000006
   14.60944462  161.41299438    1.85000002    1.69000006
   14.61277771  165.57099915    1.85000002    1.69000006
   14.61583328  148.74000549    1.85000002    1.69000006
   14.61916637  148.93899536    1.85000002    1.69000006
   14.62250042  144.07200623    1.85000002    1.69000006
   14.62555599  152.74400330    1.85000002    1.69000006
   14.63166714  152.74400330    1.85000002    1.69000006
   14.63583279  142.20899963    1.85000002    1.69000006
   14.63888836  153.15499878    1.85000002    1.69000006
   14.64222240  133.91299438    1.85000002    1.69000006
   14.64555550  140.57000732    1.85000002    1.69000006
   14.64888859  141.50799561    1.85000002    1.69000006
   14.65194416  157.04299927    1.85000002    1.69000006
   14.65527725  152.12399292    1.85000002    1.69000006
   14.65833282  157.34700012    1.85000002    1.69000006
   14.66166592  142.52099609    1.85000002    1.69000006
   14.66361046  146.29899597    1.85000002    1.69000006
   14.66527748  150.00000000    1.85000002    1.69000006
   14.66861153  144.05499268    1.85000002    1.69000006
   14.67444515  144.05499268    1.85000002    1.69000006
   14.67861176  143.20899963    1.85000002    1.69000006
   14.68194485  153.41299438    1.85000002    1.69000006
   14.68500042  148.72399902    1.85000002    1.69000006
   14.68833351  152.67300415    1.85000002    1.69000006
   14.69166660  156.80400085    1.85000002    1.69000006
   14.69472218  145.42300415    1.85000002    1.69000006
   14.69694424  153.83200073    1.85000002    1.69000006
   14.69833374  155.30299377    1.85000002    1.69000006
   14.70166683  136.67199707    1.85000002    1.69000006
   14.70499992  143.58200073    1.85000002    1.69000006
   14.70805550  136.40199280    1.85000002    1.69000006
   14.71138859  143.85400391    1.85000002    1.69000006
   14.71722221  143.85400391    1.85000002    1.69000006
   14.72138882  136.27099609    1.85000002    1.69000006
   14.72472191  132.05099487    1.85000002    1.69000006
   14.72805500  153.63000488    1.85000002    1.69000006
   14.73027706  138.10000610    1.85000002    1.69000006
   14.73166656  137.30400085    1.85000002    1.69000006
   14.73500061  137.59399414    1.85000002    1.69000006
   14.73805618  147.55099487    1.85000002    1.69000006
   14.74138927  145.72500610    1.85000002    1.69000006
   14.74472237  137.64100647    1.85000002    1.69000006
   14.74777794  144.95500183    1.85000002    1.69000006
   14.75111103  147.25100708    1.85000002    1.69000006
   14.75444412  147.72999573    1.85000002    1.69000006
   14.76027775  147.72999573    1.85000002    1.69000006
   14.76416683  139.90899658    1.85000002    1.69000006
   14.76749992  138.92799377    1.85000002    1.69000006
   14.77083302  131.31100464    1.85000002    1.69000006
   14.77388859  137.41200256    1.85000002    1.69000006
   14.77722168  135.62699890    1.85000002    1.69000006
   14.78027725  138.95199585    1.85000002    1.69000006
   14.78361130  145.05099487    1.85000002    1.69000006
   14.78694534  149.72599792    1.85000002    1.69000006
   14.79000092  147.63000488    1.85000002    1.69000006
   14.79333401  129.32400513    1.85000002    1.69000006
   14.79666710  135.40199280    1.85000002    1.69000006
   14.79694462  142.60600281    1.85000002    1.69000006
   14.80305576  142.60600281    1.85000002    1.69000006
   14.80722237  123.57199860    1.85000002    1.69000006
   14.81027794  133.08000183    1.85000002    1.69000006
   14.81361103  125.48300171    1.85000002    1.69000006
   14.81694412  126.62999725    1.85000002    1.69000006
   14.81999969  127.64399719    1.85000002    1.69000006
   14.82333374  128.30499268    1.85000002    1.69000006
   14.82638836  134.77799988    1.85000002    1.69000006
   14.82972240  127.59500122    1.85000002    1.69000006
   14.83027744  131.32800293    1.85000002    1.69000006
   14.83333302  121.43699646    1.85000002    1.69000006
   14.83666611  139.60400391    1.85000002    1.69000006
   14.83972168  127.18900299    1.85000002    1.69000006
   14.84583282  127.18900299    1.85000002    1.69000006
   14.85000038  124.07299805    1.85000002    1.69000006
   14.85305595  116.94400024    1.85000002    1.69000006
   14.85638905  132.46200562    1.85000002    1.69000006
   14.85972214  135.77400208    1.85000002    1.69000006
   14.86277771  139.75300598    1.85000002    1.69000006
   14.86361122  121.90100098    1.85000002    1.69000006
   14.86638927  137.61000061    1.85000002    1.69000006
   14.86972237  130.87600708    1.85000002    1.69000006
   14.87277794  112.01000214    1.85000002    1.69000006
   14.87611103  132.61399841    1.85000002    1.69000006
   14.87916660  134.96299744    1.85000002    1.69000006
   14.88249969  137.85800171    1.85000002    1.69000006
   14.88861084  137.85800171    1.85000002    1.69000006
   14.89277744  129.25799561    1.85000002    1.69000006
   14.89611053  121.56400299    1.85000002    1.69000006
   14.89694405  123.07499695    1.85000002    1.69000006
   14.89972210  132.48699951    1.85000002    1.69000006
   14.90305519  128.47599792    1.85000002    1.69000006
   14.90611076  129.39300537    1.85000002    1.69000006
   14.90944386  130.63699341    1.85000002    1.69000006
   14.91277695  116.74500275    1.85000002    1.69000006
   14.91583252  127.28700256    1.85000002    1.69000006
   14.91916656  120.98100281    1.85000002    1.69000006
   14.92250061  124.77799988    1.85000002    1.69000006
   14.92555618  134.89100647    1.85000002    1.69000006
   14.93166733  134.89100647    1.85000002    1.69000006
   14.93555546  125.76599884    1.85000002    1.69000006
   14.93888855  134.99600220    1.85000002    1.69000006
   14.94222260  127.59999847    1.85000002    1.69000006
   14.94527817  115.98999786    1.85000002    1.69000006
   14.94861126  121.18699646    1.85000002    1.69000006
   14.95194435  133.04699707    1.85000002    1.69000006
   14.95499992  128.64900208    1.85000002    1.69000006
   14.95833302  125.27100372    1.85000002    1.69000006
   14.96138859  116.40699768    1.85000002    1.69000006
   14.96361065  118.59600067    1.85000002    1.69000006
   14.96500015  104.37999725    1.85000002    1.69000006
   14.96833324  111.16000366    1.85000002    1.69000006
   14.97444439  111.16000366    1.85000002    1.69000006
   14.97861099  106.74500275    1.85000002    1.69000006
   14.98166656  108.13999939    1.85000002    1.69000006
   14.98500061  108.77200317    1.85000002    1.69000006
   14.98833370  111.11499786    1.85000002    1.69000006
   14.99138927  121.81500244    1.85000002    1.69000006
   14.99472237  117.35099792    1.85000002    1.69000006
   14.99694443  106.10800171    1.85000002    1.69000006
   14.99833393  113.37799835    1.85000002    1.69000006
   15.00166702  114.40299988    1.85000002    1.69000006
   15.00472260  123.21199799    1.85000002    1.69000006
   15.00805569  117.13899994    1.85000002    1.69000006
   15.01138878  115.34100342    1.85000002    1.69000006
   15.01722240  115.34100342    1.85000002    1.69000006
   15.02138901  117.26599884    1.85000002    1.69000006
   15.02472210  128.28100586    1.85000002    1.69000006
   15.02777767  111.90499878    1.85000002    1.69000006
   15.04527855  102.19100189    1.85000002    1.69000006
   15.04777813  106.76999664    1.85000002    1.69000006
   15.05083370  112.03600311    1.85000002    1.69000006
   15.05416679  109.25399780    1.85000002    1.69000006
   15.06027794  109.25399780    1.85000002    1.69000006
   15.06444454  112.89600372    1.85000002    1.69000006
   15.06777763   99.96510315    1.85000002    1.69000006
   15.07083321   99.57270050    1.85000002    1.69000006
   15.07416630  103.28299713    1.85000002    1.69000006
   15.07722187   94.53639984    1.85000002    1.69000006
   15.07861137  101.79199982    1.85000002    1.69000006
   15.08111095  109.12799835    1.85000002    1.69000006
   15.08444405   88.51129913    1.85000002    1.69000006
   15.08749962  104.34899902    1.85000002    1.69000006
   15.09083271  105.83200073    1.85000002    1.69000006
   15.09388828  103.84200287    1.85000002    1.69000006
   15.09722233  112.17600250    1.85000002    1.69000006
   15.10305595  112.17600250    1.85000002    1.69000006
   15.10722256  113.92900085    1.85000002    1.69000006
   15.11055565  114.69799805    1.85000002    1.69000006
   15.11194515  101.36199951    1.85000002    1.69000006
   15.11416721  107.13800049    1.85000002    1.69000006
   15.11722279  106.18599701    1.85000002    1.69000006
   15.12055588  106.39399719    1.85000002    1.69000006
   15.12388897  108.23899841    1.85000002    1.69000006
   15.12694454  109.62200165    1.85000002    1.69000006
   15.13027763  105.46199799    1.85000002    1.69000006
   15.13361073  101.58200073    1.85000002    1.69000006
   15.13666630  104.20899963    1.85000002    1.69000006
   15.14000034   99.57969666    1.85000002    1.69000006
   15.14583302   99.57969666    1.85000002    1.69000006
   15.14999962  110.54299927    1.85000002    1.69000006
   15.15333271   92.32489777    1.85000002    1.69000006
   15.15638828   95.60050201    1.85000002    1.69000006
   15.15972137  101.71199799    1.85000002    1.69000006
   15.16305542  113.55300140    1.85000002    1.69000006
   15.16611099  101.04000092    1.85000002    1.69000006
   15.16944504  108.70500183    1.85000002    1.69000006
   15.17277813   96.34300232    1.85000002    1.69000006
   15.17583370   98.66470337    1.85000002    1.69000006
   15.17861176  101.64299774    1.85000002    1.69000006
   15.17944431   91.90859985    1.85000002    1.69000006
   15.18277836   91.12059784    1.85000002    1.69000006
   15.18888855   91.12059784    1.85000002    1.69000006
   15.19277763   93.02549744    1.85000002    1.69000006
   15.19611073   99.60690308    1.85000002    1.69000006
   15.19944477   86.38680267    1.85000002    1.69000006
   15.20249939  102.35900116    1.85000002    1.69000006
   15.20583344   89.73290253    1.85000002    1.69000006
   15.20916653  105.35199738    1.85000002    1.69000006
   15.21194458  101.35600281    1.85000002    1.69000006
   15.21277714   97.43640137    1.85000002    1.69000006
   15.21583271  100.72399902    1.85000002    1.69000006
   15.21916580   90.17569733    1.85000002    1.69000006
   15.22249985   91.94830322    1.85000002    1.69000006
   15.22555542   92.92790222    1.85000002    1.69000006
   15.23166656   92.92790222    1.85000002    1.69000006
   15.23583317   92.83609772    1.85000002    1.69000006
   15.23916721   98.03990173    1.85000002    1.69000006
   15.24250031   91.60250092    1.85000002    1.69000006
   15.24527836   82.85310364    1.85000002    1.69000006
   15.24611092   95.60610199    1.85000002    1.69000006
   15.24944496   99.39859772    1.85000002    1.69000006
   15.25249958   96.91079712    1.85000002    1.69000006
   15.25583363   89.72209930    1.85000002    1.69000006
   15.25916672   92.70770264    1.85000002    1.69000006
   15.26222229   94.24849701    1.85000002    1.69000006
   15.26555538   90.95269775    1.85000002    1.69000006
   15.26888847  101.05599976    1.85000002    1.69000006
   15.27444458  101.05599976    1.85000002    1.69000006
   15.27861118   94.27709961    1.85000002    1.69000006
   15.27916622   97.90740204    1.85000002    1.69000006
   15.28222179   87.43740082    1.85000002    1.69000006
   15.28555584  100.58599854    1.85000002    1.69000006
   15.28888893   92.38600159    1.85000002    1.69000006
   15.29194450   96.74919891    1.85000002    1.69000006
   15.29527855   94.65480042    1.85000002    1.69000006
   15.29833412   88.16860199    1.85000002    1.69000006
   15.30166721   91.69270325    1.85000002    1.69000006
   15.30500031   98.69830322    1.85000002    1.69000006
   15.30805588   92.97750092    1.85000002    1.69000006
   15.31138897   89.98449707    1.85000002    1.69000006
   15.31250000   93.47720337    1.85000002    1.69000006
   15.31722260   93.47720337    1.85000002    1.69000006
   15.32138920   84.44300079    1.85000002    1.69000006
   15.32472229   87.25170135    1.85000002    1.69000006
   15.32777786   94.09799957    1.85000002    1.69000006
   15.33111095   98.64559937    1.85000002    1.69000006
   15.33444405   97.40779877    1.85000002    1.69000006
   15.33749962   87.09020233    1.85000002    1.69000006
   15.34083271   92.81340027    1.85000002    1.69000006
   15.34416676   85.02770233    1.85000002    1.69000006
   15.34583282   80.93810272    1.85000002    1.69000006
   15.34749985   90.47480011    1.85000002    1.69000006
   15.35083389   84.78340149    1.85000002    1.69000006
   15.35416698   86.34279633    1.85000002    1.69000006
   15.36027813   86.34279633    1.85000002    1.69000006
   15.36416721   88.84929657    1.85000002    1.69000006
   15.36750031   89.75319672    1.85000002    1.69000006
   15.37083340   81.65190125    1.85000002    1.69000006
   15.37388897   97.49079895    1.85000002    1.69000006
   15.37722206   95.71949768    1.85000002    1.69000006
   15.37916660   91.98339844    1.85000002    1.69000006
   15.38055611   93.45279694    1.85000002    1.69000006
   15.38388920   81.27200317    1.85000002    1.69000006
   15.38722229   87.29399872    1.85000002    1.69000006
   15.39027786   83.93029785    1.85000002    1.69000006
   15.39361095   80.52629852    1.85000002    1.69000006
   15.39694405   89.64640045    1.85000002    1.69000006
   15.40305519   89.64640045    1.85000002    1.69000006
   15.40722179   83.15419769    1.85000002    1.69000006
   15.41027737   86.68939972    1.85000002    1.69000006
   15.51361084   -1.00000000   -1.00000000   -1.00000000
   15.66499996   -1.00000000   -1.00000000   -1.00000000
   15.77583313   -1.00000000   -1.00000000   -1.00000000
   15.81027794  105.65599823    1.85000002    1.69000006
   15.81361103  125.98500061    1.85000002    1.69000006
   15.81666660   98.02549744    1.85000002    1.69000006
   15.81999969  107.51999664    1.85000002    1.69000006
   15.82305527  142.35600281    1.85000002    1.69000006
   15.82638836  120.50399780    1.85000002    1.69000006
   15.83055592  120.50399780    1.85000002    1.69000006
   15.83472157  103.59700012    1.85000002    1.69000006
   15.83777714  121.03800201    1.85000002    1.69000006
   15.84111118  110.12599945    1.85000002    1.69000006
   15.84361076  103.25399780    1.85000002    1.69000006
   15.84472179  122.88300323    1.85000002    1.69000006
   15.84777737  100.70200348    1.85000002    1.69000006
   15.85111141   96.85590363    1.85000002    1.69000006
   15.85416698  104.68900299    1.85000002    1.69000006
   15.85750008   94.22109985    1.85000002    1.69000006
   15.86083412   93.22190094    1.85000002    1.69000006
   15.86388969   99.18139648    1.85000002    1.69000006
   15.86722279  116.45300293    1.85000002    1.69000006
   15.87333393  116.45300293    1.85000002    1.69000006
   15.87750053  103.03099823    1.85000002    1.69000006
   15.88083363   99.36720276    1.85000002    1.69000006
   15.88416672   87.30809784    1.85000002    1.69000006
   15.88749981   88.96320343    1.85000002    1.69000006
   15.89055538   92.39559937    1.85000002    1.69000006
   15.89388847   91.88729858    1.85000002    1.69000006
   15.89694405   87.84590149    1.85000002    1.69000006
   15.90027714   85.62799835    1.85000002    1.69000006
   15.90361118   88.55329895    1.85000002    1.69000006
   15.90666676   91.58470154    1.85000002    1.69000006
   15.90999985   89.82080078    1.85000002    1.69000006
   15.91055489   97.86000061    1.85000002    1.69000006
   15.91611099   97.86000061    1.85000002    1.69000006
   15.92027855   90.29609680    1.85000002    1.69000006
   15.92361164   92.02100372    1.85000002    1.69000006
   15.92694473   94.05690002    1.85000002    1.69000006
   15.93000031   93.38449860    1.85000002    1.69000006
   15.93333340   92.78119659    1.85000002    1.69000006
   15.93638897   95.45809937    1.85000002    1.69000006
   15.93972206  104.63400269    1.85000002    1.69000006
   15.94305515   98.53880310    1.85000002    1.69000006
   15.94388866  103.76699829    1.85000002    1.69000006
   15.94638920   93.73470306    1.85000002    1.69000006
   15.94972229  119.12799835    1.85000002    1.69000006
   15.95305538  109.84899902    1.85000002    1.69000006
   15.95916653  109.84899902    1.85000002    1.69000006
   15.96333313  117.40799713    1.85000002    1.69000006
   15.96638870   87.28649902    1.85000002    1.69000006
   15.96972179  134.10099792    1.85000002    1.69000006
   15.97277737  128.39900208    1.85000002    1.69000006
   15.97611046  122.21099854    1.85000002    1.69000006
   15.97722149  123.81600189    1.85000002    1.69000006
   15.97972202  139.29800415    1.85000002    1.69000006
   15.98305511  128.37899780    1.85000002    1.69000006
   15.98638916  117.85299683    1.85000002    1.69000006
   15.98944473  120.01000214    1.85000002    1.69000006
   15.99277782  117.04100037    1.85000002    1.69000006
   15.99611092  112.42099762    1.85000002    1.69000006
   16.00194359  112.42099762    1.85000002    1.69000006
   16.00611115  108.59799957    1.85000002    1.69000006
   16.00916672  117.79199982    1.85000002    1.69000006
   16.01055527  117.61100006    1.85000002    1.69000006
   16.01277733  122.87799835    1.85000002    1.69000006
   16.01611137  113.92600250    1.85000002    1.69000006
   16.01944351  108.46399689    1.85000002    1.69000006
   16.02249908  113.07599640    1.85000002    1.69000006
   16.02583313  110.70099640    1.85000002    1.69000006
   16.02916718   99.59359741    1.85000002    1.69000006
   16.03222275  106.38200378    1.85000002    1.69000006
   16.03555489  105.33599854    1.85000002    1.69000006
   16.03861046  114.93199921    1.85000002    1.69000006
   16.04472160  114.93199921    1.85000002    1.69000006
   16.04888916  117.89099884    1.85000002    1.69000006
   16.05222130  104.39499664    1.85000002    1.69000006
   16.05527687  110.01999664    1.85000002    1.69000006
   16.05861092  102.86799622    1.85000002    1.69000006
   16.06166649  110.16300201    1.85000002    1.69000006
   16.06499863  104.58100128    1.85000002    1.69000006
   16.06833458  104.98799896    1.85000002    1.69000006
   16.07139015  109.74800110    1.85000002    1.69000006
   16.07472229  107.88700104    1.85000002    1.69000006
   16.07722282  104.22299957    1.85000002    1.69000006
   16.07805634  104.79299927    1.85000002    1.69000006
   16.08139038  112.96900177    1.85000002    1.69000006
   16.08750153  112.96900177    1.85000002    1.69000006
   16.09166718  104.19599915    1.85000002    1.69000006
   16.09500122  103.75099945    1.85000002    1.69000006
   16.09805679   99.57189941    1.85000002    1.69000006
   16.10138893  104.45899963    1.85000002    1.69000006
   16.10472298  106.48200226    1.85000002    1.69000006
   16.10777855  104.82199860    1.85000002    1.69000006
   16.11055565  114.89299774    1.85000002    1.69000006
   16.11138916  102.98100281    1.85000002    1.69000006
   16.11472321  107.06600189    1.85000002    1.69000006
   16.11805534  108.70300293    1.85000002    1.69000006
   16.12111092  107.26000214    1.85000002    1.69000006
   16.12444496  101.13300323    1.85000002    1.69000006
   16.13055611  101.13300323    1.85000002    1.69000006
   16.13444519  100.46199799    1.85000002    1.69000006
   16.13777733   95.87999725    1.85000002    1.69000006
   16.14111137  105.55400085    1.85000002    1.69000006
   16.14388847   98.79399872    1.85000002    1.69000006
   16.14444351  103.50499725    1.85000002    1.69000006
   16.14777756   96.87799835    1.85000002    1.69000006
   16.15111160   99.97389984    1.85000002    1.69000006
   16.15416718   96.27149963    1.85000002    1.69000006
   16.15749931  107.93499756    1.85000002    1.69000006
   16.16083336  103.08100128    1.85000002    1.69000006
   16.16388893   97.87049866    1.85000002    1.69000006
   16.16722107  104.66100311    1.85000002    1.69000006
   16.17333221  104.66100311    1.85000002    1.69000006
   16.17749977  112.65299988    1.85000002    1.69000006
   16.18055534   99.20839691    1.85000002    1.69000006
   16.18388748   92.03849792    1.85000002    1.69000006
   16.18722153   96.04090118    1.85000002    1.69000006
   16.19027710  103.79100037    1.85000002    1.69000006
   16.19361115  100.91699982    1.85000002    1.69000006
   16.19694328  110.65299988    1.85000002    1.69000006
   16.20000076  104.26300049    1.85000002    1.69000006
   16.20333481  100.56400299    1.85000002    1.69000006
   16.20639038  106.52600098    1.85000002    1.69000006
   16.20972252   94.17569733    1.85000002    1.69000006
   16.21055603   97.19619751    1.85000002    1.69000006
   16.21611214   97.19619751    1.85000002    1.69000006
   16.22027779   92.43730164    1.85000002    1.69000006
   16.22361183  100.80500031    1.85000002    1.69000006
   16.22666740  102.08599854    1.85000002    1.69000006
   16.23000145  105.95500183    1.85000002    1.69000006
   16.23305511  104.03399658    1.85000002    1.69000006
   16.23638916  105.56600189    1.85000002    1.69000006
   16.23972321  106.69100189    1.85000002    1.69000006
   16.24277878   95.73390198    1.85000002    1.69000006
   16.24388885   92.97419739    1.85000002    1.69000006
   16.24666786   96.78359985    1.85000002    1.69000006
   16.24972153   97.04969788    1.85000002    1.69000006
   16.25305557   96.00520325    1.85000002    1.69000006
   16.25888824   96.00520325    1.85000002    1.69000006
   16.26305580   97.86910248    1.85000002    1.69000006
   16.26638794   93.68820190    1.85000002    1.69000006
   16.26944351   92.93849945    1.85000002    1.69000006
   16.27277756   91.86740112    1.85000002    1.69000006
   16.27611160   96.90769958    1.85000002    1.69000006
   16.27722168   91.36029816    1.85000002    1.69000006
   16.27972221   95.71649933    1.85000002    1.69000006
   16.28277779  100.61699677    1.85000002    1.69000006
   16.28610992   99.44480133    1.85000002    1.69000006
   16.28916550   99.03060150    1.85000002    1.69000006
   16.29249954   99.83360291    1.85000002    1.69000006
   16.29583359   98.20230103    1.85000002    1.69000006
   16.30194283   98.20230103    1.85000002    1.69000006
   16.30583191  102.41600037    1.85000002    1.69000006
   16.30916595  102.70700073    1.85000002    1.69000006
   16.31055450   99.24130249    1.85000002    1.69000006
   16.31277657   98.06060028    1.85000002    1.69000006
   16.31583214   94.70570374    1.85000002    1.69000006
   16.31916809  100.52400208    1.85000002    1.69000006
   16.32250023  102.49700165    1.85000002    1.69000006
   16.32583427   96.32920074    1.85000002    1.69000006
   16.32888985   91.00109863    1.85000002    1.69000006
   16.33222389   98.47560120    1.85000002    1.69000006
   16.33527756   98.12449646    1.85000002    1.69000006
   16.33861160   99.76280212    1.85000002    1.69000006
   16.34472275   99.76280212    1.85000002    1.69000006
   16.34889030   97.59549713    1.85000002    1.69000006
   16.35194397   87.16300201    1.85000002    1.69000006
   16.35527802   97.46649933    1.85000002    1.69000006
   16.35861206   98.25559998    1.85000002    1.69000006
   16.36166763   95.80319977    1.85000002    1.69000006
   16.36499977   92.53890228    1.85000002    1.69000006
   16.36833382   96.96759796    1.85000002    1.69000006
   16.37138939   97.18460083    1.85000002    1.69000006
   16.37472153   98.73570251    1.85000002    1.69000006
   16.37722206   95.09020233    1.85000002    1.69000006
   16.37833405   95.15360260    1.85000002    1.69000006
   16.38138962   94.02239990    1.85000002    1.69000006
   16.38750076   94.02239990    1.85000002    1.69000006
   16.39166641   97.82080078    1.85000002    1.69000006
   16.39500046   98.16320038    1.85000002    1.69000006
   16.39805603   93.81639862    1.85000002    1.69000006
   16.40138817   97.10990143    1.85000002    1.69000006
   16.40472221   98.67539978    1.85000002    1.69000006
   16.40777779   98.69450378    1.85000002    1.69000006
   16.41055489   98.73190308    1.85000002    1.69000006
   16.41166687  105.39299774    1.85000002    1.69000006
   16.41472244  100.33100128    1.85000002    1.69000006
   16.41805458  103.45800018    1.85000002    1.69000006
   16.42111015   95.74310303    1.85000002    1.69000006
   16.42444420   96.49389648    1.85000002    1.69000006
   16.43027687   96.49389648    1.85000002    1.69000006
   16.43444443   88.43280029    1.85000002    1.69000006
   16.43777657   86.81839752    1.85000002    1.69000006
   16.44083214  100.65100098    1.85000002    1.69000006
   16.44388771   89.45619965    1.85000002    1.69000006
   16.44472122   98.86660004    1.85000002    1.69000006
   16.44777679   93.39720154    1.85000002    1.69000006
   16.45111275   95.50610352    1.85000002    1.69000006
   16.45444489   95.33049774    1.85000002    1.69000006
   16.45750046   91.41600037    1.85000002    1.69000006
   16.46083450  104.41100311    1.85000002    1.69000006
   16.46389008   91.96579742    1.85000002    1.69000006
   16.46722221   95.62370300    1.85000002    1.69000006
   16.47333336   95.62370300    1.85000002    1.69000006
   16.47722244   93.61370087    1.85000002    1.69000006
   16.48055649   99.32820129    1.85000002    1.69000006
   16.48388863  100.29900360    1.85000002    1.69000006
   16.48694420   94.57209778    1.85000002    1.69000006
   16.49027824  107.54199982    1.85000002    1.69000006
   16.49361229   92.27050018    1.85000002    1.69000006
   16.49666786   92.45140076    1.85000002    1.69000006
   16.50000000   94.38890076    1.85000002    1.69000006
   16.50305557   97.34660339    1.85000002    1.69000006
   16.50638962   94.77899933    1.85000002    1.69000006
   16.50972176   94.55039978    1.85000002    1.69000006
   16.51055527   92.25800323    1.85000002    1.69000006
   16.51611137   92.25800323    1.85000002    1.69000006
   16.52027702  101.68099976    1.85000002    1.69000006
   16.52333260   95.57469940    1.85000002    1.69000006
   16.52666664   98.52639771    1.85000002    1.69000006
   16.53000069   95.37889862    1.85000002    1.69000006
   16.53305435   90.55709839    1.85000002    1.69000006
   16.53638840   96.04219818    1.85000002    1.69000006
   16.53944397   98.53029633    1.85000002    1.69000006
   16.54305458  101.12799835    1.85000002    1.69000006
   16.54388809   94.63860321    1.85000002    1.69000006
   16.54666710   99.59449768    1.85000002    1.69000006
   16.54972076   97.03869629    1.85000002    1.69000006
   16.55305481  101.04499817    1.85000002    1.69000006
   16.55888748  101.04499817    1.85000002    1.69000006
   16.56305504  110.55799866    1.85000002    1.69000006
   16.56638718  132.31599426    1.85000002    1.69000006
   16.56944466  151.83299255    1.85000002    1.69000006
   16.57277870  135.80700684    1.85000002    1.69000006
   16.57611275  143.27699280    1.85000002    1.69000006
   16.57722282  128.57499695    1.85000002    1.69000006
   16.57972336  135.25399780    1.85000002    1.69000006
   16.58277893  137.28999329    1.85000002    1.69000006
   16.58611107  154.95599365    1.85000002    1.69000006
   16.58944511  130.69500732    1.85000002    1.69000006
   16.59250069  160.34399414    1.85000002    1.69000006
   16.59583473  134.12899780    1.85000002    1.69000006
   16.60166740  134.12899780    1.85000002    1.69000006
   16.60583305  132.24600220    1.85000002    1.69000006
   16.60916710  119.82199860    1.85000002    1.69000006
   16.61055565  138.68899536    1.85000002    1.69000006
   16.61277771  128.94299316    1.85000002    1.69000006
   16.61583328  148.63200378    1.85000002    1.69000006
   16.61916733  124.28700256    1.85000002    1.69000006
   16.62249947  143.58700562    1.85000002    1.69000006
   16.62555504  116.95600128    1.85000002    1.69000006
   16.62888908  123.06400299    1.85000002    1.69000006
   16.63194466  142.84700012    1.85000002    1.69000006
   16.63527679  132.36500549    1.85000002    1.69000006
   16.63861084  133.43600464    1.85000002    1.69000006
   16.64472198  133.43600464    1.85000002    1.69000006
   16.64861107  129.61999512    1.85000002    1.69000006
   16.65194321  132.33599854    1.85000002    1.69000006
   16.65527725  131.93899536    1.85000002    1.69000006
   16.65833282  120.91400146    1.85000002    1.69000006
   16.66166687  128.21200562    1.85000002    1.69000006
   16.66499901  130.00300598    1.85000002    1.69000006
   16.66805458  123.41999817    1.85000002    1.69000006
   16.67138863  122.46199799    1.85000002    1.69000006
   16.67472076  135.50500488    1.85000002    1.69000006
   16.67722130  135.19900513    1.85000002    1.69000006
   16.67833328  129.21000671    1.85000002    1.69000006
   16.68138885  127.14299774    1.85000002    1.69000006
   16.68750000  127.14299774    1.85000002    1.69000006
   16.69166565  122.36100006    1.85000002    1.69000006
   16.69472122  124.46800232    1.85000002    1.69000006
   16.69805527  131.64100647    1.85000002    1.69000006
   16.70111275  121.69599915    1.85000002    1.69000006
   16.70444489  103.85500336    1.85000002    1.69000006
   16.70777893  124.95200348    1.85000002    1.69000006
   16.71055603  112.24800110    1.85000002    1.69000006
   16.71138954  111.22000122    1.85000002    1.69000006
   16.71472359  117.14099884    1.85000002    1.69000006
   16.71805573  119.61699677    1.85000002    1.69000006
   16.72111130   98.20010376    1.85000002    1.69000006
   16.72444534  119.86799622    1.85000002    1.69000006
   16.73027802  119.86799622    1.85000002    1.69000006
   16.73444557  110.94100189    1.85000002    1.69000006
   16.73750114  117.65799713    1.85000002    1.69000006
   16.74111176  115.29499817    1.85000002    1.69000006
   16.74388885  102.44499969    1.85000002    1.69000006
   16.74472237  113.06300354    1.85000002    1.69000006
   16.74777794  103.49800110    1.85000002    1.69000006
   16.75111198  108.83899689    1.85000002    1.69000006
   16.75444412  114.68599701    1.85000002    1.69000006
   16.75749969  109.85600281    1.85000002    1.69000006
   16.76083374  102.20999908    1.85000002    1.69000006
   16.76416588  108.20600128    1.85000002    1.69000006
   16.76722145  109.58100128    1.85000002    1.69000006
   16.77305603  109.58100128    1.85000002    1.69000006
   16.77722168  104.76899719    1.85000002    1.69000006
   16.77777672  108.51999664    1.85000002    1.69000006
   16.78083229  108.63400269    1.85000002    1.69000006
   16.78416634  106.66899872    1.85000002    1.69000006
   16.78750038  112.20700073    1.85000002    1.69000006
   16.79055595  108.54399872    1.85000002    1.69000006
   16.79388809  104.45099640    1.85000002    1.69000006
   16.79722214  103.42700195    1.85000002    1.69000006
   16.80027771  117.55599976    1.85000002    1.69000006
   16.80360985  105.71600342    1.85000002    1.69000006
   16.80666542  108.81500244    1.85000002    1.69000006
   16.80999947   91.11920166    1.85000002    1.69000006
   16.81055450  110.85800171    1.85000002    1.69000006
   16.83139038  110.85800171    1.85000002    1.69000006
   16.83555603  103.59899902    1.85000002    1.69000006
   16.83861160  105.34899902    1.85000002    1.69000006
   16.84194565  100.48600006    1.85000002    1.69000006
   16.84388924  107.45400238    1.85000002    1.69000006
   16.84555626  101.35399628    1.85000002    1.69000006
   16.84861183  105.13500214    1.85000002    1.69000006
   16.85194397  100.64399719    1.85000002    1.69000006
   16.85527802  102.10900116    1.85000002    1.69000006
   16.85833359  105.52700043    1.85000002    1.69000006
   16.86166763   93.24909973    1.85000002    1.69000006
   16.86499977  100.20800018    1.85000002    1.69000006
   16.86805534   99.05359650    1.85000002    1.69000006
   16.87388992   99.05359650    1.85000002    1.69000006
   16.87805557   99.93910217    1.85000002    1.69000006
   16.88138962   94.43019867    1.85000002    1.69000006
   16.88472176  102.27200317    1.85000002    1.69000006
   16.88777733  105.07499695    1.85000002    1.69000006
   16.89111137   98.71980286    1.85000002    1.69000006
   16.89444351   97.56120300    1.85000002    1.69000006
   16.89749908  103.53299713    1.85000002    1.69000006
   16.90083313  101.85600281    1.85000002    1.69000006
   16.90388870   97.02890015    1.85000002    1.69000006
   16.90722275  106.50299835    1.85000002    1.69000006
   16.91055489   95.43830109    1.85000002    1.69000006
   16.91083336  101.09300232    1.85000002    1.69000006
   16.91694450  101.09300232    1.85000002    1.69000006
   16.92111015  103.10900116    1.85000002    1.69000006
   16.92416573  109.81500244    1.85000002    1.69000006
   16.92749977  107.52300262    1.85000002    1.69000006
   16.93083191  103.78500366    1.85000002    1.69000006
   16.93388748  101.43499756    1.85000002    1.69000006
   16.93722153  104.89700317    1.85000002    1.69000006
   16.94055557  102.89099884    1.85000002    1.69000006
   16.94361115  110.08200073    1.85000002    1.69000006
   16.94416618  100.91600037    1.85000002    1.69000006
   16.94722176  107.87400055    1.85000002    1.69000006
   16.95055580   98.81739807    1.85000002    1.69000006
   16.95361137   99.03420258    1.85000002    1.69000006
   16.95972252   99.03420258    1.85000002    1.69000006
   16.96389008  102.17700195    1.85000002    1.69000006
   16.96722221  104.81999969    1.85000002    1.69000006
   16.97027779  111.38800049    1.85000002    1.69000006
   16.97361183  106.14399719    1.85000002    1.69000006
   16.97666740  102.98200226    1.85000002    1.69000006
   16.97750092  101.66500092    1.85000002    1.69000006
   16.98027802  110.30300140    1.85000002    1.69000006
   16.98361206  106.25099945    1.85000002    1.69000006
   16.98666763  108.26899719    1.85000002    1.69000006
   16.98999977  107.56099701    1.85000002    1.69000006
   16.99333382   88.10209656    1.85000002    1.69000006
   16.99638939   93.61309814    1.85000002    1.69000006
   17.00250053   93.61309814    1.85000002    1.69000006
   17.00666618  103.53399658    1.85000002    1.69000006
   17.01000023  107.57499695    1.85000002    1.69000006
   17.01111031  113.59999847    1.85000002    1.69000006
   17.01361084  101.64399719    1.85000002    1.69000006
   17.01694489  108.15699768    1.85000002    1.69000006
   17.02000046  111.24900055    1.85000002    1.69000006
   17.02333260  106.52600098    1.85000002    1.69000006
   17.02666664  101.74700165    1.85000002    1.69000006
   17.02972221  103.60199738    1.85000002    1.69000006
   17.03305435   99.40689850    1.85000002    1.69000006
   17.03638840  104.64800262    1.85000002    1.69000006
   17.03944397  106.29900360    1.85000002    1.69000006
   17.04555511  106.29900360    1.85000002    1.69000006
   17.04944420   96.93520355    1.85000002    1.69000006
   17.05277634  100.88500214    1.85000002    1.69000006
   17.05611038  102.83999634    1.85000002    1.69000006
   17.05916595  102.72000122    1.85000002    1.69000006
   17.06250000  100.86499786    1.85000002    1.69000006
   17.06583214  101.24700165    1.85000002    1.69000006
   17.06888962  103.82199860    1.85000002    1.69000006
   17.07222366   99.71589661    1.85000002    1.69000006
   17.07555580   93.23509979    1.85000002    1.69000006
   17.07777786  103.52999878    1.85000002    1.69000006
   17.07888985  103.24099731    1.85000002    1.69000006
   17.08222389   99.36750031    1.85000002    1.69000006
   17.08833313   99.36750031    1.85000002    1.69000006
   17.09250069  106.00499725    1.85000002    1.69000006
   17.09555626   99.51789856    1.85000002    1.69000006
   17.09889030  104.71099854    1.85000002    1.69000006
   17.10222244  106.95700073    1.85000002    1.69000006
   17.10527802  101.98600006    1.85000002    1.69000006
   17.10861206  104.48500061    1.85000002    1.69000006
   17.11111069  102.83899689    1.85000002    1.69000006
   17.11222267   96.26170349    1.85000002    1.69000006
   17.11555672  104.44200134    1.85000002    1.69000006
   17.11861038   99.87079620    1.85000002    1.69000006
   17.12194443   97.30940247    1.85000002    1.69000006
   17.12527847   95.44049835    1.85000002    1.69000006
   17.13111115   95.44049835    1.85000002    1.69000006
   17.13527679   96.85030365    1.85000002    1.69000006
   17.13861084   96.72899628    1.85000002    1.69000006
   17.14166641   99.21199799    1.85000002    1.69000006
   17.14444351   98.72940063    1.85000002    1.69000006
   17.14527702  102.90399933    1.85000002    1.69000006
   17.14861107   89.72149658    1.85000002    1.69000006
   17.15194321   93.61879730    1.85000002    1.69000006
   17.15499878   97.84059906    1.85000002    1.69000006
   17.15833282   99.90440369    1.85000002    1.69000006
   17.16138840   91.09649658    1.85000002    1.69000006
   17.16472244   95.37270355    1.85000002    1.69000006
   17.16805458  101.49199677    1.85000002    1.69000006
   17.17388916  101.49199677    1.85000002    1.69000006
   17.17805481  100.57099915    1.85000002    1.69000006
   17.18138885   93.69190216    1.85000002    1.69000006
   17.18472099  102.56999969    1.85000002    1.69000006
   17.18777657  100.37799835    1.85000002    1.69000006
   17.19111061   86.49520111    1.85000002    1.69000006
   17.19444275  101.87799835    1.85000002    1.69000006
   17.19749832   95.11940002    1.85000002    1.69000006
   17.20083427   99.30200195    1.85000002    1.69000006
   17.20388985   97.72489929    1.85000002    1.69000006
   17.20722389   92.33200073    1.85000002    1.69000006
   17.21055603   90.03900146    1.85000002    1.69000006
   17.21111107   95.49530029    1.85000002    1.69000006
   17.21694565   95.49530029    1.85000002    1.69000006
   17.22083473   90.44100189    1.85000002    1.69000006
   17.22416687   91.68769836    1.85000002    1.69000006
   17.22750092  102.07299805    1.85000002    1.69000006
   17.23055649   94.88240051    1.85000002    1.69000006
   17.23388863   93.46869659    1.85000002    1.69000006
   17.23722267   92.05740356    1.85000002    1.69000006
   17.24027824   97.45410156    1.85000002    1.69000006
   17.24361229  100.14399719    1.85000002    1.69000006
   17.24444389   99.77700043    1.85000002    1.69000006
   17.24722290   99.32550049    1.85000002    1.69000006
   17.25055504   97.35459900    1.85000002    1.69000006
   17.25361061   98.94309998    1.85000002    1.69000006
   17.25972176   98.94309998    1.85000002    1.69000006
   17.26388931  106.30500031    1.85000002    1.69000006
   17.26694489   85.96820068    1.85000002    1.69000006
   17.27027702   94.44210052    1.85000002    1.69000006
   17.27361107   92.55180359    1.85000002    1.69000006
   17.27666664   88.39759827    1.85000002    1.69000006
   17.27777672   88.52850342    1.85000002    1.69000006
   17.28027725   97.55750275    1.85000002    1.69000006
   17.28361130   95.28630066    1.85000002    1.69000006
   17.28666687   88.04570007    1.85000002    1.69000006
   17.28999901   95.91850281    1.85000002    1.69000006
   17.29333305   99.87979889    1.85000002    1.69000006
   17.29638863   91.42379761    1.85000002    1.69000006
   17.30249977   91.42379761    1.85000002    1.69000006
   17.30666542   97.43800354    1.85000002    1.69000006
   17.30999947   95.82450104    1.85000002    1.69000006
   17.31110954   95.02120209    1.85000002    1.69000006
   17.31333351   91.48370361    1.85000002    1.69000006
   17.31666756   92.17960358    1.85000002    1.69000006
   17.31972313   94.41619873    1.85000002    1.69000006
   17.32305717   92.57620239    1.85000002    1.69000006
   17.32638931   88.07859802    1.85000002    1.69000006
   17.32944489   93.45939636    1.85000002    1.69000006
   17.33277893   84.61630249    1.85000002    1.69000006
   17.33611107   96.51940155    1.85000002    1.69000006
   17.33916664   94.54979706    1.85000002    1.69000006
   17.34527779   94.54979706    1.85000002    1.69000006
   17.34944534  102.24600220    1.85000002    1.69000006
   17.35277748  101.90499878    1.85000002    1.69000006
   17.35583305   96.41850281    1.85000002    1.69000006
   17.35916710  101.06999969    1.85000002    1.69000006
   17.36250114   97.81610107    1.85000002    1.69000006
   17.36555672   93.76170349    1.85000002    1.69000006
   17.36888885   97.15809631    1.85000002    1.69000006
   17.37222290   89.99539948    1.85000002    1.69000006
   17.37527847   94.08080292    1.85000002    1.69000006
   17.37777710   94.40219879    1.85000002    1.69000006
   17.37888908   93.01540375    1.85000002    1.69000006
   17.38222313  103.80500031    1.85000002    1.69000006
   17.38833237  103.80500031    1.85000002    1.69000006
   17.39222145  101.09600067    1.85000002    1.69000006
   17.39555550  102.89600372    1.85000002    1.69000006
   17.39888954   90.52220154    1.85000002    1.69000006
   17.40194321  100.23600006    1.85000002    1.69000006
   17.40527725   98.62429810    1.85000002    1.69000006
   17.40861130   99.56690216    1.85000002    1.69000006
   17.41110992   95.27600098    1.85000002    1.69000006
   17.41194344   96.83329773    1.85000002    1.69000006
   17.41527748  100.26699829    1.85000002    1.69000006
   17.41833305   96.47509766    1.85000002    1.69000006
   17.42166519   99.23780060    1.85000002    1.69000006
   17.42499924   93.40879822    1.85000002    1.69000006
   17.43111038   93.40879822    1.85000002    1.69000006
   17.43527603  101.69599915    1.85000002    1.69000006
   17.43833160  100.33899689    1.85000002    1.69000006
   17.44166565   83.77819824    1.85000002    1.69000006
   17.44444275   99.48660278    1.85000002    1.69000006
   17.44527626   99.10700226    1.85000002    1.69000006
   17.44861031   91.95020294    1.85000002    1.69000006
   17.45166779  103.81700134    1.85000002    1.69000006
   17.45499992  104.45999908    1.85000002    1.69000006
   17.45833397  104.84899902    1.85000002    1.69000006
   17.46138954  102.99099731    1.85000002    1.69000006
   17.46472359   98.56729889    1.85000002    1.69000006
   17.46805573   99.53450012    1.85000002    1.69000006
   17.47389030   99.53450012    1.85000002    1.69000006
   17.47805595  100.75099945    1.85000002    1.69000006
   17.48139000   95.95520020    1.85000002    1.69000006
   17.48444557   96.72850037    1.85000002    1.69000006
   17.48777771   94.93550110    1.85000002    1.69000006
   17.49111176   99.20719910    1.85000002    1.69000006
   17.49416733  102.77400208    1.85000002    1.69000006
   17.49749947  105.72799683    1.85000002    1.69000006
   17.50083351   95.38269806    1.85000002    1.69000006
   17.50388908   95.18779755    1.85000002    1.69000006
   17.50722313  100.15799713    1.85000002    1.69000006
   17.51027870   98.98619843    1.85000002    1.69000006
   17.51111031   92.48030090    1.85000002    1.69000006
   17.51666641   92.48030090    1.85000002    1.69000006
   17.52083397   99.78340149    1.85000002    1.69000006
   17.52416611  109.04399872    1.85000002    1.69000006
   17.52722168   97.99900055    1.85000002    1.69000006
   17.53055573   97.40460205    1.85000002    1.69000006
   17.53388786  101.75499725    1.85000002    1.69000006
   17.53694344  101.69300079    1.85000002    1.69000006
   17.54027748   99.82550049    1.85000002    1.69000006
   17.54361153   99.19920349    1.85000002    1.69000006
   17.54444313   96.22440338    1.85000002    1.69000006
   17.54694366   99.58769989    1.85000002    1.69000006
   17.55027771  102.25800323    1.85000002    1.69000006
   17.55360985   96.61799622    1.85000002    1.69000006
   17.55972099   96.61799622    1.85000002    1.69000006
   17.56388855  102.22599792    1.85000002    1.69000006
   17.56694603   93.04930115    1.85000002    1.69000006
   17.57027817   98.09600067    1.85000002    1.69000006
   17.57333374   96.11630249    1.85000002    1.69000006
   17.57666779  105.19499969    1.85000002    1.69000006
   17.57777786  105.13600159    1.85000002    1.69000006
   17.58027840  108.41899872    1.85000002    1.69000006
   17.58361244  106.69799805    1.85000002    1.69000006
   17.58694458   93.63690186    1.85000002    1.69000006
   17.59000015  102.82099915    1.85000002    1.69000006
   17.59333420  102.84400177    1.85000002    1.69000006
   17.59666824  108.79199982    1.85000002    1.69000006
   17.60250092  108.79199982    1.85000002    1.69000006
   17.60666656  111.89600372    1.85000002    1.69000006
   17.60972214  113.30300140    1.85000002    1.69000006
   17.61111069  110.11799622    1.85000002    1.69000006
   17.61333466  109.60299683    1.85000002    1.69000006
   17.61666679  112.20400238    1.85000002    1.69000006
   17.62000084  116.58499908    1.85000002    1.69000006
   17.62305641  104.03399658    1.85000002    1.69000006
   17.62638855   98.67859650    1.85000002    1.69000006
   17.62972260   95.31340027    1.85000002    1.69000006
   17.63277817  102.53299713    1.85000002    1.69000006
   17.63611031  103.61499786    1.85000002    1.69000006
   17.63944435  100.98000336    1.85000002    1.69000006
   17.64527702  100.98000336    1.85000002    1.69000006
   17.64944458  112.52899933    1.85000002    1.69000006
   17.65277672   96.94850159    1.85000002    1.69000006
   17.65583229  104.51999664    1.85000002    1.69000006
   17.65916634  102.31700134    1.85000002    1.69000006
   17.66250038  104.69100189    1.85000002    1.69000006
   17.66555595  110.28299713    1.85000002    1.69000006
   17.66888809  108.55999756    1.85000002    1.69000006
   17.67222214  105.47200012    1.85000002    1.69000006
   17.67527771  101.41799927    1.85000002    1.69000006
   17.67777634  102.31500244    1.85000002    1.69000006
   17.67888832   99.59259796    1.85000002    1.69000006
   17.68222237  101.06800079    1.85000002    1.69000006
   17.68805504  101.06800079    1.85000002    1.69000006
   17.69222069  101.19599915    1.85000002    1.69000006
   17.69555473  109.90399933    1.85000002    1.69000006
   17.69861031  106.32299805    1.85000002    1.69000006
   17.70194435  111.05100250    1.85000002    1.69000006
   17.70527840  108.29299927    1.85000002    1.69000006
   17.70833397  108.74400330    1.85000002    1.69000006
   17.71111107  106.40200043    1.85000002    1.69000006
   17.71194458  106.12699890    1.85000002    1.69000006
   17.71527863  108.62699890    1.85000002    1.69000006
   17.71861076  105.34899902    1.85000002    1.69000006
   17.72166634  105.58699799    1.85000002    1.69000006
   17.72500038  102.44599915    1.85000002    1.69000006
   17.73111153  102.44599915    1.85000002    1.69000006
   17.73527718  102.77799988    1.85000002    1.69000006
   17.73833275  107.24600220    1.85000002    1.69000006
   17.74166679   99.69830322    1.85000002    1.69000006
   17.74444389  100.80699921    1.85000002    1.69000006
   17.74500084  101.89800262    1.85000002    1.69000006
   17.74833298  106.51899719    1.85000002    1.69000006
   17.75166702   95.76550293    1.85000002    1.69000006
   17.75472260  116.80100250    1.85000002    1.69000006
   17.75805473  110.67099762    1.85000002    1.69000006
   17.76138878  117.05300140    1.85000002    1.69000006
   17.76444435  114.77700043    1.85000002    1.69000006
   17.76777840  118.80699921    1.85000002    1.69000006
   17.77388954  118.80699921    1.85000002    1.69000006
   17.77805519  117.32299805    1.85000002    1.69000006
   17.78111076  114.68599701    1.85000002    1.69000006
   17.78444481  113.32399750    1.85000002    1.69000006
   17.78777695  111.85800171    1.85000002    1.69000006
   17.79083252  114.51699829    1.85000002    1.69000006
   17.79416656  110.13800049    1.85000002    1.69000006
   17.79722214  111.71499634    1.85000002    1.69000006
   17.80055428  107.22399902    1.85000002    1.69000006
   17.80388832  108.94599915    1.85000002    1.69000006
   17.80694389  103.33599854    1.85000002    1.69000006
   17.81027794  114.80500031    1.85000002    1.69000006
   17.81110954  107.63600159    1.85000002    1.69000006
   17.81666756  107.63600159    1.85000002    1.69000006
   17.82083511  110.45899963    1.85000002    1.69000006
   17.82416725  108.55300140    1.85000002    1.69000006
   17.82722282  110.19100189    1.85000002    1.69000006
   17.84500122  101.45700073    1.85000002    1.69000006
   17.84722328  106.00499725    1.85000002    1.69000006
   17.85055542  106.19300079    1.85000002    1.69000006
   17.85388947  108.42700195    1.85000002    1.69000006
   17.85972214  108.42700195    1.85000002    1.69000006
   17.86388969  101.10199738    1.85000002    1.69000006
   17.86694527  108.37300110    1.85000002    1.69000006
   17.87027740  116.61599731    1.85000002    1.69000006
   17.87361145  111.59600067    1.85000002    1.69000006
   17.87666702  120.73400116    1.85000002    1.69000006
   17.87805557  114.88400269    1.85000002    1.69000006
   17.88027763  119.16100311    1.85000002    1.69000006
   17.88361168  109.93399811    1.85000002    1.69000006
   17.88666725  114.29599762    1.85000002    1.69000006
   17.88999939  106.62599945    1.85000002    1.69000006
   17.89305496  110.49800110    1.85000002    1.69000006
   17.89638901  107.35800171    1.85000002    1.69000006
   17.90250015  107.35800171    1.85000002    1.69000006
   17.90666580  102.69100189    1.85000002    1.69000006
   17.90999985  102.10700226    1.85000002    1.69000006
   17.91138840  101.22399902    1.85000002    1.69000006
   17.91361046  101.64700317    1.85000002    1.69000006
   17.91694450  105.26499939    1.85000002    1.69000006
   17.92000008  104.96600342    1.85000002    1.69000006
   17.92333221   99.19999695    1.85000002    1.69000006
   17.92638779  102.54299927    1.85000002    1.69000006
   17.92972183   91.24279785    1.85000002    1.69000006
   17.93305397  114.31400299    1.85000002    1.69000006
   17.93638802  108.84200287    1.85000002    1.69000006
   17.93944359  108.47399902    1.85000002    1.69000006
   17.94527626  108.47399902    1.85000002    1.69000006
   17.94944382  110.46399689    1.85000002    1.69000006
   17.95277786  103.54900360    1.85000002    1.69000006
   17.95611191  108.54199982    1.85000002    1.69000006
   17.95916748  107.15499878    1.85000002    1.69000006
   17.96250153  109.05500031    1.85000002    1.69000006
   17.96555710  103.25399780    1.85000002    1.69000006
   17.96888924  104.21099854    1.85000002    1.69000006
   17.97222328  104.38800049    1.85000002    1.69000006
   17.97527885  105.46700287    1.85000002    1.69000006
   17.97805595  103.27200317    1.85000002    1.69000006
   17.97888947  104.66400146    1.85000002    1.69000006
   17.98222351  108.55100250    1.85000002    1.69000006
   17.98833275  108.55100250    1.85000002    1.69000006
   17.99250031   98.97039795    1.85000002    1.69000006
   17.99555588  108.29499817    1.85000002    1.69000006
   17.99888992  108.53500366    1.85000002    1.69000006
   18.00194359  104.81900024    1.85000002    1.69000006
   18.00527763  106.19599915    1.85000002    1.69000006
   18.00861168  114.43199921    1.85000002    1.69000006
   18.01138878  110.31900024    1.85000002    1.69000006
   18.01222229  112.43900299    1.85000002    1.69000006
   18.01527786  110.57599640    1.85000002    1.69000006
   18.01861000  110.01899719    1.85000002    1.69000006
   18.02194405   99.71849823    1.85000002    1.69000006
   18.02499962  102.99400330    1.85000002    1.69000006
   18.03111076  102.99400330    1.85000002    1.69000006
   18.03527641  107.79799652    1.85000002    1.69000006
   18.03861046  101.93399811    1.85000002    1.69000006
   18.04166603  101.99099731    1.85000002    1.69000006
   18.04472160   98.28520203    1.85000002    1.69000006
   18.04527664  103.39700317    1.85000002    1.69000006
   18.04861069  101.30100250    1.85000002    1.69000006
   18.05166626   91.82910156    1.85000002    1.69000006
   18.05499840   99.98059845    1.85000002    1.69000006
   18.05833244   95.89060211    1.85000002    1.69000006
   18.06138802   97.98459625    1.85000002    1.69000006
   18.06472206   96.09549713    1.85000002    1.69000006
   18.06777954   95.85820007    1.85000002    1.69000006
   18.07389069   95.85820007    1.85000002    1.69000006
   18.07805634   94.63919830    1.85000002    1.69000006
   18.07861137   93.83910370    1.85000002    1.69000006
   18.08166695   98.89969635    1.85000002    1.69000006
   18.08500099  101.67600250    1.85000002    1.69000006
   18.08833313  102.64399719    1.85000002    1.69000006
   18.09138870  102.42299652    1.85000002    1.69000006
   18.09472275  106.36599731    1.85000002    1.69000006
   18.09805679  100.03199768    1.85000002    1.69000006
   18.10111237   97.52079773    1.85000002    1.69000006
   18.10444450   96.25350189    1.85000002    1.69000006
   18.10750008   98.82060242    1.85000002    1.69000006
   18.11083412   98.41680145    1.85000002    1.69000006
   18.11194420   98.06839752    1.85000002    1.69000006
   18.11666679   98.06839752    1.85000002    1.69000006
   18.12083435   94.59929657    1.85000002    1.69000006
   18.12416649   95.18879700    1.85000002    1.69000006
   18.12722206   95.12359619    1.85000002    1.69000006
   18.13055611   94.05960083    1.85000002    1.69000006
   18.13388824   94.13800049    1.85000002    1.69000006
   18.13694382   97.89869690    1.85000002    1.69000006
   18.14027786   99.47570038    1.85000002    1.69000006
   18.14361191   95.51139832    1.85000002    1.69000006
   18.14527702   99.53170013    1.85000002    1.69000006
   18.14722252   98.69860077    1.85000002    1.69000006
   18.15027809   95.51589966    1.85000002    1.69000006
   18.15361023   97.59609985    1.85000002    1.69000006
   18.15972137   97.59609985    1.85000002    1.69000006
   18.16361046   94.10489655    1.85000002    1.69000006
   18.16694450   99.89510345    1.85000002    1.69000006
   18.17027664   98.57720184    1.85000002    1.69000006
   18.17333221   93.09010315    1.85000002    1.69000006
   18.17666626   98.52310181    1.85000002    1.69000006
   18.17860985   96.76899719    1.85000002    1.69000006
   18.18027687   96.61139679    1.85000002    1.69000006
   18.18333244   93.45860291    1.85000002    1.69000006
   18.18666649   90.70500183    1.85000002    1.69000006
   18.18972206   88.34899902    1.85000002    1.69000006
   18.19305420   94.68009949    1.85000002    1.69000006
   18.19638824   93.57749939    1.85000002    1.69000006
   18.20250130   93.57749939    1.85000002    1.69000006
   18.20666695   97.50730133    1.85000002    1.69000006
   18.21000099   97.07420349    1.85000002    1.69000006
   18.21194458   98.01370239    1.85000002    1.69000006
   18.21361160   93.91300201    1.85000002    1.69000006
   18.21666718  104.64299774    1.85000002    1.69000006
   18.22000122   98.51809692    1.85000002    1.69000006
   18.22305679  102.49400330    1.85000002    1.69000006
   18.22638893  100.22899628    1.85000002    1.69000006
   18.22972298  107.47499847    1.85000002    1.69000006
   18.23277855   96.45549774    1.85000002    1.69000006
   18.23611069  104.54100037    1.85000002    1.69000006
   18.23944473   95.10160065    1.85000002    1.69000006
   18.24527740   95.10160065    1.85000002    1.69000006
   18.24944496   95.77100372    1.85000002    1.69000006
   18.25277710   93.17980194    1.85000002    1.69000006
   18.25583267   98.44730377    1.85000002    1.69000006
   18.25916672   98.65319824    1.85000002    1.69000006
   18.26222229  106.82299805    1.85000002    1.69000006
   18.26555634  103.64299774    1.85000002    1.69000006
   18.26888847   98.81250000    1.85000002    1.69000006
   18.27194405   97.54720306    1.85000002    1.69000006
   18.27527809  102.96199799    1.85000002    1.69000006
   18.27861023  103.26799774    1.85000002    1.69000006
   18.27888870   90.49079895    1.85000002    1.69000006
   18.28249931   94.44889832    1.85000002    1.69000006
   18.28805542   94.44889832    1.85000002    1.69000006
   18.29222107  102.85600281    1.85000002    1.69000006
   18.29555511  103.90799713    1.85000002    1.69000006
   18.29861069  102.48100281    1.85000002    1.69000006
   18.30194283  109.10800171    1.85000002    1.69000006
   18.30527687  103.77600098    1.85000002    1.69000006
   18.30833244  103.55500031    1.85000002    1.69000006
   18.31166649   98.10890198    1.85000002    1.69000006
   18.31222153  101.57299805    1.85000002    1.69000006
   18.31527710   99.94390106    1.85000002    1.69000006
   18.31861115   97.24770355    1.85000002    1.69000006
   18.32166672   94.84220123    1.85000002    1.69000006
   18.32500076  102.08000183    1.85000002    1.69000006
   18.33111191  102.08000183    1.85000002    1.69000006
   18.33500099  100.42199707    1.85000002    1.69000006
   18.33833313  100.08000183    1.85000002    1.69000006
   18.34166718  101.75900269    1.85000002    1.69000006
   18.34472275  102.91400146    1.85000002    1.69000006
   18.34583473  107.73000336    1.85000002    1.69000006
   18.34861183  104.55699921    1.85000002    1.69000006
   18.35166740  101.06700134    1.85000002    1.69000006
   18.35499954  104.44100189    1.85000002    1.69000006
   18.35805511  101.36000061    1.85000002    1.69000006
   18.36138916   96.52960205    1.85000002    1.69000006
   18.36472321   95.47480011    1.85000002    1.69000006
   18.36777878   99.62550354    1.85000002    1.69000006
   18.37388992   99.62550354    1.85000002    1.69000006
   18.37805557   97.14369965    1.85000002    1.69000006
   18.37916756   92.53250122    1.85000002    1.69000006
   18.38138962  100.00199890    1.85000002    1.69000006
   18.38472176   92.78299713    1.85000002    1.69000006
   18.38805580   91.35659790    1.85000002    1.69000006
   18.39111137   95.28769684    1.85000002    1.69000006
   18.39444351   92.54530334    1.85000002    1.69000006
   18.39749908   92.00810242    1.85000002    1.69000006
   18.40083313  103.98600006    1.85000002    1.69000006
   18.40416718   97.66269684    1.85000002    1.69000006
   18.40722275  105.08399963    1.85000002    1.69000006
   18.41055489   97.64720154    1.85000002    1.69000006
   18.41250038   98.96839905    1.85000002    1.69000006
   18.41666603   98.96839905    1.85000002    1.69000006
   18.42083359   94.45069885    1.85000002    1.69000006
   18.42416573   99.89009857    1.85000002    1.69000006
   18.42722130   93.21759796    1.85000002    1.69000006
   18.43055534   97.72930145    1.85000002    1.69000006
   18.43388748   93.96269989    1.85000002    1.69000006
   18.43694305   95.33999634    1.85000002    1.69000006
   18.44027710  100.22599792    1.85000002    1.69000006
   18.44361115   91.71700287    1.85000002    1.69000006
   18.44583321   90.09349823    1.85000002    1.69000006
   18.44694328   95.39559937    1.85000002    1.69000006
   18.45027924   96.02130127    1.85000002    1.69000006
   18.45333481  104.61100006    1.85000002    1.69000006
   18.45944595  104.61100006    1.85000002    1.69000006
   18.46361160   99.01349640    1.85000002    1.69000006
   18.46694565   95.06629944    1.85000002    1.69000006
   18.47000122  105.40200043    1.85000002    1.69000006
   18.47333336  102.29299927    1.85000002    1.69000006
   18.47666740   98.80449677    1.85000002    1.69000006
   18.47916794   97.32039642    1.85000002    1.69000006
   18.48000145   96.92590332    1.85000002    1.69000006
   18.48333359  100.94300079    1.85000002    1.69000006
   18.48666763   97.57890320    1.85000002    1.69000006
   18.48972321  101.95200348    1.85000002    1.69000006
   18.49305534  101.47699738    1.85000002    1.69000006
   18.49611092   92.98359680    1.85000002    1.69000006
   18.50250053   92.98359680    1.85000002    1.69000006
   18.50638962  101.25700378    1.85000002    1.69000006
   18.50972176  102.12500000    1.85000002    1.69000006
   18.51250076   99.97530365    1.85000002    1.69000006
   18.51333427  101.92400360    1.85000002    1.69000006
   18.51666641   95.69799805    1.85000002    1.69000006
   18.52000046   99.12840271    1.85000002    1.69000006
   18.52305603   98.78880310    1.85000002    1.69000006
   18.52638817  105.20700073    1.85000002    1.69000006
   18.52972221   98.53720093    1.85000002    1.69000006
   18.53277779  101.70500183    1.85000002    1.69000006
   18.53610992  104.02700043    1.85000002    1.69000006
   18.53916550  104.16600037    1.85000002    1.69000006
   18.54527664  104.16600037    1.85000002    1.69000006
   18.54944420  102.21499634    1.85000002    1.69000006
   18.55249977  104.37899780    1.85000002    1.69000006
   18.55583191   99.52600098    1.85000002    1.69000006
   18.55916595   98.72930145    1.85000002    1.69000006
   18.56222153  102.59600067    1.85000002    1.69000006
   18.56555557  102.62500000    1.85000002    1.69000006
   18.56888962  100.52700043    1.85000002    1.69000006
   18.57194519  106.02100372    1.85000002    1.69000006
   18.57527924  107.26699829    1.85000002    1.69000006
   18.57833481  109.69999695    1.85000002    1.69000006
   18.58027840  107.01300049    1.85000002    1.69000006
   18.58222389   96.27549744    1.85000002    1.69000006
   18.58805656   96.27549744    1.85000002    1.69000006
   18.59222221  110.86499786    1.85000002    1.69000006
   18.59555626  105.23500061    1.85000002    1.69000006
   18.59861183  105.66400146    1.85000002    1.69000006
   18.60194397  107.40899658    1.85000002    1.69000006
   18.60527802  108.98999786    1.85000002    1.69000006
   18.60833359  103.57199860    1.85000002    1.69000006
   18.61166763  104.60800171    1.85000002    1.69000006
   18.61361122  106.37200165    1.85000002    1.69000006
   18.61527824  104.09600067    1.85000002    1.69000006
   18.61833382   99.21479797    1.85000002    1.69000006
   18.62166595  106.96600342    1.85000002    1.69000006
   18.62500000  100.22499847    1.85000002    1.69000006
   18.63083267  100.22499847    1.85000002    1.69000006
   18.63500023  103.45500183    1.85000002    1.69000006
   18.63833237  100.99400330    1.85000002    1.69000006
   18.64138794   99.66590118    1.85000002    1.69000006
   18.64472198   97.81269836    1.85000002    1.69000006
   18.64722252   98.39240265    1.85000002    1.69000006
   18.64861107   94.97859955    1.85000002    1.69000006
   18.65194321   92.32260132    1.85000002    1.69000006
   18.65499878  102.90499878    1.85000002    1.69000006
   18.65833282  107.23400116    1.85000002    1.69000006
   18.66138840  101.30200195    1.85000002    1.69000006
   18.66472244  102.73000336    1.85000002    1.69000006
   18.66805458  105.06999969    1.85000002    1.69000006
   18.67361069  105.06999969    1.85000002    1.69000006
   18.67777634  103.52700043    1.85000002    1.69000006
   18.68055534   99.34519958    1.85000002    1.69000006
   18.68138885  103.60900116    1.85000002    1.69000006
   18.68472099  100.47399902    1.85000002    1.69000006
   18.68805504  101.51899719    1.85000002    1.69000006
   18.69111061   99.95249939    1.85000002    1.69000006
   18.69444275   89.18319702    1.85000002    1.69000006
   18.69749832  104.85700226    1.85000002    1.69000006
   18.70083427  100.33899689    1.85000002    1.69000006
   18.70416832  100.12899780    1.85000002    1.69000006
   18.70722389  104.61900330    1.85000002    1.69000006
   18.71055603  101.43599701    1.85000002    1.69000006
   18.71666718  101.43599701    1.85000002    1.69000006
   18.72083473  105.15100098    1.85000002    1.69000006
   18.72389030   97.59649658    1.85000002    1.69000006
   18.72722244  106.36399841    1.85000002    1.69000006
   18.73055649  104.84400177    1.85000002    1.69000006
   18.73361206  109.79799652    1.85000002    1.69000006
   18.73694420  102.19799805    1.85000002    1.69000006
   18.74027824  109.87899780    1.85000002    1.69000006
   18.74333382  107.09400177    1.85000002    1.69000006
   18.74666786  110.73500061    1.85000002    1.69000006
   18.74749947  107.90100098    1.85000002    1.69000006
   18.75027847  104.71600342    1.85000002    1.69000006
   18.75333405  102.94899750    1.85000002    1.69000006
   18.75944519  102.94899750    1.85000002    1.69000006
   18.76361084  102.96800232    1.85000002    1.69000006
   18.76694489   98.85310364    1.85000002    1.69000006
   18.77000046  107.64499664    1.85000002    1.69000006
   18.77333260  106.77300262    1.85000002    1.69000006
   18.77666664  104.32700348    1.85000002    1.69000006
   18.77972221  105.38899994    1.85000002    1.69000006
   18.78083229  102.00399780    1.85000002    1.69000006
   18.78361130  103.62799835    1.85000002    1.69000006
   18.78666687  100.28700256    1.85000002    1.69000006
   18.78999901  104.27600098    1.85000002    1.69000006
   18.79333305  110.13300323    1.85000002    1.69000006
   18.79638863  104.76799774    1.85000002    1.69000006
   18.80222130  104.76799774    1.85000002    1.69000006
   18.80638885  106.31500244    1.85000002    1.69000006
   18.80972099  105.58899689    1.85000002    1.69000006
   18.81277657   94.44210052    1.85000002    1.69000006
   18.81444359  103.49500275    1.85000002    1.69000006
   18.81638718  103.59200287    1.85000002    1.69000006
   18.81972313  103.74700165    1.85000002    1.69000006
   18.82305717  103.24199677    1.85000002    1.69000006
   18.82611275  100.72000122    1.85000002    1.69000006
   18.82944489   96.06839752    1.85000002    1.69000006
   18.83250046  100.57099915    1.85000002    1.69000006
   18.83583450   98.94020081    1.85000002    1.69000006
   18.83916664   99.34899902    1.85000002    1.69000006
   18.84500122   99.34899902    1.85000002    1.69000006
   18.86361122  106.31099701    1.85000002    1.69000006
   18.86666679  112.13999939    1.85000002    1.69000006
   18.87000084  104.81900024    1.85000002    1.69000006
   18.87333298  107.02600098    1.85000002    1.69000006
   18.87638855  100.00700378    1.85000002    1.69000006
   18.87972260  107.04399872    1.85000002    1.69000006
   18.88277817   96.42289734    1.85000002    1.69000006
   18.88805580   96.42289734    1.85000002    1.69000006
   18.89222145  103.17299652    1.85000002    1.69000006
   18.89555550  100.78900146    1.85000002    1.69000006
   18.89666748  102.05699921    1.85000002    1.69000006
   18.89916611   97.05899811    1.85000002    1.69000006
   18.90250015  103.29299927    1.85000002    1.69000006
   18.90555573  103.24400330    1.85000002    1.69000006
   18.90888786   98.99449921    1.85000002    1.69000006
   18.91222191  110.05100250    1.85000002    1.69000006
   18.91527748  110.58499908    1.85000002    1.69000006
   18.91860962  109.24700165    1.85000002    1.69000006
   18.92194366  105.73200226    1.85000002    1.69000006
   18.92499924  104.66100311    1.85000002    1.69000006
   18.93111038  104.66100311    1.85000002    1.69000006
   18.93527603  105.44499969    1.85000002    1.69000006
   18.93833160  109.30200195    1.85000002    1.69000006
   18.94166565  103.70999908    1.85000002    1.69000006
   18.94472122  108.03500366    1.85000002    1.69000006
   18.94805527  101.18699646    1.85000002    1.69000006
   18.95138931  107.38300323    1.85000002    1.69000006
   18.95444489   96.93779755    1.85000002    1.69000006
   18.95777893   97.32969666    1.85000002    1.69000006
   18.96111107  103.19999695    1.85000002    1.69000006
   18.96333504  105.04599762    1.85000002    1.69000006
   18.96444511  102.67800140    1.85000002    1.69000006
   18.96777916  106.74900055    1.85000002    1.69000006
   18.97389030  106.74900055    1.85000002    1.69000006
   18.97805595  105.72200012    1.85000002    1.69000006
   18.98111153  108.73100281    1.85000002    1.69000006
   18.98444557  107.26100159    1.85000002    1.69000006
   18.98777771  109.90899658    1.85000002    1.69000006
   18.99083328  109.08999634    1.85000002    1.69000006
   18.99416733   99.60389709    1.85000002    1.69000006
   18.99666786  103.28099823    1.85000002    1.69000006
   18.99777794  104.03199768    1.85000002    1.69000006
   19.00111198  101.94599915    1.85000002    1.69000006
   19.00416756  105.54900360    1.85000002    1.69000006
   19.00749969  101.93699646    1.85000002    1.69000006
   19.01083374   99.80480194    1.85000002    1.69000006
   19.01666641   99.80480194    1.85000002    1.69000006
   19.02083397   97.89420319    1.85000002    1.69000006
   19.02416611  101.79399872    1.85000002    1.69000006
   19.02722168  102.46499634    1.85000002    1.69000006
   19.03000069   98.76619720    1.85000002    1.69000006
   19.03083229   95.27770233    1.85000002    1.69000006
   19.03416634  109.76100159    1.85000002    1.69000006
   19.03750038  107.16000366    1.85000002    1.69000006
   19.04055595  103.75499725    1.85000002    1.69000006
   19.04388809  107.59100342    1.85000002    1.69000006
   19.04722214  106.84400177    1.85000002    1.69000006
   19.05027771  108.41699982    1.85000002    1.69000006
   19.05360985  102.34799957    1.85000002    1.69000006
   19.05944443  102.34799957    1.85000002    1.69000006
   19.06361008  102.39600372    1.85000002    1.69000006
   19.06694603  108.00000000    1.85000002    1.69000006
   19.07027817  103.39800262    1.85000002    1.69000006
   19.07333374  101.30100250    1.85000002    1.69000006
   19.07666779  107.20500183    1.85000002    1.69000006
   19.07972336  109.39399719    1.85000002    1.69000006
   19.08305550  108.26899719    1.85000002    1.69000006
   19.08638954  107.65799713    1.85000002    1.69000006
   19.08944511  117.18900299    1.85000002    1.69000006
   19.09277916  114.70600128    1.85000002    1.69000006
   19.09611130  114.87899780    1.85000002    1.69000006
   19.09666824  114.16100311    1.85000002    1.69000006
   19.10250092  114.16100311    1.85000002    1.69000006
   19.10666656  122.26000214    1.85000002    1.69000006
   19.10972214  111.70600128    1.85000002    1.69000006
   19.11305618  107.91699982    1.85000002    1.69000006
   19.11611176  113.83300018    1.85000002    1.69000006
   19.11944389  111.61599731    1.85000002    1.69000006
   19.12277794  106.83200073    1.85000002    1.69000006
   19.12583351  106.48100281    1.85000002    1.69000006
   19.12916756  117.01000214    1.85000002    1.69000006
   19.13000107  108.95600128    1.85000002    1.69000006
   19.13277817  106.19899750    1.85000002    1.69000006
   19.13611031  103.33999634    1.85000002    1.69000006
   19.13944435  110.98200226    1.85000002    1.69000006
   19.14527702  110.98200226    1.85000002    1.69000006
   19.14944458  102.83000183    1.85000002    1.69000006
   19.15250015  105.35800171    1.85000002    1.69000006
   19.15583229  105.42500305    1.85000002    1.69000006
   19.15916634  109.71099854    1.85000002    1.69000006
   19.16222191  105.66500092    1.85000002    1.69000006
   19.16333389  118.01599884    1.85000002    1.69000006
   19.16583252  110.94300079    1.85000002    1.69000006
   19.16916656  112.08399963    1.85000002    1.69000006
   19.17249870  116.90200043    1.85000002    1.69000006
   19.17555428  105.12799835    1.85000002    1.69000006
   19.17888832  105.91899872    1.85000002    1.69000006
   19.18194389  106.06600189    1.85000002    1.69000006
   19.18805504  106.06600189    1.85000002    1.69000006
   19.19222069  103.70099640    1.85000002    1.69000006
   19.19555473  112.76599884    1.85000002    1.69000006
   19.19666672  101.08200073    1.85000002    1.69000006
   19.19888878  107.72699738    1.85000002    1.69000006
   19.20222282  102.52799988    1.85000002    1.69000006
   19.20555687  115.11100006    1.85000002    1.69000006
   19.20861244  110.44599915    1.85000002    1.69000006
   19.21194458  110.56099701    1.85000002    1.69000006
   19.21527863  116.69899750    1.85000002    1.69000006
   19.21833420  111.89700317    1.85000002    1.69000006
   19.22166634  110.89900208    1.85000002    1.69000006
   19.22472191  104.54199982    1.85000002    1.69000006
   19.23083305  104.54199982    1.85000002    1.69000006
   19.23500061  108.47000122    1.85000002    1.69000006
   19.23833275   99.67949677    1.85000002    1.69000006
   19.24166679  107.20500183    1.85000002    1.69000006
   19.24472237  102.36000061    1.85000002    1.69000006
   19.24805641  105.88800049    1.85000002    1.69000006
   19.25138855  108.95600128    1.85000002    1.69000006
   19.25444412   97.43830109    1.85000002    1.69000006
   19.25777817  102.42900085    1.85000002    1.69000006
   19.26083374  103.74299622    1.85000002    1.69000006
   19.26333427  105.88300323    1.85000002    1.69000006
   19.26444435  105.47499847    1.85000002    1.69000006
   19.26777840  102.12500000    1.85000002    1.69000006
   19.27388954  102.12500000    1.85000002    1.69000006
   19.27805519  110.21299744    1.85000002    1.69000006
   19.28111076   91.61070251    1.85000002    1.69000006
   19.28444481   97.96730042    1.85000002    1.69000006
   19.28750038  100.23300171    1.85000002    1.69000006
   19.29083252   98.20140076    1.85000002    1.69000006
   19.29416656   99.45780182    1.85000002    1.69000006
   19.29666710  101.14499664    1.85000002    1.69000006
   19.29749870   97.62560272    1.85000002    1.69000006
   19.30083275   97.34390259    1.85000002    1.69000006
   19.30416679  101.80699921    1.85000002    1.69000006
   19.30722237  101.74900055    1.85000002    1.69000006
   19.31055450   99.78510284    1.85000002    1.69000006
   19.31666756   99.78510284    1.85000002    1.69000006
   19.32083511  101.24400330    1.85000002    1.69000006
   19.32389069  105.41100311    1.85000002    1.69000006
   19.32722282  100.37899780    1.85000002    1.69000006
   19.33000183  103.04199982    1.85000002    1.69000006
   19.33083344   96.95050049    1.85000002    1.69000006
   19.33416748   98.02629852    1.85000002    1.69000006
   19.33750153  100.77400208    1.85000002    1.69000006
   19.34055710  102.06700134    1.85000002    1.69000006
   19.34388924  107.40299988    1.85000002    1.69000006
   19.34722328   92.27100372    1.85000002    1.69000006
   19.35027885  104.65699768    1.85000002    1.69000006
   19.35361099   98.62539673    1.85000002    1.69000006
   19.35944557   98.62539673    1.85000002    1.69000006
   19.36361122   95.28610229    1.85000002    1.69000006
   19.36694527  107.31099701    1.85000002    1.69000006
   19.37027740  104.34700012    1.85000002    1.69000006
   19.37333298  104.08599854    1.85000002    1.69000006
   19.37666702   99.61799622    1.85000002    1.69000006
   19.38000107   96.90460205    1.85000002    1.69000006
   19.38305473  109.48699951    1.85000002    1.69000006
   19.38638878  102.01999664    1.85000002    1.69000006
   19.38972282  100.57199860    1.85000002    1.69000006
   19.39277840  103.30999756    1.85000002    1.69000006
   19.39611053  102.83899689    1.85000002    1.69000006
   19.39666748   98.48919678    1.85000002    1.69000006
   19.40222168   98.48919678    1.85000002    1.69000006
   19.40638924  105.52700043    1.85000002    1.69000006
   19.40972137   97.40850067    1.85000002    1.69000006
   19.41305542  104.94300079    1.85000002    1.69000006
   19.41611099  104.70099640    1.85000002    1.69000006
   19.41944313   94.44879913    1.85000002    1.69000006
   19.42277718  115.58599854    1.85000002    1.69000006
   19.42583275  110.67800140    1.85000002    1.69000006
   19.42916679  108.28800201    1.85000002    1.69000006
   19.43000031  107.45600128    1.85000002    1.69000006
   19.43249893  103.16400146    1.85000002    1.69000006
   19.43583298  111.33300018    1.85000002    1.69000006
   19.43916512  113.27999878    1.85000002    1.69000006
   19.44527626  113.27999878    1.85000002    1.69000006
   19.44944382  110.76399994    1.85000002    1.69000006
   19.45250130  107.81500244    1.85000002    1.69000006
   19.45583344  111.27200317    1.85000002    1.69000006
   19.45916748  114.46099854    1.85000002    1.69000006
   19.46222305  114.67400360    1.85000002    1.69000006
   19.46333504  109.79299927    1.85000002    1.69000006
   19.46583366  112.16999817    1.85000002    1.69000006
   19.46916771  114.72599792    1.85000002    1.69000006
   19.47249985  108.49299622    1.85000002    1.69000006
   19.47555542  107.70899963    1.85000002    1.69000006
   19.47888947  113.70200348    1.85000002    1.69000006
   19.48222351  117.13899994    1.85000002    1.69000006
   19.48805618  117.13899994    1.85000002    1.69000006
   19.49222183  118.22699738    1.85000002    1.69000006
   19.49555588  114.07700348    1.85000002    1.69000006
   19.49666786  122.93399811    1.85000002    1.69000006
   19.49916649  107.79399872    1.85000002    1.69000006
   19.50222206  125.80400085    1.85000002    1.69000006
   19.50555611  123.37300110    1.85000002    1.69000006
   19.50861168  123.81400299    1.85000002    1.69000006
   19.51194382  112.23799896    1.85000002    1.69000006
   19.51527786  101.43099976    1.85000002    1.69000006
   19.51833344  112.16799927    1.85000002    1.69000006
   19.52166557  136.13699341    1.85000002    1.69000006
   19.52499962  114.91799927    1.85000002    1.69000006
   19.53083229  114.91799927    1.85000002    1.69000006
   19.53499985  121.72000122    1.85000002    1.69000006
   19.53833199  126.76999664    1.85000002    1.69000006
   19.54138756  125.70300293    1.85000002    1.69000006
   19.54472160  124.12699890    1.85000002    1.69000006
   19.54805565  123.58499908    1.85000002    1.69000006
   19.55111122  110.20099640    1.85000002    1.69000006
   19.55444336  120.60299683    1.85000002    1.69000006
   19.55749893  122.44100189    1.85000002    1.69000006
   19.56083298  123.51200104    1.85000002    1.69000006
   19.56333351  125.00199890    1.85000002    1.69000006
   19.56472206  111.12400055    1.85000002    1.69000006
   19.56777954  128.34899902    1.85000002    1.69000006
   19.57361221  128.34899902    1.85000002    1.69000006
   19.57777786  114.31500244    1.85000002    1.69000006
   19.58111191  112.89099884    1.85000002    1.69000006
   19.58444595  110.46099854    1.85000002    1.69000006
   19.58750153  115.87000275    1.85000002    1.69000006
   19.59083366  112.90100098    1.85000002    1.69000006
   19.59388924  120.16799927    1.85000002    1.69000006
   19.59666824  127.96099854    1.85000002    1.69000006
   19.59749985  115.19400024    1.85000002    1.69000006
   19.60083389  120.03199768    1.85000002    1.69000006
   19.60416794  113.55999756    1.85000002    1.69000006
   19.60722351  104.74600220    1.85000002    1.69000006
   19.61055565  121.79499817    1.85000002    1.69000006
   19.61666679  121.79499817    1.85000002    1.69000006
   19.62083435  161.82699585    1.85000002    1.69000006
   19.62388992  184.53900146    1.85000002    1.69000006
   19.62722206  194.90899658    1.85000002    1.69000006
   19.63000107  225.06199646    1.85000002    1.69000006
   19.63111115  223.33900452    1.85000002    1.69000006
   19.63416672  241.89399719    1.85000002    1.69000006
   19.63750076  266.85101318    1.85000002    1.69000006
   19.63944435  279.04699707    1.85000002    1.69000006
   19.64083290  327.79800415    1.85000002    1.69000006
   19.64222145  331.20401001    1.85000002    1.69000006
   19.64361191  331.68499756    1.85000002    1.69000006
   19.64500046  321.66799927    1.85000002    1.69000006
   19.64638901  232.01800537    1.85000002    1.69000006
   19.64638901  121.79499817    1.85000002    1.69000006
   19.64638901  161.82699585    1.85000002    1.69000006
   19.64638901  184.53900146    1.85000002    1.69000006
   19.64666748  194.90899658    1.85000002    1.69000006
   19.64666748  223.33900452    1.85000002    1.69000006
   19.64694405  241.89399719    1.85000002    1.69000006
   19.64694405  266.85101318    1.85000002    1.69000006
   19.64694405  113.55999756    1.85000002    1.69000006
   19.64694405  104.74600220    1.85000002    1.69000006
   19.64749908  125.91500092    1.85000002    1.69000006
   19.65083313   -1.00000000    1.85000002    1.69000006
