    HOUR (UT)   FLARE FACTOR    SKY TESTER    SUN TESTER
   13.23833370   -1.00000000   -1.00000000   -1.00000000
   13.26694393   94.58309937    0.00000000    0.00000000
   13.26999950  102.92299652    0.00000000    0.00000000
   13.27333355  107.96800232    0.00000000    0.00000000
   13.27666664  115.69200134    0.00000000    0.00000000
   13.27972221  103.30200195    0.00000000    0.00000000
   13.28305531  106.89600372    0.00000000    0.00000000
   13.28722286  106.89600372    0.00000000    0.00000000
   13.29138947  105.84500122    0.00000000    0.00000000
   13.29444504  105.74299622    0.00000000    0.00000000
   13.29777813  107.09100342    0.00000000    0.00000000
   13.30027771  105.50399780    0.00000000    0.00000000
   13.30138874   97.56739807    0.00000000    0.00000000
   13.30472279  107.09799957    0.00000000    0.00000000
   13.30777836  108.79199982    0.00000000    0.00000000
   13.31111145  245.55099487    0.00000000    0.00000000
   13.31444454   99.25370026    4.90999985    2.40000010
   13.31750011  101.01899719    4.90999985    2.40000010
   13.32083321   98.84770203    4.90999985    2.40000010
   13.32416630  106.45200348    4.90999985    2.40000010
   13.32999992  106.45200348    4.90999985    2.40000010
   13.33416653   99.64250183    4.90999985    2.40000010
   13.33749962  106.44799805    4.90999985    2.40000010
   13.34055519   95.46859741    4.90999985    2.40000010
   13.34388828  101.04699707    4.90999985    2.40000010
   13.34694386  178.10299683    4.90999985    2.40000010
   13.35027790  187.10600281    4.90999985    2.40000010
   13.35361195  185.75399780    4.90999985    2.40000010
   13.35666752  113.06700134    4.90999985    2.40000010
   13.36000061   97.46199799    4.90999985    2.40000010
   13.36305618  102.03800201    4.90999985    2.40000010
   13.36638927   97.95130157    4.90999985    2.40000010
   13.36694431  101.73400116    4.90999985    2.40000010
   13.37277794  101.73400116    4.90999985    2.40000010
   13.37694454  147.22799683    4.90999985    2.40000010
   13.38027763  102.74800110    4.90999985    2.40000010
   13.38333321  101.09899902    4.90999985    2.40000010
   13.38666630   99.04329681    4.90999985    2.40000010
   13.39000034  117.54799652    4.90999985    2.40000010
   13.39305496  102.55400085    4.90999985    2.40000010
   13.39638901   92.97660065    4.90999985    2.40000010
   13.39972210  103.71199799    4.90999985    2.40000010
   13.40027714  100.24600220    4.90999985    2.40000010
   13.40305519   93.39060211    4.90999985    2.40000010
   13.40638828   93.19029999    4.90999985    2.40000010
   13.40972137   95.63410187    4.90999985    2.40000010
   13.41555500   95.63410187    4.90999985    2.40000010
   13.41972256  100.61199951    4.90999985    2.40000010
   13.42305565  103.76200104    4.90999985    2.40000010
   13.42638874  102.10399628    4.90999985    2.40000010
   13.42944431  108.13099670    4.90999985    2.40000010
   13.43277836  102.13899994    4.90999985    2.40000010
   13.43361092   99.74230194    4.90999985    2.40000010
   13.43638897   96.55619812    4.90999985    2.40000010
   13.43944454  104.44899750    4.90999985    2.40000010
   13.44277763  101.02600098    4.90999985    2.40000010
   13.44583321  101.11299896    4.90999985    2.40000010
   13.44916630  108.72200012    4.90999985    2.40000010
   13.45249939   98.05619812    4.90999985    2.40000010
   13.45861053   98.05619812    4.90999985    2.40000010
   13.46277714  110.51799774    4.90999985    2.40000010
   13.46583271  150.15400696    4.90999985    2.40000010
   13.46694374  109.96199799    4.90999985    2.40000010
   13.46972179  146.47300720    4.90999985    2.40000010
   13.47277737  140.99499512    4.90999985    2.40000010
   13.47611046  108.64299774    4.90999985    2.40000010
   13.47916603   92.76039886    4.90999985    2.40000010
   13.48249912  113.41799927    4.90999985    2.40000010
   13.48583317  163.53100586    4.90999985    2.40000010
   13.48888874  134.60200500    4.90999985    2.40000010
   13.49222279   97.76650238    4.90999985    2.40000010
   13.49555588   98.26909637    4.90999985    2.40000010
   13.50138855   98.26909637    4.90999985    2.40000010
   13.50555515  100.48300171    4.90999985    2.40000010
   13.50861073   99.80580139    4.90999985    2.40000010
   13.51194477   98.11430359    4.90999985    2.40000010
   13.51527786  102.19400024    4.90999985    2.40000010
   13.51833344   95.28769684    4.90999985    2.40000010
   13.52166653  108.45400238    4.90999985    2.40000010
   13.52499962   95.93620300    4.90999985    2.40000010
   13.52805519  100.04799652    4.90999985    2.40000010
   13.53138828   99.04560089    4.90999985    2.40000010
   13.53361130   96.21669769    4.90999985    2.40000010
   13.53500080  116.24800110    4.90999985    2.40000010
   13.53805637  118.01300049    4.90999985    2.40000010
   13.54416752  118.01300049    4.90999985    2.40000010
   13.54833412   97.30210114    4.90999985    2.40000010
   13.55166721   90.74359894    4.90999985    2.40000010
   13.55472279   95.76879883    4.90999985    2.40000010
   13.55805588   96.97889709    4.90999985    2.40000010
   13.56138897   92.04940033    4.90999985    2.40000010
   13.56444454  103.86000061    4.90999985    2.40000010
   13.56694412   96.66809845    4.90999985    2.40000010
   13.56833363  104.81600189    4.90999985    2.40000010
   13.57138920   92.54669952    4.90999985    2.40000010
   13.57472229   93.81400299    4.90999985    2.40000010
   13.57777786   93.64360046    4.90999985    2.40000010
   13.58111095  100.14099884    4.90999985    2.40000010
   13.58694458  100.14099884    4.90999985    2.40000010
   13.59111118  105.48600006    4.90999985    2.40000010
   13.59444427   95.22730255    4.90999985    2.40000010
   13.59777737   96.55359650    4.90999985    2.40000010
   13.60027790   98.72080231    4.90999985    2.40000010
   13.60138893   94.94819641    4.90999985    2.40000010
   13.60444450  103.68399811    4.90999985    2.40000010
   13.60777855  100.22699738    4.90999985    2.40000010
   13.61083412  101.31999969    4.90999985    2.40000010
   13.61416721  105.64299774    4.90999985    2.40000010
   13.61750031   98.57399750    4.90999985    2.40000010
   13.62055588   97.76679993    4.90999985    2.40000010
   13.62388897  103.33000183    4.90999985    2.40000010
   13.63000011  103.33000183    4.90999985    2.40000010
   13.63416672  111.50099945    4.90999985    2.40000010
   13.63722229   98.02500153    4.90999985    2.40000010
   13.64055538  122.12799835    4.90999985    2.40000010
   13.64361095  102.63700104    4.90999985    2.40000010
   13.64694405   94.27870178    4.90999985    2.40000010
   13.65027714  111.17199707    4.90999985    2.40000010
   13.65333271  141.79100037    4.90999985    2.40000010
   13.65666676   -1.00000000    4.90999985    2.40000010
   13.65999985   88.86100006    4.90999985    2.40000010
   13.66305542   -1.00000000    4.90999985    2.40000010
   13.66638851   -1.00000000    4.90999985    2.40000010
   13.67694473   -1.00000000    4.90999985    2.40000010
   13.68000031   -1.00000000    4.90999985    2.40000010
   13.68333340   -1.00000000    4.90999985    2.40000010
   13.68666649   -1.00000000    4.90999985    2.40000010
   13.68972206  109.30799866    4.90999985    2.40000010
   13.69305515   -1.00000000    4.90999985    2.40000010
   13.69611073   75.05729675    4.90999985    2.40000010
   13.69944477   -1.00000000    4.90999985    2.40000010
   13.70277786   -1.00000000    4.90999985    2.40000010
   13.70611095   94.81310272    4.90999985    2.40000010
   13.70944405   -1.00000000    4.90999985    2.40000010
   13.71972179  116.02500153    4.90999985    2.40000010
   13.72305489  113.15899658    4.90999985    2.40000010
   13.72611046  204.57800293    4.90999985    2.40000010
   13.72944355  151.21499634    4.90999985    2.40000010
   13.73249912  161.86000061    4.90999985    2.40000010
   13.73361111  116.80799866    4.90999985    2.40000010
   13.73638916  101.87799835    4.90999985    2.40000010
   13.73944473  106.47299957    4.90999985    2.40000010
   13.74277782  100.92700195    4.90999985    2.40000010
   13.74611092  107.27500153    4.90999985    2.40000010
   13.74916649  109.13200378    4.90999985    2.40000010
   13.75249958  108.29399872    4.90999985    2.40000010
   13.75833321  108.29399872    4.90999985    2.40000010
   13.76249981   98.09149933    4.90999985    2.40000010
   13.76583290   97.59359741    4.90999985    2.40000010
   13.76694393  103.01300049    4.90999985    2.40000010
   13.76944447   99.66899872    4.90999985    2.40000010
   13.77250004  116.64099884    4.90999985    2.40000010
   13.77583313  114.01499939    4.90999985    2.40000010
   13.77916622   94.51029968    4.90999985    2.40000010
   13.78222179  101.05100250    4.90999985    2.40000010
   13.78555584   94.70050049    4.90999985    2.40000010
   13.78888893  144.74000549    4.90999985    2.40000010
   13.79194450  110.11000061    4.90999985    2.40000010
   13.79527855   85.59690094    4.90999985    2.40000010
   13.80138874   85.59690094    4.90999985    2.40000010
   13.80555534  179.88800049    4.90999985    2.40000010
   13.80861092  118.85800171    4.90999985    2.40000010
   13.81194496   99.33959961    4.90999985    2.40000010
   13.81500053  129.20100403    4.90999985    2.40000010
   13.81833363  104.24099731    4.90999985    2.40000010
   13.82166672  109.83999634    4.90999985    2.40000010
   13.82472229   96.54109955    4.90999985    2.40000010
   13.82805538   91.35089874    4.90999985    2.40000010
   13.83138847   99.12390137    4.90999985    2.40000010
   13.83361053  100.84700012    4.90999985    2.40000010
   13.83500004  106.88099670    4.90999985    2.40000010
   13.83805561   96.02909851    4.90999985    2.40000010
   13.84416676   96.02909851    4.90999985    2.40000010
   13.84833336  102.05899811    4.90999985    2.40000010
   13.85138893  130.84899902    4.90999985    2.40000010
   13.85472298  128.20899963    4.90999985    2.40000010
   13.85805607  114.28299713    4.90999985    2.40000010
   13.86138916  102.64499664    4.90999985    2.40000010
   13.86444473  118.80300140    4.90999985    2.40000010
   13.86694431   94.00669861    4.90999985    2.40000010
   13.86805534   -1.00000000    4.90999985    2.40000010
   13.87111092  111.10600281    4.90999985    2.40000010
   13.87444496   -1.00000000    4.90999985    2.40000010
   13.87777805   -1.00000000    4.90999985    2.40000010
   13.88083363   -1.00000000    4.90999985    2.40000010
   13.89111137   92.97619629    4.90999985    2.40000010
   13.89444447   -1.00000000    4.90999985    2.40000010
   13.89750004   -1.00000000    4.90999985    2.40000010
   13.90111065   -1.00000000    4.90999985    2.40000010
   13.90416622   -1.00000000    4.90999985    2.40000010
   13.90749931   -1.00000000    4.90999985    2.40000010
   13.91055489   -1.00000000    4.90999985    2.40000010
   13.91388893   -1.00000000    4.90999985    2.40000010
   13.91722298   -1.00000000    4.90999985    2.40000010
   13.92027855   96.34040070    4.90999985    2.40000010
   13.92361164  101.10900116    4.90999985    2.40000010
   13.93000031  101.10900116    4.90999985    2.40000010
   13.93388939   97.13999939    4.90999985    2.40000010
   13.93722248  101.58300018    4.90999985    2.40000010
   13.94055557  142.87699890    4.90999985    2.40000010
   13.94361115  175.28599548    4.90999985    2.40000010
   13.94694424  132.70700073    4.90999985    2.40000010
   13.94999981  114.16600037    4.90999985    2.40000010
   13.95333290  104.12699890    4.90999985    2.40000010
   13.95666695  139.34300232    4.90999985    2.40000010
   13.95972157   -1.00000000    4.90999985    2.40000010
   13.96305561   -1.00000000    4.90999985    2.40000010
   13.96638870   -1.00000000    4.90999985    2.40000010
   13.97666645   -1.00000000    4.90999985    2.40000010
   13.97999954   -1.00000000    4.90999985    2.40000010
   13.98333359   -1.00000000    4.90999985    2.40000010
   13.98638916   -1.00000000    4.90999985    2.40000010
   13.98972225   -1.00000000    4.90999985    2.40000010
   13.99305534   -1.00000000    4.90999985    2.40000010
   13.99611092   -1.00000000    4.90999985    2.40000010
   13.99944496   -1.00000000    4.90999985    2.40000010
   14.00305557   -1.00000000    4.90999985    2.40000010
   14.00611115   -1.00000000    4.90999985    2.40000010
   14.00944424   -1.00000000    4.90999985    2.40000010
   14.01972198   -1.00000000    4.90999985    2.40000010
   14.02277756   -1.00000000    4.90999985    2.40000010
   14.02611065   -1.00000000    4.90999985    2.40000010
   14.02944374   -1.00000000    4.90999985    2.40000010
   14.03249931  210.04499817    4.90999985    2.40000010
   14.03361130  152.49400330    4.90999985    2.40000010
   14.03611183   -1.00000000    4.90999985    2.40000010
   14.03916740   -1.00000000    4.90999985    2.40000010
   14.04250050   -1.00000000    4.90999985    2.40000010
   14.04583359   -1.00000000    4.90999985    2.40000010
   14.04888916   -1.00000000    4.90999985    2.40000010
   14.05222225   -1.00000000    4.90999985    2.40000010
   14.05833340   -1.00000000    4.90999985    2.40000010
   14.06250000  130.64199829    4.90999985    2.40000010
   14.06583309   -1.00000000    4.90999985    2.40000010
   14.06944466   -1.00000000    4.90999985    2.40000010
   14.07250023   -1.00000000    4.90999985    2.40000010
   14.07583332   -1.00000000    4.90999985    2.40000010
   14.07916641   -1.00000000    4.90999985    2.40000010
   14.08222198   -1.00000000    4.90999985    2.40000010
   14.08555508   -1.00000000    4.90999985    2.40000010
   14.08861065   -1.00000000    4.90999985    2.40000010
   14.09194374  121.05200195    4.90999985    2.40000010
   14.09527779  117.45500183    4.90999985    2.40000010
   14.10111141  117.45500183    4.90999985    2.40000010
   14.10527802  137.44400024    4.90999985    2.40000010
   14.10861111   -1.00000000    4.90999985    2.40000010
   14.11194515   -1.00000000    4.90999985    2.40000010
   14.11500072   -1.00000000    4.90999985    2.40000010
   14.11833382   -1.00000000    4.90999985    2.40000010
   14.12138939   -1.00000000    4.90999985    2.40000010
   14.12472248   -1.00000000    4.90999985    2.40000010
   14.12805557   -1.00000000    4.90999985    2.40000010
   14.13111115   -1.00000000    4.90999985    2.40000010
   14.13472176   -1.00000000    4.90999985    2.40000010
   14.13777733   -1.00000000    4.90999985    2.40000010
   14.14805508   -1.00000000    4.90999985    2.40000010
   14.15138817   -1.00000000    4.90999985    2.40000010
   14.15472221   -1.00000000    4.90999985    2.40000010
   14.15777779   -1.00000000    4.90999985    2.40000010
   14.16111088   -1.00000000    4.90999985    2.40000010
   14.16416645   -1.00000000    4.90999985    2.40000010
   14.16805553   -1.00000000    4.90999985    2.40000010
   14.17111111   -1.00000000    4.90999985    2.40000010
   14.17444515   -1.00000000    4.90999985    2.40000010
   14.17777824   -1.00000000    4.90999985    2.40000010
   14.18083382   -1.00000000    4.90999985    2.40000010
   14.19111156   -1.00000000    4.90999985    2.40000010
   14.19416714   -1.00000000    4.90999985    2.40000010
   14.19750023   -1.00000000    4.90999985    2.40000010
   14.20111084   -1.00000000    4.90999985    2.40000010
   14.20416641   -1.00000000    4.90999985    2.40000010
   14.20749950   -1.00000000    4.90999985    2.40000010
   14.21083355   -1.00000000    4.90999985    2.40000010
   14.21388912   -1.00000000    4.90999985    2.40000010
   14.21722221   -1.00000000    4.90999985    2.40000010
   14.22027779   -1.00000000    4.90999985    2.40000010
   14.22361088   -1.00000000    4.90999985    2.40000010
   14.23388958   -1.00000000    4.90999985    2.40000010
   14.23694515   -1.00000000    4.90999985    2.40000010
   14.24027824   -1.00000000    4.90999985    2.40000010
   14.24361134   -1.00000000    4.90999985    2.40000010
   14.24666691   -1.00000000    4.90999985    2.40000010
   14.25000000   -1.00000000    4.90999985    2.40000010
   14.25333309   -1.00000000    4.90999985    2.40000010
   14.25638866   -1.00000000    4.90999985    2.40000010
   14.25972176   -1.00000000    4.90999985    2.40000010
   14.26277733   -1.00000000    4.90999985    2.40000010
   14.26611137   -1.00000000    4.90999985    2.40000010
   14.29166698   -1.00000000    4.90999985    2.40000010
   14.29500008   -1.00000000    4.90999985    2.40000010
   14.29833412   -1.00000000    4.90999985    2.40000010
   14.30194473   -1.00000000    4.90999985    2.40000010
   14.30500031   -1.00000000    4.90999985    2.40000010
   14.30833340   -1.00000000    4.90999985    2.40000010
   14.31166649   -1.00000000    4.90999985    2.40000010
   14.31472206   -1.00000000    4.90999985    2.40000010
   14.31805515   -1.00000000    4.90999985    2.40000010
   14.32111073   -1.00000000    4.90999985    2.40000010
   14.32444477   -1.00000000    4.90999985    2.40000010
   14.33444405   -1.00000000    4.90999985    2.40000010
   14.33777714   -1.00000000    4.90999985    2.40000010
   14.34083271   -1.00000000    4.90999985    2.40000010
   14.34416676   -1.00000000    4.90999985    2.40000010
   14.34749985   -1.00000000    4.90999985    2.40000010
   14.35055637   -1.00000000    4.90999985    2.40000010
   14.35388947   -1.00000000    4.90999985    2.40000010
   14.35722256   -1.00000000    4.90999985    2.40000010
   14.36027813   -1.00000000    4.90999985    2.40000010
   14.36361122   -1.00000000    4.90999985    2.40000010
   14.36666679   -1.00000000    4.90999985    2.40000010
   14.37722206   -1.00000000    4.90999985    2.40000010
   14.38055611   -1.00000000    4.90999985    2.40000010
   14.38388920   -1.00000000    4.90999985    2.40000010
   14.38694477   -1.00000000    4.90999985    2.40000010
   14.39027786   -1.00000000    4.90999985    2.40000010
   14.39361095   -1.00000000    4.90999985    2.40000010
   14.39666653   -1.00000000    4.90999985    2.40000010
   14.39999962   -1.00000000    4.90999985    2.40000010
   14.40361118   -1.00000000    4.90999985    2.40000010
   14.40666676   -1.00000000    4.90999985    2.40000010
   14.40999985   -1.00000000    4.90999985    2.40000010
   14.41611099   -1.00000000    4.90999985    2.40000010
   14.42027855   -1.00000000    4.90999985    2.40000010
   14.42333412   -1.00000000    4.90999985    2.40000010
   14.42666721   -1.00000000    4.90999985    2.40000010
   14.43000031   -1.00000000    4.90999985    2.40000010
   14.43305588   -1.00000000    4.90999985    2.40000010
   14.43666649   -1.00000000    4.90999985    2.40000010
   14.43972206   -1.00000000    4.90999985    2.40000010
   14.44305515   -1.00000000    4.90999985    2.40000010
   14.44638920   -1.00000000    4.90999985    2.40000010
   14.44944477   -1.00000000    4.90999985    2.40000010
   14.45277786   -1.00000000    4.90999985    2.40000010
   14.45888901   -1.00000000    4.90999985    2.40000010
   14.46305561  132.71299744    4.90999985    2.40000010
   14.46638870  227.55099487    4.90999985    2.40000010
   14.46722221   55.28779984    4.90999985    2.40000010
   14.46999931   -1.00000000    4.90999985    2.40000010
   14.47333336  152.39500427    4.90999985    2.40000010
   14.47638798  192.25199890    4.90999985    2.40000010
   14.47972202  142.58999634    4.90999985    2.40000010
   14.48277760  113.83499908    4.90999985    2.40000010
   14.48611164  113.43299866    4.90999985    2.40000010
   14.48944473  131.22200012    4.90999985    2.40000010
   14.49250031   -1.00000000    4.90999985    2.40000010
   14.49583340  121.69699860    4.90999985    2.40000010
   14.50166702  121.69699860    4.90999985    2.40000010
   14.50583363  114.62899780    4.90999985    2.40000010
   14.50916672  109.33399963    4.90999985    2.40000010
   14.51249981  137.73399353    4.90999985    2.40000010
   14.51555538  118.83100128    4.90999985    2.40000010
   14.51888847   -1.00000000    4.90999985    2.40000010
   14.52194405   -1.00000000    4.90999985    2.40000010
   14.52527714   -1.00000000    4.90999985    2.40000010
   14.52861118  172.27600098    4.90999985    2.40000010
   14.53166676  150.38299561    4.90999985    2.40000010
   14.53527832   -1.00000000    4.90999985    2.40000010
   14.53833389   -1.00000000    4.90999985    2.40000010
   14.54472256   -1.00000000    4.90999985    2.40000010
   14.54888916   -1.00000000    4.90999985    2.40000010
   14.55194473   -1.00000000    4.90999985    2.40000010
   14.55527782   -1.00000000    4.90999985    2.40000010
   14.55833340   -1.00000000    4.90999985    2.40000010
   14.56166649   -1.00000000    4.90999985    2.40000010
   14.56500053   -1.00000000    4.90999985    2.40000010
   14.56861115   -1.00000000    4.90999985    2.40000010
   14.57166672   -1.00000000    4.90999985    2.40000010
   14.57499981   -1.00000000    4.90999985    2.40000010
   14.57833290   -1.00000000    4.90999985    2.40000010
   14.58138847   -1.00000000    4.90999985    2.40000010
   14.59166622   -1.00000000    4.90999985    2.40000010
   14.59472179   -1.00000000    4.90999985    2.40000010
   14.59805489   -1.00000000    4.90999985    2.40000010
   14.60166740   -1.00000000    4.90999985    2.40000010
   14.60472298   -1.00000000    4.90999985    2.40000010
   14.60805607  241.99899292    4.90999985    2.40000010
   14.61138916   -1.00000000    4.90999985    2.40000010
   14.61444473   -1.00000000    4.90999985    2.40000010
   14.61777782   -1.00000000    4.90999985    2.40000010
   14.62083340   -1.00000000    4.90999985    2.40000010
   14.62416649   -1.00000000    4.90999985    2.40000010
   14.63444424   -1.00000000    4.90999985    2.40000010
   14.63777733   -1.00000000    4.90999985    2.40000010
   14.64083290   -1.00000000    4.90999985    2.40000010
   14.64416695   -1.00000000    4.90999985    2.40000010
   14.64722252   -1.00000000    4.90999985    2.40000010
   14.65055561   -1.00000000    4.90999985    2.40000010
   14.65388870   -1.00000000    4.90999985    2.40000010
   14.65694427   -1.00000000    4.90999985    2.40000010
   14.66027737   -1.00000000    4.90999985    2.40000010
   14.66361046   -1.00000000    4.90999985    2.40000010
   14.66666698   -1.00000000    4.90999985    2.40000010
   14.67722225   -1.00000000    4.90999985    2.40000010
   14.68055630   -1.00000000    4.90999985    2.40000010
   14.68361092   -1.00000000    4.90999985    2.40000010
   14.68694496   -1.00000000    4.90999985    2.40000010
   14.69027805   -1.00000000    4.90999985    2.40000010
   14.69333363   -1.00000000    4.90999985    2.40000010
   14.69666672   -1.00000000    4.90999985    2.40000010
   14.69999981   -1.00000000    4.90999985    2.40000010
   14.70333290   -1.00000000    4.90999985    2.40000010
   14.70638847   -1.00000000    4.90999985    2.40000010
   14.70972157   -1.00000000    4.90999985    2.40000010
   14.71999931   -1.00000000    4.90999985    2.40000010
   14.72333336   -1.00000000    4.90999985    2.40000010
   14.72666645   -1.00000000    4.90999985    2.40000010
   14.72972202   -1.00000000    4.90999985    2.40000010
   14.73305511   -1.00000000    4.90999985    2.40000010
   14.73666668   -1.00000000    4.90999985    2.40000010
   14.73972225   -1.00000000    4.90999985    2.40000010
   14.74305534   -1.00000000    4.90999985    2.40000010
   14.74638939   -1.00000000    4.90999985    2.40000010
   14.74944496   -1.00000000    4.90999985    2.40000010
   14.75277805   -1.00000000    4.90999985    2.40000010
   14.76305580   -1.00000000    4.90999985    2.40000010
   14.76611137   -1.00000000    4.90999985    2.40000010
   14.76972198   -1.00000000    4.90999985    2.40000010
   14.77277756   -1.00000000    4.90999985    2.40000010
   14.77611065   -1.00000000    4.90999985    2.40000010
   14.77944374   -1.00000000    4.90999985    2.40000010
   14.78249931   -1.00000000    4.90999985    2.40000010
   14.78583336   -1.00000000    4.90999985    2.40000010
   14.78916740   -1.00000000    4.90999985    2.40000010
   14.79222298   -1.00000000    4.90999985    2.40000010
   14.79555607   -1.00000000    4.90999985    2.40000010
   14.80166721   -1.00000000    4.90999985    2.40000010
   14.80583382   -1.00000000    4.90999985    2.40000010
   14.80916691  177.59700012    4.90999985    2.40000010
   14.81222248   -1.00000000    4.90999985    2.40000010
   14.81555557  170.83000183    4.90999985    2.40000010
   14.81888866   89.93099976    4.90999985    2.40000010
   14.82194424  153.14799500    4.90999985    2.40000010
   14.82527733   -1.00000000    4.90999985    2.40000010
   14.82833290  218.01699829    4.90999985    2.40000010
   14.83166695   -1.00000000    4.90999985    2.40000010
   14.83527756   -1.00000000    4.90999985    2.40000010
   14.83833313   -1.00000000    4.90999985    2.40000010
   14.84861088   -1.00000000    4.90999985    2.40000010
   14.85194492   -1.00000000    4.90999985    2.40000010
   14.85500050   -1.00000000    4.90999985    2.40000010
   14.85833359   -1.00000000    4.90999985    2.40000010
   14.86166668   -1.00000000    4.90999985    2.40000010
   14.86472225   -1.00000000    4.90999985    2.40000010
   14.86833382   -1.00000000    4.90999985    2.40000010
   14.87138939   -1.00000000    4.90999985    2.40000010
   14.87472248   -1.00000000    4.90999985    2.40000010
   14.87805557   -1.00000000    4.90999985    2.40000010
   14.88111115   -1.00000000    4.90999985    2.40000010
   14.89138889   -1.00000000    4.90999985    2.40000010
   14.89472198   -1.00000000    4.90999985    2.40000010
   14.89805508   -1.00000000    4.90999985    2.40000010
   14.90055561  159.32899475    4.90999985    2.40000010
   14.90166664  244.38999939    4.90999985    2.40000010
   14.90499973   -1.00000000    4.90999985    2.40000010
   14.90805531  248.21699524    4.90999985    2.40000010
   14.91138840   -1.00000000    4.90999985    2.40000010
   14.91472149   -1.00000000    4.90999985    2.40000010
   14.91777802   -1.00000000    4.90999985    2.40000010
   14.92111111   -1.00000000    4.90999985    2.40000010
   14.92416668   -1.00000000    4.90999985    2.40000010
   14.93444443   -1.00000000    4.90999985    2.40000010
   14.93750000   -1.00000000    4.90999985    2.40000010
   14.94083309   -1.00000000    4.90999985    2.40000010
   14.94416714   -1.00000000    4.90999985    2.40000010
   14.94722271   -1.00000000    4.90999985    2.40000010
   14.95055580   -1.00000000    4.90999985    2.40000010
   14.95361137   -1.00000000    4.90999985    2.40000010
   14.95694447   -1.00000000    4.90999985    2.40000010
   14.96027756   -1.00000000    4.90999985    2.40000010
   14.96333313   -1.00000000    4.90999985    2.40000010
   14.96666622  162.11000061    4.90999985    2.40000010
   14.96722221  191.69700623    4.90999985    2.40000010
   14.97305489  191.69700623    4.90999985    2.40000010
   14.97722149  150.17500305    4.90999985    2.40000010
   14.98055553   36.36610031    4.90999985    2.40000010
   14.98361111  277.91198730    4.90999985    2.40000010
   14.98694515  175.88299561    4.90999985    2.40000010
   14.99027824   -1.00000000    4.90999985    2.40000010
   14.99333382   -1.00000000    4.90999985    2.40000010
   14.99666691   -1.00000000    4.90999985    2.40000010
   15.00000000   -1.00000000    4.90999985    2.40000010
   15.00333309   -1.00000000    4.90999985    2.40000010
   15.00666714   -1.00000000    4.90999985    2.40000010
   15.00972176   -1.00000000    4.90999985    2.40000010
   15.01999950   -1.00000000    4.90999985    2.40000010
   15.02333355   -1.00000000    4.90999985    2.40000010
   15.02638817   -1.00000000    4.90999985    2.40000010
   15.02972221   -1.00000000    4.90999985    2.40000010
   15.03305531   -1.00000000    4.90999985    2.40000010
   15.03638935   -1.00000000    4.90999985    2.40000010
   15.03972244   -1.00000000    4.90999985    2.40000010
   15.04277802   -1.00000000    4.90999985    2.40000010
   15.04611111   -1.00000000    4.90999985    2.40000010
   15.04916668   -1.00000000    4.90999985    2.40000010
   15.05249977   -1.00000000    4.90999985    2.40000010
   15.06277752   -1.00000000    4.90999985    2.40000010
   15.06611156   -1.00000000    4.90999985    2.40000010
   15.06972218   -1.00000000    4.90999985    2.40000010
   15.07305527   -1.00000000    4.90999985    2.40000010
   15.07611084   -1.00000000    4.90999985    2.40000010
   15.07944393   -1.00000000    4.90999985    2.40000010
   15.08249950   -1.00000000    4.90999985    2.40000010
   15.08583260   -1.00000000    4.90999985    2.40000010
   15.08916664   -1.00000000    4.90999985    2.40000010
   15.09222221   -1.00000000    4.90999985    2.40000010
   15.09555531   -1.00000000    4.90999985    2.40000010
   15.10166740   -1.00000000    4.90999985    2.40000010
   15.10583401   -1.00000000    4.90999985    2.40000010
   15.10888958   93.89640045    4.90999985    2.40000010
   15.11222267   23.57019997    4.90999985    2.40000010
   15.11555576   -1.00000000    4.90999985    2.40000010
   15.11861134   -1.00000000    4.90999985    2.40000010
   15.12194443   -1.00000000    4.90999985    2.40000010
   15.12527752   -1.00000000    4.90999985    2.40000010
   15.12833309   -1.00000000    4.90999985    2.40000010
   15.13166714   -1.00000000    4.90999985    2.40000010
   15.13527775   -1.00000000    4.90999985    2.40000010
   15.13861084   -1.00000000    4.90999985    2.40000010
   15.14444447   -1.00000000    4.90999985    2.40000010
   15.14861107   -1.00000000    4.90999985    2.40000010
   15.15194416   -1.00000000    4.90999985    2.40000010
   15.15499973   -1.00000000    4.90999985    2.40000010
   15.15833282   -1.00000000    4.90999985    2.40000010
   15.16166592   -1.00000000    4.90999985    2.40000010
   15.16472149   -1.00000000    4.90999985    2.40000010
   15.16833401   -1.00000000    4.90999985    2.40000010
   15.17166710   -1.00000000    4.90999985    2.40000010
   15.17472267  240.21299744    4.90999985    2.40000010
   15.17805576   -1.00000000    4.90999985    2.40000010
   15.18111134   -1.00000000    4.90999985    2.40000010
   15.19138908   -1.00000000    4.90999985    2.40000010
   15.19472218   -1.00000000    4.90999985    2.40000010
   15.19777775   -1.00000000    4.90999985    2.40000010
   15.20138836   -1.00000000    4.90999985    2.40000010
   15.20472240   -1.00000000    4.90999985    2.40000010
   15.20777798   -1.00000000    4.90999985    2.40000010
   15.21111107   -1.00000000    4.90999985    2.40000010
   15.21416664   -1.00000000    4.90999985    2.40000010
   15.21749973   -1.00000000    4.90999985    2.40000010
   15.22083282   -1.00000000    4.90999985    2.40000010
   15.22388840   -1.00000000    4.90999985    2.40000010
   15.23027706   -1.00000000    4.90999985    2.40000010
   15.23444462   -1.00000000    4.90999985    2.40000010
   15.23750019   -1.00000000    4.90999985    2.40000010
   15.24083328   -1.00000000    4.90999985    2.40000010
   15.24388885   -1.00000000    4.90999985    2.40000010
   15.24722290   -1.00000000    4.90999985    2.40000010
   15.25055599  163.28999329    4.90999985    2.40000010
   15.25361156   -1.00000000    4.90999985    2.40000010
   15.25694466   38.46910095    4.90999985    2.40000010
   15.26027775  263.54400635    4.90999985    2.40000010
   15.26333332  234.66900635    4.90999985    2.40000010
   15.26666641  196.71699524    4.90999985    2.40000010
   15.26749992  169.46899414    4.90999985    2.40000010
   15.27305508  169.46899414    4.90999985    2.40000010
   15.27722168  242.78100586    4.90999985    2.40000010
   15.28027725  192.89300537    4.90999985    2.40000010
   15.28361130   -1.00000000    4.90999985    2.40000010
   15.30111122  222.82600403    4.90999985    2.40000010
   15.30361176   -1.00000000    4.90999985    2.40000010
   15.30666733   66.63379669    4.90999985    2.40000010
   15.31000042   -1.00000000    4.90999985    2.40000010
   15.31611156   -1.00000000    4.90999985    2.40000010
   15.32027817  259.44198608    4.90999985    2.40000010
   15.32333374   88.52089691    4.90999985    2.40000010
   15.32666683   -1.00000000    4.90999985    2.40000010
   15.32972240  185.48699951    4.90999985    2.40000010
   15.33305550  289.50399780    4.90999985    2.40000010
   15.33444405  208.22700500    4.90999985    2.40000010
   15.33666611  171.96800232    4.90999985    2.40000010
   15.34000015  153.12199402    4.90999985    2.40000010
   15.34333324  122.05200195    4.90999985    2.40000010
   15.34638882  142.36799622    4.90999985    2.40000010
   15.34972191  154.11799622    4.90999985    2.40000010
   15.35305595  145.71400452    4.90999985    2.40000010
   15.35888958  145.71400452    4.90999985    2.40000010
   15.36305618  118.65699768    4.90999985    2.40000010
   15.36611176  226.01699829    4.90999985    2.40000010
   15.36972237   -1.00000000    4.90999985    2.40000010
   15.37305546   -1.00000000    4.90999985    2.40000010
   15.37611103   -1.00000000    4.90999985    2.40000010
   15.37944412   -1.00000000    4.90999985    2.40000010
   15.38277817   -1.00000000    4.90999985    2.40000010
   15.38583279   -1.00000000    4.90999985    2.40000010
   15.38916683   88.02980042    4.90999985    2.40000010
   15.39249992  171.28500366    4.90999985    2.40000010
   15.39555550   -1.00000000    4.90999985    2.40000010
   15.40583324   -1.00000000    4.90999985    2.40000010
   15.40916634  155.36300659    4.90999985    2.40000010
   15.41222191   -1.00000000    4.90999985    2.40000010
   15.41555500   -1.00000000    4.90999985    2.40000010
   15.41861153   -1.00000000    4.90999985    2.40000010
   15.42194462   -1.00000000    4.90999985    2.40000010
   15.42527771  159.10800171    4.90999985    2.40000010
   15.42833328   -1.00000000    4.90999985    2.40000010
   15.43166733   -1.00000000    4.90999985    2.40000010
   15.43500042   -1.00000000    4.90999985    2.40000010
   15.43833351   -1.00000000    4.90999985    2.40000010
   15.44444466   -1.00000000    4.90999985    2.40000010
   15.44861126  129.83900452    4.90999985    2.40000010
   15.45194435  158.71400452    4.90999985    2.40000010
   15.45527744  114.06900024    4.90999985    2.40000010
   15.45833302  108.26599884    4.90999985    2.40000010
   15.46166611  112.03299713    4.90999985    2.40000010
   15.46472168  108.88300323    4.90999985    2.40000010
   15.46777725  113.22599792    4.90999985    2.40000010
   15.46833324  120.74500275    4.90999985    2.40000010
   15.47166634  110.24600220    4.90999985    2.40000010
   15.47499943  106.25099945    4.90999985    2.40000010
   15.47805500  116.81300354    4.90999985    2.40000010
   15.48138809  128.33099365    4.90999985    2.40000010
   15.48750019  128.33099365    4.90999985    2.40000010
   15.49166679   99.87719727    4.90999985    2.40000010
   15.49472237  123.87699890    4.90999985    2.40000010
   15.49805546  122.95300293    4.90999985    2.40000010
   15.50111103  126.78299713    4.90999985    2.40000010
   15.50138855  125.85600281    4.90999985    2.40000010
   15.50472260  122.04599762    4.90999985    2.40000010
   15.50805569  111.47799683    4.90999985    2.40000010
   15.51111126  111.00800323    4.90999985    2.40000010
   15.51444435  115.12999725    4.90999985    2.40000010
   15.51777744   99.32019806    4.90999985    2.40000010
   15.52083302  100.47299957    4.90999985    2.40000010
   15.52416611  103.09999847    4.90999985    2.40000010
   15.53027725  103.09999847    4.90999985    2.40000010
   15.53444481   96.33080292    4.90999985    2.40000010
   15.53472233   90.35130310    4.90999985    2.40000010
   15.53805637  100.65599823    4.90999985    2.40000010
   15.54138947  105.27400208    4.90999985    2.40000010
   15.54444504  103.41699982    4.90999985    2.40000010
   15.54777813   97.59850311    4.90999985    2.40000010
   15.55111122   93.75150299    4.90999985    2.40000010
   15.55416679   90.31079865    4.90999985    2.40000010
   15.55749989   93.57469940    4.90999985    2.40000010
   15.56055546   94.53420258    4.90999985    2.40000010
   15.56388950   94.25180054    4.90999985    2.40000010
   15.56722260   94.66329956    4.90999985    2.40000010
   15.56777763   91.06700134    4.90999985    2.40000010
   15.57305527   91.06700134    4.90999985    2.40000010
   15.57722187   96.89040375    4.90999985    2.40000010
   15.58055592   98.50659943    4.90999985    2.40000010
   15.58361053   91.11699677    4.90999985    2.40000010
   15.58694458   97.67839813    4.90999985    2.40000010
   15.59027767   99.29029846    4.90999985    2.40000010
   15.59333324   98.81700134    4.90999985    2.40000010
   15.59666634   96.82160187    4.90999985    2.40000010
   15.60000038  102.17199707    4.90999985    2.40000010
   15.60111141  101.57599640    4.90999985    2.40000010
   15.60361195  111.12100220    4.90999985    2.40000010
   15.60666752  100.58000183    4.90999985    2.40000010
   15.61000061  102.08899689    4.90999985    2.40000010
   15.61583328  102.08899689    4.90999985    2.40000010
   15.61999989   92.64230347    4.90999985    2.40000010
   15.62333393  100.47399902    4.90999985    2.40000010
   15.62666702   87.93229675    4.90999985    2.40000010
   15.62972260   96.94999695    4.90999985    2.40000010
   15.63305569   95.98639679    4.90999985    2.40000010
   15.63444424   96.20330048    4.90999985    2.40000010
   15.63666630   96.32540131    4.90999985    2.40000010
   15.63972187   95.02739716    4.90999985    2.40000010
   15.64305496   97.17030334    4.90999985    2.40000010
   15.64611053   96.79799652    4.90999985    2.40000010
   15.64944458   88.42970276    4.90999985    2.40000010
   15.65277767   97.40660095    4.90999985    2.40000010
   15.65888882   97.40660095    4.90999985    2.40000010
   15.66305542   95.17970276    4.90999985    2.40000010
   15.66611099   91.81710052    4.90999985    2.40000010
   15.66777802   92.29309845    4.90999985    2.40000010
   15.67000008   95.65329742    4.90999985    2.40000010
   15.67305565   98.27169800    4.90999985    2.40000010
   15.67638874   94.46269989    4.90999985    2.40000010
   15.67944431  101.02200317    4.90999985    2.40000010
   15.68277836   97.29440308    4.90999985    2.40000010
   15.68611145   99.79049683    4.90999985    2.40000010
   15.68916702   97.70890045    4.90999985    2.40000010
   15.69250011  102.12699890    4.90999985    2.40000010
   15.69583321   97.67870331    4.90999985    2.40000010
   15.70166683   97.67870331    4.90999985    2.40000010
   15.70583344   92.64630127    4.90999985    2.40000010
   15.70888901   97.04489899    4.90999985    2.40000010
   15.71222210   93.71659851    4.90999985    2.40000010
   15.71555519   93.64790344    4.90999985    2.40000010
   15.71861076   94.43720245    4.90999985    2.40000010
   15.72194386   89.72149658    4.90999985    2.40000010
   15.72527695   89.20369720    4.90999985    2.40000010
   15.72833252   86.35970306    4.90999985    2.40000010
   15.73166656   95.31770325    4.90999985    2.40000010
   15.73444462   96.36389923    4.90999985    2.40000010
   15.73527813   90.31189728    4.90999985    2.40000010
   15.73833370   93.62180328    4.90999985    2.40000010
   15.74444485   93.62180328    4.90999985    2.40000010
   15.74861145   99.97669983    4.90999985    2.40000010
   15.75194454   94.81919861    4.90999985    2.40000010
   15.75500011  100.73699951    4.90999985    2.40000010
   15.75833321   97.98159790    4.90999985    2.40000010
   15.76166630   93.75029755    4.90999985    2.40000010
   15.76472187   89.35729980    4.90999985    2.40000010
   15.76777744  223.11999512    4.90999985    2.40000010
   15.76861095  105.03800201    4.90999985    2.40000010
   15.77166653  114.31199646    4.90999985    2.40000010
   15.77499962  107.42900085    4.90999985    2.40000010
   15.77805519  202.27200317    4.90999985    2.40000010
   15.78138828   -1.00000000    4.90999985    2.40000010
   15.78722286   -1.00000000    4.90999985    2.40000010
   15.79138947   91.37329865    4.90999985    2.40000010
   15.79472256   98.04879761    4.90999985    2.40000010
   15.79805565  102.93499756    4.90999985    2.40000010
   15.80111122  105.87999725    4.90999985    2.40000010
   15.80138874  101.07299805    4.90999985    2.40000010
   15.80472279  146.01699829    4.90999985    2.40000010
   15.80805588  115.05699921    4.90999985    2.40000010
   15.81111145  167.30599976    4.90999985    2.40000010
   15.81444454   -1.00000000    4.90999985    2.40000010
   15.81777763   62.27209854    4.90999985    2.40000010
   15.82083321  129.38900757    4.90999985    2.40000010
   15.82416630  103.02500153    4.90999985    2.40000010
   15.83027744  103.02500153    4.90999985    2.40000010
   15.83444405  100.08300018    4.90999985    2.40000010
   15.83472157  111.82599640    4.90999985    2.40000010
   15.83805561   98.35410309    4.90999985    2.40000010
   15.84138870  108.06199646    4.90999985    2.40000010
   15.84444427   96.61180115    4.90999985    2.40000010
   15.84777737   94.17780304    4.90999985    2.40000010
   15.85083389  103.57399750    4.90999985    2.40000010
   15.85416698   96.74019623    4.90999985    2.40000010
   15.85750008  101.21700287    4.90999985    2.40000010
   15.86055565  100.39900208    4.90999985    2.40000010
   15.86388969   99.10160065    4.90999985    2.40000010
   15.86722279   98.84660339    4.90999985    2.40000010
   15.86805534   94.32830048    4.90999985    2.40000010
   15.87305546   94.32830048    4.90999985    2.40000010
   15.87722206  110.72000122    4.90999985    2.40000010
   15.88027763   95.91739655    4.90999985    2.40000010
   15.88361073  100.52200317    4.90999985    2.40000010
   15.88694477   93.91159821    4.90999985    2.40000010
   15.89027786   97.03759766    4.90999985    2.40000010
   15.89333344  100.12400055    4.90999985    2.40000010
   15.89666653   94.22550201    4.90999985    2.40000010
   15.89972210   99.16169739    4.90999985    2.40000010
   15.90138817   90.82929993    4.90999985    2.40000010
   15.90333271   88.72859955    4.90999985    2.40000010
   15.90666676   89.01999664    4.90999985    2.40000010
   15.90972137   92.15149689    4.90999985    2.40000010
   15.91583252   92.15149689    4.90999985    2.40000010
   15.92000008   95.15249634    4.90999985    2.40000010
   15.92333412   96.45539856    4.90999985    2.40000010
   15.92638874   99.00599670    4.90999985    2.40000010
   15.92972279   96.96350098    4.90999985    2.40000010
   15.93305588  103.14900208    4.90999985    2.40000010
   15.93472195   94.32360077    4.90999985    2.40000010
   15.93638897   95.30919647    4.90999985    2.40000010
   15.93972206   96.97039795    4.90999985    2.40000010
   15.94277763  103.53500366    4.90999985    2.40000010
   15.94611073  100.59300232    4.90999985    2.40000010
   15.94944477   93.41069794    4.90999985    2.40000010
   15.95249939   94.57949829    4.90999985    2.40000010
   15.95861053   94.57949829    4.90999985    2.40000010
   15.96277714   88.64589691    4.90999985    2.40000010
   15.96611118  115.70899963    4.90999985    2.40000010
   15.96805477  107.86799622    4.90999985    2.40000010
   15.96972179   94.30670166    4.90999985    2.40000010
   15.97305489  106.99600220    4.90999985    2.40000010
   15.97638798  101.75499725    4.90999985    2.40000010
   15.97944355  102.35900116    4.90999985    2.40000010
   15.98277760   98.29090118    4.90999985    2.40000010
   15.98583317   99.25720215    4.90999985    2.40000010
   15.98916721  109.32800293    4.90999985    2.40000010
   15.99250031  100.06099701    4.90999985    2.40000010
   15.99555588  107.35600281    4.90999985    2.40000010
   16.00166702  107.35600281    4.90999985    2.40000010
   16.00583267  110.46299744    4.90999985    2.40000010
   16.00888824  102.29900360    4.90999985    2.40000010
   16.01222229   97.81330109    4.90999985    2.40000010
   16.01527786   97.67690277    4.90999985    2.40000010
   16.01861000   94.73049927    4.90999985    2.40000010
   16.02194405   98.91529846    4.90999985    2.40000010
   16.02499962   98.60949707    4.90999985    2.40000010
   16.02833366   93.18679810    4.90999985    2.40000010
   16.03138924   93.68820190    4.90999985    2.40000010
   16.03472137   95.14679718    4.90999985    2.40000010
   16.03527641  100.94899750    4.90999985    2.40000010
   16.03861046   95.83209991    4.90999985    2.40000010
   16.04444313   95.83209991    4.90999985    2.40000010
   16.04861069   90.20120239    4.90999985    2.40000010
   16.05166626   93.41549683    4.90999985    2.40000010
   16.05499840  101.17299652    4.90999985    2.40000010
   16.05833244   94.62819672    4.90999985    2.40000010
   16.06166649   93.56410217    4.90999985    2.40000010
   16.06472206   98.40789795    4.90999985    2.40000010
   16.06805611   95.06050110    4.90999985    2.40000010
   16.06861115   93.51300049    4.90999985    2.40000010
   16.07166672   92.68910217    4.90999985    2.40000010
   16.07472229   92.54930115    4.90999985    2.40000010
   16.07805634   93.87760162    4.90999985    2.40000010
   16.08139038   91.87550354    4.90999985    2.40000010
   16.08722305   91.87550354    4.90999985    2.40000010
   16.09138870  107.45200348    4.90999985    2.40000010
   16.09472275   94.66329956    4.90999985    2.40000010
   16.09777832   96.23840332    4.90999985    2.40000010
   16.10111237   91.40399933    4.90999985    2.40000010
   16.10194397   93.73079681    4.90999985    2.40000010
   16.10472298   92.70459747    4.90999985    2.40000010
   16.10777855   94.26129913    4.90999985    2.40000010
   16.11111069   87.96510315    4.90999985    2.40000010
   16.11416626   91.32550049    4.90999985    2.40000010
   16.11750031   95.75740051    4.90999985    2.40000010
   16.12083435   91.96399689    4.90999985    2.40000010
   16.12388992   90.86239624    4.90999985    2.40000010
   16.13000107   90.86239624    4.90999985    2.40000010
   16.13416672   93.95649719    4.90999985    2.40000010
   16.13527679  104.80999756    4.90999985    2.40000010
   16.13805580  102.67600250    4.90999985    2.40000010
   16.14111137   87.15480042    4.90999985    2.40000010
   16.14444351   89.99179840    4.90999985    2.40000010
   16.14777756   90.69869995    4.90999985    2.40000010
   16.15083313   92.23090363    4.90999985    2.40000010
   16.15416718   90.05809784    4.90999985    2.40000010
   16.15722275   96.36750031    4.90999985    2.40000010
   16.16055489   90.90889740    4.90999985    2.40000010
   16.16388893   94.01180267    4.90999985    2.40000010
   16.16694450   89.98229980    4.90999985    2.40000010
   16.16860962   93.13030243    4.90999985    2.40000010
   16.17305565   93.13030243    4.90999985    2.40000010
   16.17694473   94.88520050    4.90999985    2.40000010
   16.18027687   95.78610229    4.90999985    2.40000010
   16.18361092   86.93419647    4.90999985    2.40000010
   16.18666649   87.00669861    4.90999985    2.40000010
   16.18999863   95.57900238    4.90999985    2.40000010
   16.19333267   91.01409912    4.90999985    2.40000010
   16.19638824   95.87599945    4.90999985    2.40000010
   16.19972038  102.62500000    4.90999985    2.40000010
   16.20194435   91.63990021    4.90999985    2.40000010
   16.20333481  105.15000153    4.90999985    2.40000010
   16.20639038   98.52809906    4.90999985    2.40000010
   16.20972252   97.84320068    4.90999985    2.40000010
   16.21583366   97.84320068    4.90999985    2.40000010
   16.22000122  153.19299316    4.90999985    2.40000010
   16.22333336  144.86300659    4.90999985    2.40000010
   16.22638893  142.17199707    4.90999985    2.40000010
   16.22972298  225.17199707    4.90999985    2.40000010
   16.23305511   -1.00000000    4.90999985    2.40000010
   16.23527718  245.46499634    4.90999985    2.40000010
   16.23666763  119.94200134    4.90999985    2.40000010
   16.23972321  104.58399963    4.90999985    2.40000010
   16.24305534  175.68499756    4.90999985    2.40000010
   16.24638939  137.40600586    4.90999985    2.40000010
   16.24944496  105.71900177    4.90999985    2.40000010
   16.25277710  133.10800171    4.90999985    2.40000010
   16.25861168  133.10800171    4.90999985    2.40000010
   16.26277733  176.97500610    4.90999985    2.40000010
   16.26611137  104.10099792    4.90999985    2.40000010
   16.26861000  107.12500000    4.90999985    2.40000010
   16.26972198   95.49659729    4.90999985    2.40000010
   16.27277756  104.84300232    4.90999985    2.40000010
   16.27611160  209.27299500    4.90999985    2.40000010
   16.27916718   97.26470184    4.90999985    2.40000010
   16.28249931   96.95249939    4.90999985    2.40000010
   16.28583336   96.92340088    4.90999985    2.40000010
   16.28888893   97.96219635    4.90999985    2.40000010
   16.29222107  100.75599670    4.90999985    2.40000010
   16.29555511   93.70420074    4.90999985    2.40000010
   16.30138779   93.70420074    4.90999985    2.40000010
   16.32000160  105.14900208    4.90999985    2.40000010
   16.32305717   83.69650269    4.90999985    2.40000010
   16.32638931   93.55670166    4.90999985    2.40000010
   16.32944489  168.74800110    4.90999985    2.40000010
   16.33277893  105.01899719    4.90999985    2.40000010
   16.33611107  110.39700317    4.90999985    2.40000010
   16.33916664   98.30249786    4.90999985    2.40000010
   16.34444427   98.30249786    4.90999985    2.40000010
   16.34861183  131.23800659    4.90999985    2.40000010
   16.35194397  190.19500732    4.90999985    2.40000010
   16.35277748  258.27700806    4.90999985    2.40000010
   16.35555649   -1.00000000    4.90999985    2.40000010
   16.35888863  142.46699524    4.90999985    2.40000010
   16.36194420  104.72799683    4.90999985    2.40000010
   16.36527824  109.00399780    4.90999985    2.40000010
   16.36861038  117.34400177    4.90999985    2.40000010
   16.37166595  111.23600006    4.90999985    2.40000010
   16.37500000  129.53500366    4.90999985    2.40000010
   16.37805557  113.68299866    4.90999985    2.40000010
   16.38138962  123.73300171    4.90999985    2.40000010
   16.38750076  123.73300171    4.90999985    2.40000010
   16.39166641  117.95099640    4.90999985    2.40000010
   16.39472198  221.03700256    4.90999985    2.40000010
   16.39805603   -1.00000000    4.90999985    2.40000010
   16.40111160   71.32080078    4.90999985    2.40000010
   16.40444374  167.48899841    4.90999985    2.40000010
   16.40777779  195.14500427    4.90999985    2.40000010
   16.41083336  123.56999969    4.90999985    2.40000010
   16.41416550   -1.00000000    4.90999985    2.40000010
   16.41722107   -1.00000000    4.90999985    2.40000010
   16.41944313   98.19809723    4.90999985    2.40000010
   16.42083359  251.86099243    4.90999985    2.40000010
   16.42416573   -1.00000000    4.90999985    2.40000010
   16.43444443  215.66600037    4.90999985    2.40000010
   16.43750000  226.76600647    4.90999985    2.40000010
   16.44083214  177.03399658    4.90999985    2.40000010
   16.44388771   -1.00000000    4.90999985    2.40000010
   16.44722176   -1.00000000    4.90999985    2.40000010
   16.45055580   -1.00000000    4.90999985    2.40000010
   16.45277786   64.09159851    4.90999985    2.40000010
   16.45416832  254.70700073    4.90999985    2.40000010
   16.45750046  113.67800140    4.90999985    2.40000010
   16.46055603  118.48799896    4.90999985    2.40000010
   16.46389008  129.88200378    4.90999985    2.40000010
   16.46722221  331.29000854    4.90999985    2.40000010
   16.46916771  250.61500549    4.90999985    2.40000010
   16.47027779  123.16699982    4.90999985    2.40000010
   16.47055626  177.03399658    4.90999985    2.40000010
   16.47055626   -1.00000000    4.90999985    2.40000010
   16.47055626   -1.00000000    4.90999985    2.40000010
   16.47055626   -1.00000000    4.90999985    2.40000010
   16.47055626  254.70700073    4.90999985    2.40000010
   16.47083473  113.67800140    4.90999985    2.40000010
   16.47083473  118.48799896    4.90999985    2.40000010
   16.47083473  129.88200378    4.90999985    2.40000010
   16.47083473  331.29000854    4.90999985    2.40000010
   16.47194481   -1.00000000    4.90999985    2.40000010
   16.47500038  136.02200317    4.90999985    2.40000010
   16.47833443  116.89900208    4.90999985    2.40000010
   16.48139000  102.44899750    4.90999985    2.40000010
   16.48472214  149.01300049    4.90999985    2.40000010
   16.49111176  149.01300049    4.90999985    2.40000010
   16.49527740  115.13300323    4.90999985    2.40000010
   16.49861145   98.95249939    4.90999985    2.40000010
   16.50166702   95.92790222    4.90999985    2.40000010
   16.50416756  101.69499969    4.90999985    2.40000010
   16.50527763  102.75499725    4.90999985    2.40000010
   16.50833321  106.09799957    4.90999985    2.40000010
   16.51166725   97.95629883    4.90999985    2.40000010
   16.51499939  120.62899780    4.90999985    2.40000010
   16.51805496  114.82399750    4.90999985    2.40000010
   16.52138901   95.31479645    4.90999985    2.40000010
   16.52472115  104.82299805    4.90999985    2.40000010
   16.52777672  116.07900238    4.90999985    2.40000010
   16.53388786  116.07900238    4.90999985    2.40000010
   16.53805542  129.41400146    4.90999985    2.40000010
   16.54138756  224.74000549    4.90999985    2.40000010
   16.54472160  134.68699646    4.90999985    2.40000010
   16.54777718  261.10699463    4.90999985    2.40000010
   16.55111122   -1.00000000    4.90999985    2.40000010
   16.55444336   -1.00000000    4.90999985    2.40000010
   16.55749893   -1.00000000    4.90999985    2.40000010
   16.56083298  220.65800476    4.90999985    2.40000010
   16.56416512  213.82299805    4.90999985    2.40000010
   16.56722260   -1.00000000    4.90999985    2.40000010
   16.57055664  299.94198608    4.90999985    2.40000010
   16.57111168  267.05099487    4.90999985    2.40000010
   16.57694626  267.05099487    4.90999985    2.40000010
   16.58111191  112.19499969    4.90999985    2.40000010
   16.58416748  107.78900146    4.90999985    2.40000010
   16.58750153  107.82900238    4.90999985    2.40000010
   16.59055710  274.99398804    4.90999985    2.40000010
   16.59388924   -1.00000000    4.90999985    2.40000010
   16.59722328   -1.00000000    4.90999985    2.40000010
   16.60027885  102.16300201    4.90999985    2.40000010
   16.60361099  120.10299683    4.90999985    2.40000010
   16.60444450  143.97999573    4.90999985    2.40000010
   16.60722351   86.41320038    4.90999985    2.40000010
   16.61055565   -1.00000000    4.90999985    2.40000010
   16.61361122   -1.00000000    4.90999985    2.40000010
   16.61972237   -1.00000000    4.90999985    2.40000010
   16.62388992  148.97599792    4.90999985    2.40000010
   16.62694550   -1.00000000    4.90999985    2.40000010
   16.63027763   -1.00000000    4.90999985    2.40000010
   16.63361168   -1.00000000    4.90999985    2.40000010
   16.63666725   -1.00000000    4.90999985    2.40000010
   16.64027786   -1.00000000    4.90999985    2.40000010
   16.64361191   -1.00000000    4.90999985    2.40000010
   16.64666748   -1.00000000    4.90999985    2.40000010
   16.64999962   -1.00000000    4.90999985    2.40000010
   16.65333366   -1.00000000    4.90999985    2.40000010
   16.65638924  144.39599609    4.90999985    2.40000010
   16.66666603  219.35600281    4.90999985    2.40000010
   16.66972160  246.11300659    4.90999985    2.40000010
   16.67111015  135.50199890    4.90999985    2.40000010
   16.67333221   -1.00000000    4.90999985    2.40000010
   16.67666626   -1.00000000    4.90999985    2.40000010
   16.68000031   -1.00000000    4.90999985    2.40000010
   16.68305397   -1.00000000    4.90999985    2.40000010
   16.68638802  200.76800537    4.90999985    2.40000010
   16.68944359  201.85899353    4.90999985    2.40000010
   16.69277763  116.98699951    4.90999985    2.40000010
   16.69610977  253.05200195    4.90999985    2.40000010
   16.69916534  223.52499390    4.90999985    2.40000010
   16.70527840  223.52499390    4.90999985    2.40000010
   16.70944595  247.16400146    4.90999985    2.40000010
   16.71277809   90.23239899    4.90999985    2.40000010
   16.71611214   -1.00000000    4.90999985    2.40000010
   16.71916771   -1.00000000    4.90999985    2.40000010
   16.72249985   -1.00000000    4.90999985    2.40000010
   16.72555542   -1.00000000    4.90999985    2.40000010
   16.72888947   -1.00000000    4.90999985    2.40000010
   16.73222351   -1.00000000    4.90999985    2.40000010
   16.73527718   -1.00000000    4.90999985    2.40000010
   16.73888969   -1.00000000    4.90999985    2.40000010
   16.74222183   -1.00000000    4.90999985    2.40000010
   16.74833298   -1.00000000    4.90999985    2.40000010
   16.75250053   -1.00000000    4.90999985    2.40000010
   16.75555611   -1.00000000    4.90999985    2.40000010
   16.75888824   -1.00000000    4.90999985    2.40000010
   16.76194382  118.34400177    4.90999985    2.40000010
   16.76527786   -1.00000000    4.90999985    2.40000010
   16.76861000   -1.00000000    4.90999985    2.40000010
   16.77111053   -1.00000000   -1.00000000   -1.00000000
   16.77194405  183.65699768    4.90999985    2.40000010
   16.77527809   -1.00000000    4.90999985    2.40000010
   16.77861023   -1.00000000    4.90999985    2.40000010
   16.78166580  117.51100159    4.90999985    2.40000010
   16.78499985  129.20199585    4.90999985    2.40000010
   16.79111099  129.20199585    4.90999985    2.40000010
   16.79527664  100.01999664    4.90999985    2.40000010
   16.79833221   99.82980347    4.90999985    2.40000010
   16.80166626   99.85540009    4.90999985    2.40000010
   16.80444336   97.89040375    4.90999985    2.40000010
   16.80527687  102.60500336    4.90999985    2.40000010
   16.80861092  104.97299957    4.90999985    2.40000010
   16.81194305  102.42700195    4.90999985    2.40000010
   16.81499863   95.77059937    4.90999985    2.40000010
   16.81833458   95.29080200    4.90999985    2.40000010
   16.82166672   92.44190216    4.90999985    2.40000010
   16.82472229   95.61389923    4.90999985    2.40000010
   16.82805634   99.10620117    4.90999985    2.40000010
   16.83388901   99.10620117    4.90999985    2.40000010
   16.83805656  101.40299988    4.90999985    2.40000010
   16.84138870  105.89900208    4.90999985    2.40000010
   16.84444427   99.50319672    4.90999985    2.40000010
   16.84777832   99.97209930    4.90999985    2.40000010
   16.85111237  101.13099670    4.90999985    2.40000010
   16.85416794  101.01899719    4.90999985    2.40000010
   16.85750008   96.71549988    4.90999985    2.40000010
   16.86083412  103.43800354    4.90999985    2.40000010
   16.86388969   96.99800110    4.90999985    2.40000010
   16.86722183   97.97899628    4.90999985    2.40000010
   16.87027740   94.38130188    4.90999985    2.40000010
   16.87111092   95.05560303    4.90999985    2.40000010
   16.87666702   95.05560303    4.90999985    2.40000010
   16.88083267   99.94750214    4.90999985    2.40000010
   16.88416672  105.14900208    4.90999985    2.40000010
   16.88722229   96.83249664    4.90999985    2.40000010
   16.89055634   93.50800323    4.90999985    2.40000010
   16.89388847  242.55200195    4.90999985    2.40000010
   16.89694405   -1.00000000    4.90999985    2.40000010
   16.90027809   -1.00000000    4.90999985    2.40000010
   16.90361023   -1.00000000    4.90999985    2.40000010
   16.90444374  205.93899536    4.90999985    2.40000010
   16.90722275   99.08580017    4.90999985    2.40000010
   16.91027832   95.94719696    4.90999985    2.40000010
   16.91361046   91.73179626    4.90999985    2.40000010
   16.91972160   91.73179626    4.90999985    2.40000010
   16.92388916  100.70200348    4.90999985    2.40000010
   16.92694473  104.55300140    4.90999985    2.40000010
   16.93027687  100.04000092    4.90999985    2.40000010
   16.93361092   98.64189911    4.90999985    2.40000010
   16.93666649  100.41000366    4.90999985    2.40000010
   16.93777657  104.93499756    4.90999985    2.40000010
   16.94027710  101.64600372    4.90999985    2.40000010
   16.94361115  102.00099945    4.90999985    2.40000010
   16.94694328  103.06900024    4.90999985    2.40000010
   16.95000076  163.25500488    4.90999985    2.40000010
   16.95333481  145.61900330    4.90999985    2.40000010
   16.95666695  248.98899841    4.90999985    2.40000010
   16.96250153  248.98899841    4.90999985    2.40000010
   16.96666718   -1.00000000    4.90999985    2.40000010
   16.96972275   68.03540039    4.90999985    2.40000010
   16.97111130  181.71800232    4.90999985    2.40000010
   16.97333336  109.72699738    4.90999985    2.40000010
   16.97666740  183.62500000    4.90999985    2.40000010
   16.98000145  194.73300171    4.90999985    2.40000010
   16.98305511  247.96800232    4.90999985    2.40000010
   16.98638916  132.12699890    4.90999985    2.40000010
   16.98972321  116.47299957    4.90999985    2.40000010
   16.99277878  115.40399933    4.90999985    2.40000010
   16.99611092  104.72399902    4.90999985    2.40000010
   16.99916649   99.10019684    4.90999985    2.40000010
   17.00527763   99.10019684    4.90999985    2.40000010
   17.00944519   99.84719849    4.90999985    2.40000010
   17.01277733   95.57420349    4.90999985    2.40000010
   17.01583290   97.07849884    4.90999985    2.40000010
   17.01916695   95.70069885    4.90999985    2.40000010
   17.02249908   94.29350281    4.90999985    2.40000010
   17.02555466   97.02290344    4.90999985    2.40000010
   17.02888870   96.38849640    4.90999985    2.40000010
   17.03222275   99.20349884    4.90999985    2.40000010
   17.03555489   99.35240173    4.90999985    2.40000010
   17.03777695   96.24369812    4.90999985    2.40000010
   17.03888893   96.42949677    4.90999985    2.40000010
   17.04222107  100.55000305    4.90999985    2.40000010
   17.04805565  100.55000305    4.90999985    2.40000010
   17.05222130  105.44999695    4.90999985    2.40000010
   17.05555534  101.35500336    4.90999985    2.40000010
   17.05888748  101.22899628    4.90999985    2.40000010
   17.06194305   93.06710052    4.90999985    2.40000010
   17.06527710   98.52249908    4.90999985    2.40000010
   17.06833458   99.17870331    4.90999985    2.40000010
   17.07111168   94.75740051    4.90999985    2.40000010
   17.07194519   98.35379791    4.90999985    2.40000010
   17.07527924  102.50399780    4.90999985    2.40000010
   17.07861137  102.29100037    4.90999985    2.40000010
   17.08166695  116.32900238    4.90999985    2.40000010
   17.08500099  126.83100128    4.90999985    2.40000010
   17.09111214  126.83100128    4.90999985    2.40000010
   17.09527779   -1.00000000    4.90999985    2.40000010
   17.09833336   -1.00000000    4.90999985    2.40000010
   17.10166740  136.26899719    4.90999985    2.40000010
   17.10444450  142.77799988    4.90999985    2.40000010
   17.10499954  170.92599487    4.90999985    2.40000010
   17.10833359   -1.00000000    4.90999985    2.40000010
   17.11166763  114.22000122    4.90999985    2.40000010
   17.11499977  117.21600342    4.90999985    2.40000010
   17.11805534  130.04499817    4.90999985    2.40000010
   17.12138939  100.56400299    4.90999985    2.40000010
   17.12472153  273.14700317    4.90999985    2.40000010
   17.12777710  134.68299866    4.90999985    2.40000010
   17.13388824  134.68299866    4.90999985    2.40000010
   17.13805580   -1.00000000    4.90999985    2.40000010
   17.14111137   -1.00000000    4.90999985    2.40000010
   17.14444351   -1.00000000    4.90999985    2.40000010
   17.14777756   -1.00000000    4.90999985    2.40000010
   17.15083313   -1.00000000    4.90999985    2.40000010
   17.15416718   -1.00000000    4.90999985    2.40000010
   17.15749931   -1.00000000    4.90999985    2.40000010
   17.16055489   -1.00000000    4.90999985    2.40000010
   17.16388893   -1.00000000    4.90999985    2.40000010
   17.16694450   -1.00000000    4.90999985    2.40000010
   17.17027664   -1.00000000    4.90999985    2.40000010
   17.18083191   -1.00000000    4.90999985    2.40000010
   17.18416595   -1.00000000    4.90999985    2.40000010
   17.18722153   -1.00000000    4.90999985    2.40000010
   17.19055557   -1.00000000    4.90999985    2.40000010
   17.19361115   -1.00000000    4.90999985    2.40000010
   17.19694328   -1.00000000    4.90999985    2.40000010
   17.20027924   -1.00000000    4.90999985    2.40000010
   17.20333481   -1.00000000    4.90999985    2.40000010
   17.20694542   -1.00000000    4.90999985    2.40000010
   17.21027946  296.15899658    4.90999985    2.40000010
   17.21361160  122.99500275    4.90999985    2.40000010
   17.21944427  122.99500275    4.90999985    2.40000010
   17.22361183   -1.00000000    4.90999985    2.40000010
   17.22694588   -1.00000000    4.90999985    2.40000010
   17.23027802   -1.00000000    4.90999985    2.40000010
   17.23333359   -1.00000000    4.90999985    2.40000010
   17.23666763   -1.00000000    4.90999985    2.40000010
   17.23999977   -1.00000000    4.90999985    2.40000010
   17.24333382   -1.00000000    4.90999985    2.40000010
   17.24666786   -1.00000000    4.90999985    2.40000010
   17.24972153   -1.00000000    4.90999985    2.40000010
   17.25305557   -1.00000000    4.90999985    2.40000010
   17.25611115   -1.00000000    4.90999985    2.40000010
   17.26638794   -1.00000000    4.90999985    2.40000010
   17.26972198   -1.00000000    4.90999985    2.40000010
   17.27305603   -1.00000000    4.90999985    2.40000010
   17.27638817   -1.00000000    4.90999985    2.40000010
   17.27972221   -1.00000000    4.90999985    2.40000010
   17.28277779   -1.00000000    4.90999985    2.40000010
   17.28610992   -1.00000000    4.90999985    2.40000010
   17.28916550   -1.00000000    4.90999985    2.40000010
   17.29249954   -1.00000000    4.90999985    2.40000010
   17.29583359   -1.00000000    4.90999985    2.40000010
   17.29888916   -1.00000000    4.90999985    2.40000010
   17.30944443   -1.00000000    4.90999985    2.40000010
   17.31250000   -1.00000000    4.90999985    2.40000010
   17.31583214   -1.00000000    4.90999985    2.40000010
   17.31888962   -1.00000000    4.90999985    2.40000010
   17.33916664   -1.00000000    4.90999985    2.40000010
   17.34250069   -1.00000000    4.90999985    2.40000010
   17.35250092   -1.00000000    4.90999985    2.40000010
   17.35555649   -1.00000000    4.90999985    2.40000010
   17.35888863   -1.00000000    4.90999985    2.40000010
   17.36222267   -1.00000000    4.90999985    2.40000010
   17.36527824   -1.00000000    4.90999985    2.40000010
   17.36861038   -1.00000000    4.90999985    2.40000010
   17.37222290   -1.00000000    4.90999985    2.40000010
   17.37527847   -1.00000000    4.90999985    2.40000010
   17.37861061   -1.00000000    4.90999985    2.40000010
   17.38166618   -1.00000000    4.90999985    2.40000010
   17.38500023   -1.00000000    4.90999985    2.40000010
   17.39527702   -1.00000000    4.90999985    2.40000010
   17.39861107   -1.00000000    4.90999985    2.40000010
   17.40166664   -1.00000000    4.90999985    2.40000010
   17.40527725  201.89300537    4.90999985    2.40000010
   17.40833282  224.48599243    4.90999985    2.40000010
   17.41166687   -1.00000000    4.90999985    2.40000010
   17.41472244  219.26400757    4.90999985    2.40000010
   17.41805458  134.34399414    4.90999985    2.40000010
   17.42138863  167.51400757    4.90999985    2.40000010
   17.42444420   -1.00000000    4.90999985    2.40000010
   17.42777634   -1.00000000    4.90999985    2.40000010
   17.43416595   -1.00000000    4.90999985    2.40000010
   17.43805504   -1.00000000    4.90999985    2.40000010
   17.44138718   -1.00000000    4.90999985    2.40000010
   17.44472122   -1.00000000    4.90999985    2.40000010
   17.44777679   -1.00000000    4.90999985    2.40000010
   17.45111275   -1.00000000    4.90999985    2.40000010
   17.45444489   -1.00000000    4.90999985    2.40000010
   17.45750046   -1.00000000    4.90999985    2.40000010
   17.46083450   -1.00000000    4.90999985    2.40000010
   17.46389008   -1.00000000    4.90999985    2.40000010
   17.46722221   -1.00000000    4.90999985    2.40000010
   17.47055626   -1.00000000    4.90999985    2.40000010
   17.47111130  245.96899414    4.90999985    2.40000010
   17.47694588  245.96899414    4.90999985    2.40000010
   17.48111153  273.46200562    4.90999985    2.40000010
   17.48416710  135.30999756    4.90999985    2.40000010
   17.48750114  185.67900085    4.90999985    2.40000010
   17.49083328  256.96701050    4.90999985    2.40000010
   17.49388885   -1.00000000    4.90999985    2.40000010
   17.49722290   -1.00000000    4.90999985    2.40000010
   17.50055504   -1.00000000    4.90999985    2.40000010
   17.50361061   -1.00000000    4.90999985    2.40000010
   17.50722313   -1.00000000    4.90999985    2.40000010
   17.51027870   -1.00000000    4.90999985    2.40000010
   17.51361084   -1.00000000    4.90999985    2.40000010
   17.52388954   -1.00000000    4.90999985    2.40000010
   17.52694511   -1.00000000    4.90999985    2.40000010
   17.53027725   -1.00000000    4.90999985    2.40000010
   17.53361130  109.37599945    4.90999985    2.40000010
   17.53666687   -1.00000000    4.90999985    2.40000010
   17.54027748  154.89199829    4.90999985    2.40000010
   17.54333305  137.13900757    4.90999985    2.40000010
   17.54666710   54.63769913    4.90999985    2.40000010
   17.54999924  185.09800720    4.90999985    2.40000010
   17.55305481  137.94500732    4.90999985    2.40000010
   17.55638885  114.66300201    4.90999985    2.40000010
   17.56250000  114.66300201    4.90999985    2.40000010
   17.56666756  139.12699890    4.90999985    2.40000010
   17.57000160  197.09300232    4.90999985    2.40000010
   17.57111168  116.35199738    4.90999985    2.40000010
   17.57361221   -1.00000000   -1.00000000   -1.00000000
   17.57694626   -1.00000000    4.90999985    2.40000010
   17.58000183   -1.00000000    4.90999985    2.40000010
   17.58333397   -1.00000000    4.90999985    2.40000010
   17.58666801  171.25000000    4.90999985    2.40000010
   17.58972359  219.17599487    4.90999985    2.40000010
   17.59305573  108.42400360    4.90999985    2.40000010
   17.59638977  125.31600189    4.90999985    2.40000010
   17.59944534   -1.00000000    4.90999985    2.40000010
   17.60555649   -1.00000000    4.90999985    2.40000010
   17.60944557   -1.00000000    4.90999985    2.40000010
   17.61277771   -1.00000000    4.90999985    2.40000010
   17.61611176   -1.00000000   -1.00000000   -1.00000000
   17.61916733   -1.00000000    4.90999985    2.40000010
   17.62249947  262.40399170    4.90999985    2.40000010
   17.62583351  160.28700256    4.90999985    2.40000010
   17.62888908   87.92189789    4.90999985    2.40000010
   17.63222313   -1.00000000    4.90999985    2.40000010
   17.63527679   -1.00000000    4.90999985    2.40000010
   17.63888931   -1.00000000    4.90999985    2.40000010
   17.64194489   -1.00000000    4.90999985    2.40000010
   17.65250015   -1.00000000    4.90999985    2.40000010
   17.65555573   -1.00000000    4.90999985    2.40000010
   17.65888786   -1.00000000    4.90999985    2.40000010
   17.66222191   -1.00000000    4.90999985    2.40000010
   17.66527748   -1.00000000    4.90999985    2.40000010
   17.66860962   -1.00000000    4.90999985    2.40000010
   17.67222214   -1.00000000    4.90999985    2.40000010
   17.67527771   -1.00000000    4.90999985    2.40000010
   17.67860985  123.87500000    4.90999985    2.40000010
   17.68194389  108.89299774    4.90999985    2.40000010
   17.68499947  127.75199890    4.90999985    2.40000010
   17.69111061  127.75199890    4.90999985    2.40000010
   17.69527626  179.73100281    4.90999985    2.40000010
   17.69861031  167.16999817    4.90999985    2.40000010
   17.70166779  110.97899628    4.90999985    2.40000010
   17.70444489  112.36799622    4.90999985    2.40000010
   17.70527840  104.23300171    4.90999985    2.40000010
   17.70861244  168.97599792    4.90999985    2.40000010
   17.71166801   -1.00000000    4.90999985    2.40000010
   17.71500015  171.33500671    4.90999985    2.40000010
   17.71805573  142.13000488    4.90999985    2.40000010
   17.72138977   -1.00000000    4.90999985    2.40000010
   17.72472191  173.55799866    4.90999985    2.40000010
   17.72777748  199.54100037    4.90999985    2.40000010
   17.73388863  199.54100037    4.90999985    2.40000010
   17.73805618   97.61859894    4.90999985    2.40000010
   17.74138832  112.66300201    4.90999985    2.40000010
   17.74472237  229.03799438    4.90999985    2.40000010
   17.74777794   -1.00000000    4.90999985    2.40000010
   17.75111198   42.23040009    4.90999985    2.40000010
   17.75416756  117.97899628    4.90999985    2.40000010
   17.75749969  171.42599487    4.90999985    2.40000010
   17.76083374  109.27200317    4.90999985    2.40000010
   17.76388931  197.31500244    4.90999985    2.40000010
   17.76722145  160.30799866    4.90999985    2.40000010
   17.77055550   -1.00000000    4.90999985    2.40000010
   17.77111053   61.66859818    4.90999985    2.40000010
   17.77694511   61.66859818    4.90999985    2.40000010
   17.78083229  156.19400024    4.90999985    2.40000010
   17.78416634   -1.00000000   -1.00000000   -1.00000000
   17.78750038  242.62899780    4.90999985    2.40000010
   17.79055595  141.36700439    4.90999985    2.40000010
   17.79388809  117.48100281    4.90999985    2.40000010
   17.79722214  117.82800293    4.90999985    2.40000010
   17.80027771  103.37200165    4.90999985    2.40000010
   17.80360985  110.33999634    4.90999985    2.40000010
   17.80444336  104.91300201    4.90999985    2.40000010
   17.80722237  116.76999664    4.90999985    2.40000010
   17.81055450  150.58099365    4.90999985    2.40000010
   17.81361008   87.75330353    4.90999985    2.40000010
   17.81972313   87.75330353    4.90999985    2.40000010
   17.82389069  110.84799957    4.90999985    2.40000010
   17.82694626   95.67659760    4.90999985    2.40000010
   17.83027840  101.70999908    4.90999985    2.40000010
   17.83361244   98.13729858    4.90999985    2.40000010
   17.83666801  103.22200012    4.90999985    2.40000010
   17.83777809  107.13700104    4.90999985    2.40000010
   17.84027863  115.86000061    4.90999985    2.40000010
   17.84361267  114.42400360    4.90999985    2.40000010
   17.84666824  105.37100220    4.90999985    2.40000010
   17.85000038  105.49600220    4.90999985    2.40000010
   17.85333443  101.13400269    4.90999985    2.40000010
   17.85639000  101.65599823    4.90999985    2.40000010
   17.86250114  101.65599823    4.90999985    2.40000010
   17.86666679  102.74299622    4.90999985    2.40000010
   17.87000084  105.08100128    4.90999985    2.40000010
   17.87111092  100.32800293    4.90999985    2.40000010
   17.87333298   96.40599823    4.90999985    2.40000010
   17.87666702   98.61730194    4.90999985    2.40000010
   17.87972260  103.14099884    4.90999985    2.40000010
   17.88305473   92.73020172    4.90999985    2.40000010
   17.88638878   95.67019653    4.90999985    2.40000010
   17.88944435   97.91680145    4.90999985    2.40000010
   17.89277840   94.96929932    4.90999985    2.40000010
   17.89583397   94.77850342    4.90999985    2.40000010
   17.89916611   94.18990326    4.90999985    2.40000010
   17.90527725   94.18990326    4.90999985    2.40000010
   17.90944481   97.14250183    4.90999985    2.40000010
   17.91277695   95.68460083    4.90999985    2.40000010
   17.91583252   91.83989716    4.90999985    2.40000010
   17.91916656   99.63300323    4.90999985    2.40000010
   17.92249870   88.94139862    4.90999985    2.40000010
   17.92555428   88.79049683    4.90999985    2.40000010
   17.92888832   91.92269897    4.90999985    2.40000010
   17.93222237   91.03029633    4.90999985    2.40000010
   17.93527603   93.69460297    4.90999985    2.40000010
   17.93777657   97.92890167    4.90999985    2.40000010
   17.93888855   94.43520355    4.90999985    2.40000010
   17.94222069   93.66989899    4.90999985    2.40000010
   17.94833183   93.66989899    4.90999985    2.40000010
   17.95222282   88.07489777    4.90999985    2.40000010
   17.95555687   94.05529785    4.90999985    2.40000010
   17.95888901   94.55400085    4.90999985    2.40000010
   17.96194458   91.91259766    4.90999985    2.40000010
   17.96527863   89.36450195    4.90999985    2.40000010
   17.96861076   93.35220337    4.90999985    2.40000010
   17.97111130   89.59709930    4.90999985    2.40000010
   17.97194481   90.87449646    4.90999985    2.40000010
   17.97527885   91.94280243    4.90999985    2.40000010
   17.97833443   91.45989990    4.90999985    2.40000010
   17.98166656   91.72959900    4.90999985    2.40000010
   17.98500061   91.03410339    4.90999985    2.40000010
   17.99111176   91.03410339    4.90999985    2.40000010
   17.99527740   93.22200012    4.90999985    2.40000010
   17.99833298   94.00520325    4.90999985    2.40000010
   18.00166702   90.57160187    4.90999985    2.40000010
   18.00444412   97.11840057    4.90999985    2.40000010
   18.00527763   96.13140106    4.90999985    2.40000010
   18.00861168   95.03369904    4.90999985    2.40000010
   18.01166725   95.71929932    4.90999985    2.40000010
   18.01499939   96.96340179    4.90999985    2.40000010
   18.01833344   93.74400330    4.90999985    2.40000010
   18.02138901   95.87640381    4.90999985    2.40000010
   18.02472115   98.03309631    4.90999985    2.40000010
   18.02777672   97.75550079    4.90999985    2.40000010
   18.03388786   97.75550079    4.90999985    2.40000010
   18.03805542   95.91750336    4.90999985    2.40000010
   18.04138756   98.43620300    4.90999985    2.40000010
   18.04444313   98.35990143    4.90999985    2.40000010
   18.04777718   97.52200317    4.90999985    2.40000010
   18.05083275   95.67369843    4.90999985    2.40000010
   18.05416679   93.47540283    4.90999985    2.40000010
   18.05749893   95.74629974    4.90999985    2.40000010
   18.06055450   96.15640259    4.90999985    2.40000010
   18.06388855  101.63099670    4.90999985    2.40000010
   18.06722260  103.87300110    4.90999985    2.40000010
   18.07027817  100.75099945    4.90999985    2.40000010
   18.07111168   95.89430237    4.90999985    2.40000010
   18.07666779   95.89430237    4.90999985    2.40000010
   18.08083344   96.93419647    4.90999985    2.40000010
   18.08416748   99.86540222    4.90999985    2.40000010
   18.08722305   95.06199646    4.90999985    2.40000010
   18.09055710   93.59439850    4.90999985    2.40000010
   18.09388924   98.84320068    4.90999985    2.40000010
   18.09722328   97.96360016    4.90999985    2.40000010
   18.10027885   95.77469635    4.90999985    2.40000010
   18.10361099   88.14399719    4.90999985    2.40000010
   18.10444450   95.73919678    4.90999985    2.40000010
   18.10722351   91.27629852    4.90999985    2.40000010
   18.11055565   92.89240265    4.90999985    2.40000010
   18.11361122   92.97350311    4.90999985    2.40000010
   18.11972237   92.97350311    4.90999985    2.40000010
   18.12361145   93.75700378    4.90999985    2.40000010
   18.12694550   96.62020111    4.90999985    2.40000010
   18.13027763   90.32409668    4.90999985    2.40000010
   18.13333321   94.00869751    4.90999985    2.40000010
   18.13666725   91.93840027    4.90999985    2.40000010
   18.13777733   90.42189789    4.90999985    2.40000010
   18.14027786   92.28679657    4.90999985    2.40000010
   18.14361191   93.46179962    4.90999985    2.40000010
   18.14666748   89.14089966    4.90999985    2.40000010
   18.14999962   94.96299744    4.90999985    2.40000010
   18.15333366   91.64649963    4.90999985    2.40000010
   18.15638924   89.99800110    4.90999985    2.40000010
   18.16250038   89.99800110    4.90999985    2.40000010
   18.16666603   91.64569855    4.90999985    2.40000010
   18.16972160   95.90859985    4.90999985    2.40000010
   18.17111015   99.01080322    4.90999985    2.40000010
   18.17333221   90.18019867    4.90999985    2.40000010
   18.17666626   93.51090240    4.90999985    2.40000010
   18.17972183   90.18900299    4.90999985    2.40000010
   18.18305397   92.70829773    4.90999985    2.40000010
   18.18638802   94.30390167    4.90999985    2.40000010
   18.18944359   91.56179810    4.90999985    2.40000010
   18.19277763   90.90989685    4.90999985    2.40000010
   18.19610977   90.06680298    4.90999985    2.40000010
   18.19916534   89.81060028    4.90999985    2.40000010
   18.20527840   89.81060028    4.90999985    2.40000010
   18.20944595   96.37480164    4.90999985    2.40000010
   18.21277809   90.20690155    4.90999985    2.40000010
   18.21583366   90.05310059    4.90999985    2.40000010
   18.21916771   92.56590271    4.90999985    2.40000010
   18.22222328   90.89330292    4.90999985    2.40000010
   18.22555542   89.65489960    4.90999985    2.40000010
   18.22888947   89.11840057    4.90999985    2.40000010
   18.23194504   90.47090149    4.90999985    2.40000010
   18.23527718   94.68840027    4.90999985    2.40000010
   18.23805618   91.92060089    4.90999985    2.40000010
   18.23888969   93.64420319    4.90999985    2.40000010
   18.24222183   94.06379700    4.90999985    2.40000010
   18.24805641   94.06379700    4.90999985    2.40000010
   18.25222206   94.44080353    4.90999985    2.40000010
   18.25555611   96.20040131    4.90999985    2.40000010
   18.25888824   96.52279663    4.90999985    2.40000010
   18.26194382   95.85320282    4.90999985    2.40000010
   18.26527786   96.08650208    4.90999985    2.40000010
   18.26861000   95.86080170    4.90999985    2.40000010
   18.27138901   94.35350037    4.90999985    2.40000010
   18.27194405   94.45629883    4.90999985    2.40000010
   18.27527809   97.30180359    4.90999985    2.40000010
   18.27861023   90.86990356    4.90999985    2.40000010
   18.28166580   88.00309753    4.90999985    2.40000010
   18.28499985   89.77890015    4.90999985    2.40000010
   18.29083252   89.77890015    4.90999985    2.40000010
   18.29500008   91.41000366    4.90999985    2.40000010
   18.29833221   92.25460052    4.90999985    2.40000010
   18.30166626   89.60649872    4.90999985    2.40000010
   18.30472183   94.70739746    4.90999985    2.40000010
   18.30499840   94.19450378    4.90999985    2.40000010
   18.30833244   96.42060089    4.90999985    2.40000010
   18.31166649   92.10119629    4.90999985    2.40000010
   18.31472206   94.13059998    4.90999985    2.40000010
   18.31805611  101.65499878    4.90999985    2.40000010
   18.32111168   93.61900330    4.90999985    2.40000010
   18.32444572   89.38649750    4.90999985    2.40000010
   18.32777786   84.61170197    4.90999985    2.40000010
   18.33388901   84.61170197    4.90999985    2.40000010
   18.35361099   90.39730072    4.90999985    2.40000010
   18.35666656   94.81179810    4.90999985    2.40000010
   18.36000061   90.92469788    4.90999985    2.40000010
   18.36333466   94.17070007    4.90999985    2.40000010
   18.36638832   90.61070251    4.90999985    2.40000010
   18.36972237   93.42140198    4.90999985    2.40000010
   18.37305641   94.54070282    4.90999985    2.40000010
   18.37694550   94.54070282    4.90999985    2.40000010
   18.38111115   85.15380096    4.90999985    2.40000010
   18.38444519   93.85430145    4.90999985    2.40000010
   18.38666725   86.94619751    4.90999985    2.40000010
   18.38805580   90.62100220    4.90999985    2.40000010
   18.39138794   92.20079803    4.90999985    2.40000010
   18.39472198   91.32640076    4.90999985    2.40000010
   18.39777756   90.10910034    4.90999985    2.40000010
   18.40111160   95.53179932    4.90999985    2.40000010
   18.40416718   92.19969940    4.90999985    2.40000010
   18.40749931   88.28600311    4.90999985    2.40000010
   18.41083336   94.02339935    4.90999985    2.40000010
   18.41388893   92.43150330    4.90999985    2.40000010
   18.42000008   92.43150330    4.90999985    2.40000010
   18.42388916   90.80660248    4.90999985    2.40000010
   18.42722130   93.68190002    4.90999985    2.40000010
   18.43055534   93.25589752    4.90999985    2.40000010
   18.43361092   93.81980133    4.90999985    2.40000010
   18.43694305   91.41780090    4.90999985    2.40000010
   18.44027710   89.79920197    4.90999985    2.40000010
   18.44333267   94.14939880    4.90999985    2.40000010
   18.44666672   93.04489899    4.90999985    2.40000010
   18.45000076   90.20359802    4.90999985    2.40000010
   18.45305634   89.62310028    4.90999985    2.40000010
   18.45499992   97.33470154    4.90999985    2.40000010
   18.45666695   91.88349915    4.90999985    2.40000010
   18.46277809   91.88349915    4.90999985    2.40000010
   18.46694565   90.35220337    4.90999985    2.40000010
   18.47000122   91.44680023    4.90999985    2.40000010
   18.47333336   91.01609802    4.90999985    2.40000010
   18.47666740   91.14689636    4.90999985    2.40000010
   18.47972298   93.57330322    4.90999985    2.40000010
   18.48305511   86.45379639    4.90999985    2.40000010
   18.48611069   91.35119629    4.90999985    2.40000010
   18.48833275   91.57089996    4.90999985    2.40000010
   18.48972321   91.23590088    4.90999985    2.40000010
   18.49305534   95.87409973    4.90999985    2.40000010
   18.49611092   92.85289764    4.90999985    2.40000010
   18.49944496   92.01979828    4.90999985    2.40000010
   18.50555611   92.01979828    4.90999985    2.40000010
   18.50972176   90.65809631    4.90999985    2.40000010
   18.51305580   91.73999786    4.90999985    2.40000010
   18.51611137   91.98439789    4.90999985    2.40000010
   18.51944351   93.46679688    4.90999985    2.40000010
   18.52166557   95.45850372    4.90999985    2.40000010
   18.52305603   91.67720032    4.90999985    2.40000010
   18.52638817   94.83950043    4.90999985    2.40000010
   18.52972221   91.36769867    4.90999985    2.40000010
   18.53277779   98.60700226    4.90999985    2.40000010
   18.53610992   90.61209869    4.90999985    2.40000010
   18.53916550   90.65380096    4.90999985    2.40000010
   18.54249954   90.77940369    4.90999985    2.40000010
   18.54833221   90.77940369    4.90999985    2.40000010
   18.55249977   96.06259918    4.90999985    2.40000010
   18.55499840   97.81289673    4.90999985    2.40000010
   18.55611038   92.24530029    4.90999985    2.40000010
   18.55944443   90.99269867    4.90999985    2.40000010
   18.56250000   89.25099945    4.90999985    2.40000010
   18.56583214   90.70529938    4.90999985    2.40000010
   18.56916809   92.53710175    4.90999985    2.40000010
   18.57222366   93.05539703    4.90999985    2.40000010
   18.57555580   89.08300018    4.90999985    2.40000010
   18.57861137   90.18820190    4.90999985    2.40000010
   18.58194542   84.32949829    4.90999985    2.40000010
   18.58527756   88.00930023    4.90999985    2.40000010
   18.59138870   88.00930023    4.90999985    2.40000010
   18.59527779   94.17259979    4.90999985    2.40000010
   18.59861183   96.99880219    4.90999985    2.40000010
   18.60194397   96.21399689    4.90999985    2.40000010
   18.60499954   99.60690308    4.90999985    2.40000010
   18.60833359   95.44950104    4.90999985    2.40000010
   18.61166763   98.07039642    4.90999985    2.40000010
   18.61472321   90.67120361    4.90999985    2.40000010
   18.61805534   87.90560150    4.90999985    2.40000010
   18.62138939   94.04280090    4.90999985    2.40000010
   18.62222290   91.65830231    4.90999985    2.40000010
   18.62472153   93.04119873    4.90999985    2.40000010
   18.62805557   97.69940186    4.90999985    2.40000010
   18.63416672   97.69940186    4.90999985    2.40000010
   18.63833237   91.48149872    4.90999985    2.40000010
   18.64138794   92.15609741    4.90999985    2.40000010
   18.64472198   92.83969879    4.90999985    2.40000010
   18.64805603   95.19080353    4.90999985    2.40000010
   18.65111160   95.30599976    4.90999985    2.40000010
   18.65444374   92.88739777    4.90999985    2.40000010
   18.65555573   94.48940277    4.90999985    2.40000010
   18.65777779   92.59210205    4.90999985    2.40000010
   18.66110992   94.36029816    4.90999985    2.40000010
   18.66444397   92.04799652    4.90999985    2.40000010
   18.66749954   93.05349731    4.90999985    2.40000010
   18.67083359   89.05400085    4.90999985    2.40000010
   18.67694473   89.05400085    4.90999985    2.40000010
   18.68111038   94.77719879    4.90999985    2.40000010
   18.68444443   99.10540009    4.90999985    2.40000010
   18.68750000   95.35959625    4.90999985    2.40000010
   18.68916512  100.65100098    4.90999985    2.40000010
   18.69111061   91.35459900    4.90999985    2.40000010
   18.69444275   90.21250153    4.90999985    2.40000010
   18.69777679   88.72260284    4.90999985    2.40000010
   18.70083427   98.43409729    4.90999985    2.40000010
   18.70416832   96.00930023    4.90999985    2.40000010
   18.70750046   93.55190277    4.90999985    2.40000010
   18.71055603   93.71520233    4.90999985    2.40000010
   18.71389008   94.10220337    4.90999985    2.40000010
   18.71972275   94.10220337    4.90999985    2.40000010
   18.72389030   93.19779968    4.90999985    2.40000010
   18.72722244   90.23349762    4.90999985    2.40000010
   18.73027802   91.74240112    4.90999985    2.40000010
   18.73361206   94.94789886    4.90999985    2.40000010
   18.73694420   92.80480194    4.90999985    2.40000010
   18.73999977   93.60970306    4.90999985    2.40000010
   18.74333382   92.21130371    4.90999985    2.40000010
   18.74666786   90.58840179    4.90999985    2.40000010
   18.74972153   99.94860077    4.90999985    2.40000010
   18.75305557   93.15869904    4.90999985    2.40000010
   18.75583267   95.41459656    4.90999985    2.40000010
   18.75666618  102.90699768    4.90999985    2.40000010
   18.76277733  102.90699768    4.90999985    2.40000010
   18.76666641   95.73190308    4.90999985    2.40000010
   18.77000046   98.24790192    4.90999985    2.40000010
   18.77333260   96.46489716    4.90999985    2.40000010
   18.77638817   93.12640381    4.90999985    2.40000010
   18.77972221   99.70989990    4.90999985    2.40000010
   18.78305435  100.34400177    4.90999985    2.40000010
   18.78610992   99.03820038    4.90999985    2.40000010
   18.78916550   96.73269653    4.90999985    2.40000010
   18.78972244  101.81500244    4.90999985    2.40000010
   18.79305458   95.81950378    4.90999985    2.40000010
   18.79638863   93.30079651    4.90999985    2.40000010
   18.79944420   99.61100006    4.90999985    2.40000010
   18.80555534   99.61100006    4.90999985    2.40000010
   18.80972099   92.17849731    4.90999985    2.40000010
   18.81277657   93.78410339    4.90999985    2.40000010
   18.81611061   92.85169983    4.90999985    2.40000010
   18.81944466   93.19770050    4.90999985    2.40000010
   18.82250023   92.66470337    4.90999985    2.40000010
   18.82277870   88.40959930    4.90999985    2.40000010
   18.82611275   94.39209747    4.90999985    2.40000010
   18.82916832   93.48380280    4.90999985    2.40000010
   18.83250046   94.84549713    4.90999985    2.40000010
   18.83583450   89.51950073    4.90999985    2.40000010
   18.83889008   87.70749664    4.90999985    2.40000010
   18.84222221   89.77030182    4.90999985    2.40000010
   18.84833336   89.77030182    4.90999985    2.40000010
   18.85250092   93.24849701    4.90999985    2.40000010
   18.85583305   90.98439789    4.90999985    2.40000010
   18.85611153   91.71730042    4.90999985    2.40000010
   18.85944557   77.05470276    4.90999985    2.40000010
   18.86277771   92.50959778    4.90999985    2.40000010
   18.86583328   84.79709625    4.90999985    2.40000010
   18.86916733   90.11270142    4.90999985    2.40000010
   18.87222290   90.79949951    4.90999985    2.40000010
   18.87555504   92.80249786    4.90999985    2.40000010
   18.87888908   93.47519684    4.90999985    2.40000010
   18.88194466   97.06800079    4.90999985    2.40000010
   18.88527679   94.62560272    4.90999985    2.40000010
   18.89111137   94.62560272    4.90999985    2.40000010
   18.89527702   96.47899628    4.90999985    2.40000010
   18.89861107   91.41570282    4.90999985    2.40000010
   18.90166664   95.49909973    4.90999985    2.40000010
   18.90499878   94.41690063    4.90999985    2.40000010
   18.90833282   88.42079926    4.90999985    2.40000010
   18.91138840   96.40640259    4.90999985    2.40000010
   18.91472244   91.12889862    4.90999985    2.40000010
   18.91805458   89.73139954    4.90999985    2.40000010
   18.92111015   92.16339874    4.90999985    2.40000010
   18.92249870   95.19879913    4.90999985    2.40000010
   18.92472076   94.53730011    4.90999985    2.40000010
   18.92805481   93.31320190    4.90999985    2.40000010
   18.93388748   93.31320190    4.90999985    2.40000010
   18.93805504   93.87650299    4.90999985    2.40000010
   18.94138718   94.14559937    4.90999985    2.40000010
   18.94472122   91.40709686    4.90999985    2.40000010
   18.94805527   91.11450195    4.90999985    2.40000010
   18.95111275   87.42729950    4.90999985    2.40000010
   18.95444489   86.88909912    4.90999985    2.40000010
   18.95583344   91.41670227    4.90999985    2.40000010
   18.95805550   93.59100342    4.90999985    2.40000010
   18.96111107   90.95559692    4.90999985    2.40000010
   18.96444511   94.88559723    4.90999985    2.40000010
   18.96750069   96.88259888    4.90999985    2.40000010
   18.97083473   93.54100037    4.90999985    2.40000010
   18.97694588   93.54100037    4.90999985    2.40000010
   18.98111153   92.95570374    4.90999985    2.40000010
   18.98416710   92.63400269    4.90999985    2.40000010
   18.98750114   93.18389893    4.90999985    2.40000010
   18.98916626   99.76470184    4.90999985    2.40000010
   18.99111176   91.53910065    4.90999985    2.40000010
   18.99444389   91.68759918    4.90999985    2.40000010
   18.99749947   94.32830048    4.90999985    2.40000010
   19.00083351   96.47460175    4.90999985    2.40000010
   19.00416756   90.72239685    4.90999985    2.40000010
   19.00722313   93.14330292    4.90999985    2.40000010
   19.01055527   87.50550079    4.90999985    2.40000010
   19.01388931   90.93540192    4.90999985    2.40000010
   19.01972198   90.93540192    4.90999985    2.40000010
   19.02388954   94.53639984    4.90999985    2.40000010
   19.02694511   91.82489777    4.90999985    2.40000010
   19.03027725   92.06349945    4.90999985    2.40000010
   19.03361130   95.44380188    4.90999985    2.40000010
   19.03666687   93.16929626    4.90999985    2.40000010
   19.03999901   88.19989777    4.90999985    2.40000010
   19.04333305   92.05899811    4.90999985    2.40000010
   19.04638863   94.11180115    4.90999985    2.40000010
   19.04972076   90.94460297    4.90999985    2.40000010
   19.05277634   89.39170074    4.90999985    2.40000010
   19.05583191   96.14839935    4.90999985    2.40000010
   19.05638885   92.47200012    4.90999985    2.40000010
   19.06250000   92.47200012    4.90999985    2.40000010
   19.06666756   92.55819702    4.90999985    2.40000010
   19.07000160   93.31909943    4.90999985    2.40000010
   19.07305717   96.44609833    4.90999985    2.40000010
   19.07638931   92.97309875    4.90999985    2.40000010
   19.07972336   91.29399872    4.90999985    2.40000010
   19.08277893   95.89759827    4.90999985    2.40000010
   19.08611107   90.96450043    4.90999985    2.40000010
   19.08916664   92.39739990    4.90999985    2.40000010
   19.08972359   95.30229950    4.90999985    2.40000010
   19.09305573   94.08390045    4.90999985    2.40000010
   19.09611130   90.02500153    4.90999985    2.40000010
   19.09944534   92.09159851    4.90999985    2.40000010
   19.10555649   92.09159851    4.90999985    2.40000010
   19.10944557   93.39089966    4.90999985    2.40000010
   19.11277771   94.30329895    4.90999985    2.40000010
   19.11611176   90.64569855    4.90999985    2.40000010
   19.11916733   85.81030273    4.90999985    2.40000010
   19.12249947   96.83489990    4.90999985    2.40000010
   19.12305641   93.28140259    4.90999985    2.40000010
   19.12611198   98.94069672    4.90999985    2.40000010
   19.12944412   92.25469971    4.90999985    2.40000010
   19.13277817   89.40609741    4.90999985    2.40000010
   19.13583374   90.13539886    4.90999985    2.40000010
   19.13916588   93.87210083    4.90999985    2.40000010
   19.14249992   92.93180084    4.90999985    2.40000010
   19.14833260   92.93180084    4.90999985    2.40000010
   19.15250015   90.20800018    4.90999985    2.40000010
   19.15555573   93.63339996    4.90999985    2.40000010
   19.15638924   93.46150208    4.90999985    2.40000010
   19.15916634   94.75540161    4.90999985    2.40000010
   19.16250038   93.04440308    4.90999985    2.40000010
   19.16583252   93.55500031    4.90999985    2.40000010
   19.16888809   96.75060272    4.90999985    2.40000010
   19.17222214   92.11389923    4.90999985    2.40000010
   19.17527771   91.67169952    4.90999985    2.40000010
   19.17860985   93.81009674    4.90999985    2.40000010
   19.18194389   96.75119781    4.90999985    2.40000010
   19.18499947   91.82769775    4.90999985    2.40000010
   19.19111061   91.82769775    4.90999985    2.40000010
   19.19527626   94.34239960    4.90999985    2.40000010
   19.19833183   92.70559692    4.90999985    2.40000010
   19.20166779   91.90709686    4.90999985    2.40000010
   19.20499992   89.75550079    4.90999985    2.40000010
   19.20805550   85.98419952    4.90999985    2.40000010
   19.21138954   91.87729645    4.90999985    2.40000010
   19.21472359   88.79170227    4.90999985    2.40000010
   19.21777916   88.46160126    4.90999985    2.40000010
   19.22111130   93.40709686    4.90999985    2.40000010
   19.22305679   96.10160065    4.90999985    2.40000010
   19.22444534   94.05860138    4.90999985    2.40000010
   19.22777748   94.35739899    4.90999985    2.40000010
   19.23388863   94.35739899    4.90999985    2.40000010
   19.23805618   89.48729706    4.90999985    2.40000010
   19.24138832   91.36859894    4.90999985    2.40000010
   19.24444389   91.94290161    4.90999985    2.40000010
   19.24777794   93.12079620    4.90999985    2.40000010
   19.25111198   90.38629913    4.90999985    2.40000010
   19.25416756   92.68910217    4.90999985    2.40000010
   19.25638962   89.87349701    4.90999985    2.40000010
   19.25777817   94.19000244    4.90999985    2.40000010
   19.26111031   89.21299744    4.90999985    2.40000010
   19.26444435   93.07479858    4.90999985    2.40000010
   19.26749992   92.62039948    4.90999985    2.40000010
   19.27083397   92.47679901    4.90999985    2.40000010
   19.27666664   92.47679901    4.90999985    2.40000010
   19.28083229   82.75250244    4.90999985    2.40000010
   19.28416634   91.32250214    4.90999985    2.40000010
   19.28722191   92.87159729    4.90999985    2.40000010
   19.28972244   94.87840271    4.90999985    2.40000010
   19.29083252   95.59989929    4.90999985    2.40000010
   19.29416656   94.96179962    4.90999985    2.40000010
   19.29749870   92.15720367    4.90999985    2.40000010
   19.30055428   95.05000305    4.90999985    2.40000010
   19.30388832   96.48229980    4.90999985    2.40000010
   19.30722237   93.69090271    4.90999985    2.40000010
   19.31027794   95.64440155    4.90999985    2.40000010
   19.31361008   92.22480011    4.90999985    2.40000010
   19.31972313   92.22480011    4.90999985    2.40000010
   19.32389069   90.91829681    4.90999985    2.40000010
   19.32694626   91.18699646    4.90999985    2.40000010
   19.33027840   92.70359802    4.90999985    2.40000010
   19.33333397   89.55770111    4.90999985    2.40000010
   19.33666801   97.09169769    4.90999985    2.40000010
   19.34000015   92.95800018    4.90999985    2.40000010
   19.34305573   92.37490082    4.90999985    2.40000010
   19.34638977   91.46179962    4.90999985    2.40000010
   19.34972191   92.39409637    4.90999985    2.40000010
   19.35277748   92.55930328    4.90999985    2.40000010
   19.37027740   82.77380371    4.90999985    2.40000010
   19.37416649   82.77380371    4.90999985    2.40000010
   19.37833405   96.61519623    4.90999985    2.40000010
   19.38166618   93.52330017    4.90999985    2.40000010
   19.38500023   94.87349701    4.90999985    2.40000010
   19.38805580   91.13939667    4.90999985    2.40000010
   19.39138794   94.23999786    4.90999985    2.40000010
   19.39472198   93.21330261    4.90999985    2.40000010
   19.39777756   99.09159851    4.90999985    2.40000010
   19.40111160   93.54139709    4.90999985    2.40000010
   19.40333366   93.63200378    4.90999985    2.40000010
   19.40472221   94.60449982    4.90999985    2.40000010
   19.40805435   95.21440125    4.90999985    2.40000010
   19.41110992   95.85880280    4.90999985    2.40000010
   19.41722107   95.85880280    4.90999985    2.40000010
   19.42138863   93.89450073    4.90999985    2.40000010
   19.42444420   91.11160278    4.90999985    2.40000010
   19.42777634   94.87329865    4.90999985    2.40000010
   19.43083191   94.96029663    4.90999985    2.40000010
   19.43416595   95.63120270    4.90999985    2.40000010
   19.43666649   90.63069916    4.90999985    2.40000010
   19.43777657   92.68530273    4.90999985    2.40000010
   19.44111061   94.92630005    4.90999985    2.40000010
   19.44416618   90.32879639    4.90999985    2.40000010
   19.44749832   96.82460022    4.90999985    2.40000010
   19.45055580   93.41770172    4.90999985    2.40000010
   19.45388985   76.90889740    4.90999985    2.40000010
   19.46000099   76.90889740    4.90999985    2.40000010
   19.46416664   97.29350281    4.90999985    2.40000010
   19.46722221   96.17910004    4.90999985    2.40000010
   19.47000122   94.60220337    4.90999985    2.40000010
   19.47083473   96.62429810    4.90999985    2.40000010
   19.47416687   97.92900085    4.90999985    2.40000010
   19.47750092   95.95659637    4.90999985    2.40000010
   19.48055649   97.00910187    4.90999985    2.40000010
   19.48388863   94.19809723    4.90999985    2.40000010
   19.48694420   96.26159668    4.90999985    2.40000010
   19.49027824   93.69809723    4.90999985    2.40000010
   19.49361229   93.58889771    4.90999985    2.40000010
   19.49666786   92.90070343    4.90999985    2.40000010
   19.50277710   92.90070343    4.90999985    2.40000010
   19.50694466   95.40969849    4.90999985    2.40000010
   19.51027870   81.52819824    4.90999985    2.40000010
   19.51333427   93.14150238    4.90999985    2.40000010
   19.51666641   85.34760284    4.90999985    2.40000010
   19.51972198   97.48819733    4.90999985    2.40000010
   19.52305603   95.41100311    4.90999985    2.40000010
   19.52638817   93.70140076    4.90999985    2.40000010
   19.52944374   90.23079681    4.90999985    2.40000010
   19.53277779   93.00499725    4.90999985    2.40000010
   19.53610992   98.24949646    4.90999985    2.40000010
   19.53777695   95.78600311    4.90999985    2.40000010
   19.53972244   94.48500061    4.90999985    2.40000010
   19.54555511   94.48500061    4.90999985    2.40000010
   19.54972076   98.45680237    4.90999985    2.40000010
   19.55305481   97.63179779    4.90999985    2.40000010
   19.55611038   93.66419983    4.90999985    2.40000010
   19.55944443   93.90560150    4.90999985    2.40000010
   19.56277657   97.90209961    4.90999985    2.40000010
   19.56583214   97.65119934    4.90999985    2.40000010
   19.56916809   98.50420380    4.90999985    2.40000010
   19.57111168   86.23410034    4.90999985    2.40000010
   19.57277870  102.14700317    4.90999985    2.40000010
   19.57583427  102.40000153    4.90999985    2.40000010
   19.57916832  100.14299774    4.90999985    2.40000010
   19.58250046   87.64479828    4.90999985    2.40000010
   19.58861160   87.64479828    4.90999985    2.40000010
   19.59277916   93.90670013    4.90999985    2.40000010
   19.59583473   96.33370209    4.90999985    2.40000010
   19.59916687   92.65299988    4.90999985    2.40000010
   19.60250092   98.56459808    4.90999985    2.40000010
   19.60472298   96.84159851    4.90999985    2.40000010
   19.60611153   87.90589905    4.90999985    2.40000010
   19.60916710   81.13839722    4.90999985    2.40000010
   19.61250114   96.93679810    4.90999985    2.40000010
   19.61583328   96.32520294    4.90999985    2.40000010
   19.61888885   98.52709961    4.90999985    2.40000010
   19.62222290   95.23629761    4.90999985    2.40000010
   19.62555504   88.08309937    4.90999985    2.40000010
   19.63138962   88.08309937    4.90999985    2.40000010
   19.63555527   95.47489929    4.90999985    2.40000010
   19.63805580   96.07510376    4.90999985    2.40000010
   19.63916588   89.95709991    4.90999985    2.40000010
   19.64222145   98.09549713    4.90999985    2.40000010
   19.64555550   97.97630310    4.90999985    2.40000010
   19.64888954  102.39700317    4.90999985    2.40000010
   19.65194321   95.16490173    4.90999985    2.40000010
   19.65527725  101.30599976    4.90999985    2.40000010
   19.65861130   97.55580139    4.90999985    2.40000010
   19.66166687  100.69899750    4.90999985    2.40000010
   19.66499901   95.95790100    4.90999985    2.40000010
   19.66805458   96.41159821    4.90999985    2.40000010
   19.67416573   96.41159821    4.90999985    2.40000010
   19.67833328   92.00679779    4.90999985    2.40000010
   19.68166542   99.82289886    4.90999985    2.40000010
   19.68472099  105.11399841    4.90999985    2.40000010
   19.68805504   84.62079620    4.90999985    2.40000010
   19.69138718   93.07740021    4.90999985    2.40000010
   19.69444275   74.45919800    4.90999985    2.40000010
   19.69777679   95.51380157    4.90999985    2.40000010
   19.70111275   94.74859619    4.90999985    2.40000010
   19.70416832   91.41329956    4.90999985    2.40000010
   19.70499992   98.24009705    4.90999985    2.40000010
   19.70777893   98.33950043    4.90999985    2.40000010
   19.71111107   94.29309845    4.90999985    2.40000010
   19.71694565   94.29309845    4.90999985    2.40000010
   19.72111130   94.56379700    4.90999985    2.40000010
   19.72444534   95.64409637    4.90999985    2.40000010
   19.72777748   93.48280334    4.90999985    2.40000010
   19.73083305   92.59819794    4.90999985    2.40000010
   19.73416710   98.30590057    4.90999985    2.40000010
   19.73722267   97.07479858    4.90999985    2.40000010
   19.73861122   99.18260193    4.90999985    2.40000010
   19.74083328   95.09369659    4.90999985    2.40000010
   19.74416733   93.58070374    4.90999985    2.40000010
   19.74722290   98.98930359    4.90999985    2.40000010
   19.75055504   95.84069824    4.90999985    2.40000010
   19.75388908   95.28749847    4.90999985    2.40000010
   19.76000023   95.28749847    4.90999985    2.40000010
   19.76416588   92.19339752    4.90999985    2.40000010
   19.76722145   87.74019623    4.90999985    2.40000010
   19.77055550   90.98609924    4.90999985    2.40000010
   19.77194405   99.33809662    4.90999985    2.40000010
   19.77416611   94.48600006    4.90999985    2.40000010
   19.77722168   94.15049744    4.90999985    2.40000010
   19.78055573   96.40440369    4.90999985    2.40000010
   19.78388786   94.78759766    4.90999985    2.40000010
   19.78694344   99.59130096    4.90999985    2.40000010
   19.79027748   94.84169769    4.90999985    2.40000010
   19.79361153   99.46089935    4.90999985    2.40000010
   19.79666710  101.42500305    4.90999985    2.40000010
   19.80277634  101.42500305    4.90999985    2.40000010
   19.80694389  100.62400055    4.90999985    2.40000010
   19.80999947   97.04070282    4.90999985    2.40000010
   19.81333351   97.50930023    4.90999985    2.40000010
   19.81666756   97.06310272    4.90999985    2.40000010
   19.81972313   96.46219635    4.90999985    2.40000010
   19.82305717   98.16680145    4.90999985    2.40000010
   19.82638931   99.26609802    4.90999985    2.40000010
   19.82944489   98.02770233    4.90999985    2.40000010
   19.83277893  100.00099945    4.90999985    2.40000010
   19.83583450   94.53150177    4.90999985    2.40000010
   19.83861160  100.55599976    4.90999985    2.40000010
   19.83972359   96.82900238    4.90999985    2.40000010
   19.84555626   96.82900238    4.90999985    2.40000010
   19.84972191   94.41369629    4.90999985    2.40000010
   19.85305595   96.20210266    4.90999985    2.40000010
   19.85611153   93.75309753    4.90999985    2.40000010
   19.85944557   93.44879913    4.90999985    2.40000010
   19.86277771  116.84999847    4.90999985    2.40000010
   19.86583328   94.20629883    4.90999985    2.40000010
   19.86916733   99.93810272    4.90999985    2.40000010
   19.87194443   95.08899689    4.90999985    2.40000010
   19.87277794   96.95539856    4.90999985    2.40000010
   19.87611198   96.56890106    4.90999985    2.40000010
   19.87916756   98.06960297    4.90999985    2.40000010
   19.88249969  102.03099823    4.90999985    2.40000010
   19.88833237  102.03099823    4.90999985    2.40000010
   19.89305496   98.42400360    4.90999985    2.40000010
   19.89611053   98.77020264    4.90999985    2.40000010
   19.89944458   95.03579712    4.90999985    2.40000010
   19.90250015   92.88939667    4.90999985    2.40000010
   19.90527725  249.42500305    4.90999985    2.40000010
   19.90611076  141.88200378    4.90999985    2.40000010
   19.90944481   98.28420258    4.90999985    2.40000010
   19.91250038   91.83309937    4.90999985    2.40000010
   19.91583252  101.10199738    4.90999985    2.40000010
   19.91888809   98.10169983    4.90999985    2.40000010
   19.92222214   95.19619751    4.90999985    2.40000010
   19.92555428   97.73410034    4.90999985    2.40000010
   19.93138885   97.73410034    4.90999985    2.40000010
   19.93555450   99.98040009    4.90999985    2.40000010
   19.93861008  100.44200134    4.90999985    2.40000010
   19.93916512   96.53820038    4.90999985    2.40000010
   19.94249916  101.44100189    4.90999985    2.40000010
   19.94555473   95.27320099    4.90999985    2.40000010
   19.94888878   91.49500275    4.90999985    2.40000010
   19.95194435   95.53839874    4.90999985    2.40000010
   19.95527840  100.24700165    4.90999985    2.40000010
   19.95861244   99.01609802    4.90999985    2.40000010
   19.96166801   93.55840302    4.90999985    2.40000010
   19.96500015   93.72489929    4.90999985    2.40000010
   19.96833420   95.08999634    4.90999985    2.40000010
   19.97416687   95.08999634    4.90999985    2.40000010
   19.97833443   97.72930145    4.90999985    2.40000010
   19.98139000   96.51210022    4.90999985    2.40000010
   19.98472214   91.51180267    4.90999985    2.40000010
   19.98805618   98.90149689    4.90999985    2.40000010
   19.99138832   97.87729645    4.90999985    2.40000010
   19.99444389   94.05519867    4.90999985    2.40000010
   19.99777794   93.98320007    4.90999985    2.40000010
   20.00111198   95.14869690    4.90999985    2.40000010
   20.00416756   94.66960144    4.90999985    2.40000010
   20.00527763   93.29440308    4.90999985    2.40000010
   20.00777817   96.70449829    4.90999985    2.40000010
   20.01111031   96.39710236    4.90999985    2.40000010
   20.01694489   96.39710236    4.90999985    2.40000010
   20.02111053   -1.00000000    4.90999985    2.40000010
   20.02444458   -1.00000000    4.90999985    2.40000010
   20.02750015   74.70850372    4.90999985    2.40000010
   20.03083229  157.71000671    4.90999985    2.40000010
   20.03416634  106.31400299    4.90999985    2.40000010
   20.03722191  107.05200195    4.90999985    2.40000010
   20.03861046   97.18309784    4.90999985    2.40000010
   20.04083252  102.37200165    4.90999985    2.40000010
   20.04416656   -1.00000000    4.90999985    2.40000010
   20.04722214   -1.00000000    4.90999985    2.40000010
   20.05055428   -1.00000000    4.90999985    2.40000010
   20.05360985   -1.00000000    4.90999985    2.40000010
   20.06388855   -1.00000000    4.90999985    2.40000010
   20.06722260   -1.00000000    4.90999985    2.40000010
   20.07027817   -1.00000000    4.90999985    2.40000010
   20.07416725   -1.00000000    4.90999985    2.40000010
   20.07722282   -1.00000000    4.90999985    2.40000010
   20.08055687   -1.00000000    4.90999985    2.40000010
   20.08388901   -1.00000000    4.90999985    2.40000010
   20.08694458   -1.00000000    4.90999985    2.40000010
   20.09027863   -1.00000000    4.90999985    2.40000010
   20.09333420   -1.00000000    4.90999985    2.40000010
   20.09666824   -1.00000000    4.90999985    2.40000010
   20.10666656   -1.00000000    4.90999985    2.40000010
   20.11000061   -1.00000000    4.90999985    2.40000010
   20.11333466  142.28500366    4.90999985    2.40000010
   20.11638832   98.06109619    4.90999985    2.40000010
   20.11972237   99.85880280    4.90999985    2.40000010
   20.12305641  105.57599640    4.90999985    2.40000010
   20.12611198  104.77300262    4.90999985    2.40000010
   20.12944412  108.43699646    4.90999985    2.40000010
   20.13249969   79.45510101    4.90999985    2.40000010
   20.13583374   93.52870178    4.90999985    2.40000010
   20.13888931   98.14279938    4.90999985    2.40000010
   20.13944435   94.25759888    4.90999985    2.40000010
   20.14555550   94.25759888    4.90999985    2.40000010
   20.14972115   -1.00000000    4.90999985    2.40000010
   20.15277672   -1.00000000    4.90999985    2.40000010
   20.15611076   -1.00000000    4.90999985    2.40000010
   20.15944481   -1.00000000    4.90999985    2.40000010
   20.16250038   -1.00000000    4.90999985    2.40000010
   20.16583252   -1.00000000    4.90999985    2.40000010
   20.16916656   -1.00000000    4.90999985    2.40000010
   20.17277718   -1.00000000    4.90999985    2.40000010
   20.17583275   -1.00000000    4.90999985    2.40000010
   20.17916679   -1.00000000    4.90999985    2.40000010
   20.18222237   -1.00000000    4.90999985    2.40000010
   20.19249916   98.84880066    4.90999985    2.40000010
   20.19583321  111.58100128    4.90999985    2.40000010
   20.19888878  100.42500305    4.90999985    2.40000010
   20.20222282  102.58300018    4.90999985    2.40000010
   20.20527840  104.85500336    4.90999985    2.40000010
   20.20583344  103.91300201    4.90999985    2.40000010
   20.20916748  102.96399689    4.90999985    2.40000010
   20.21222305  101.21199799    4.90999985    2.40000010
   20.21555710   89.77559662    4.90999985    2.40000010
   20.21888924   93.05480194    4.90999985    2.40000010
   20.22194481  101.24600220    4.90999985    2.40000010
   20.22527885   94.38480377    4.90999985    2.40000010
   20.23111153   94.38480377    4.90999985    2.40000010
   20.23527718   92.29740143    4.90999985    2.40000010
   20.23861122   95.64610291    4.90999985    2.40000010
   20.23916626   96.36430359    4.90999985    2.40000010
   20.24222183  101.55999756    4.90999985    2.40000010
   20.24527740  101.12599945    4.90999985    2.40000010
   20.24861145   95.13749695    4.90999985    2.40000010
   20.25194359   97.11789703    4.90999985    2.40000010
   20.25499916   93.92040253    4.90999985    2.40000010
   20.25833321   95.26329803    4.90999985    2.40000010
   20.26166725   93.86430359    4.90999985    2.40000010
   20.26499939  101.65200043    4.90999985    2.40000010
   20.26805496   95.97399902    4.90999985    2.40000010
   20.27416611   95.97399902    4.90999985    2.40000010
   20.27833366  103.28299713    4.90999985    2.40000010
   20.28138924   -1.00000000    4.90999985    2.40000010
   20.28472137   -1.00000000    4.90999985    2.40000010
   20.28777695   -1.00000000    4.90999985    2.40000010
   20.29111099   -1.00000000    4.90999985    2.40000010
   20.29444313   -1.00000000    4.90999985    2.40000010
   20.29749870   -1.00000000    4.90999985    2.40000010
   20.30083275   -1.00000000    4.90999985    2.40000010
   20.30416679  135.90199280    4.90999985    2.40000010
   20.30583191  105.50599670    4.90999985    2.40000010
   20.30777740  100.16400146    4.90999985    2.40000010
   20.31110954  112.80400085    4.90999985    2.40000010
   20.31694603  112.80400085    4.90999985    2.40000010
   20.32111168  133.13600159    4.90999985    2.40000010
   20.32416725  125.50800323    4.90999985    2.40000010
   20.32750130  162.77799988    4.90999985    2.40000010
   20.33083344  158.74899292    4.90999985    2.40000010
   20.33388901  159.36500549    4.90999985    2.40000010
   20.33722305  140.75999451    4.90999985    2.40000010
   20.34083366   -1.00000000    4.90999985    2.40000010
   20.34388924   -1.00000000    4.90999985    2.40000010
   20.34722328   -1.00000000    4.90999985    2.40000010
   20.35055542   -1.00000000    4.90999985    2.40000010
   20.35361099   -1.00000000    4.90999985    2.40000010
   20.36388969   -1.00000000    4.90999985    2.40000010
   20.36722183   -1.00000000    4.90999985    2.40000010
   20.37027740   -1.00000000    4.90999985    2.40000010
   20.38999939   -1.00000000    4.90999985    2.40000010
   20.39305496   -1.00000000    4.90999985    2.40000010
   20.39638901   -1.00000000    4.90999985    2.40000010
   20.40694427   -1.00000000    4.90999985    2.40000010
