    HOUR (UT)   FLARE FACTOR    SKY TESTER    SUN TESTER
   12.22361088   -1.00000000   -1.00000000   -1.00000000
   12.24333382  101.45700073    4.90999985    1.73000002
   12.24861145  103.24400330    4.90999985    1.73000002
   12.25194454   -1.00000000    4.90999985    1.75000000
   12.25500011   -1.00000000    4.90999985    1.75000000
   12.25833321  137.81599426    4.90999985    1.75000000
   12.26166630  117.40699768    4.90999985    1.75000000
   12.26472187  131.19500732    4.90999985    1.76999998
   12.26805496  123.38300323    4.90999985    1.76999998
   12.27111053  112.33799744    4.90999985    1.76999998
   12.27444458  130.11599731    4.90999985    1.76999998
   12.27638817   91.86840057    4.90999985    1.76999998
   12.27805519   93.69629669    4.90999985    1.76999998
   12.28138828   90.40039825    4.90999985    1.78999996
   12.28527832   90.67790222    4.90999985    1.76999998
   12.28833389  111.46800232    4.90999985    1.78999996
   12.29166698   93.54309845    4.90999985    1.78999996
   12.29500008  100.74099731    4.90999985    1.80999994
   12.29805565  102.02600098    4.90999985    1.80999994
   12.30138874  113.47899628    4.90999985    1.78999996
   12.30444431  103.92199707    4.90999985    1.80999994
   12.30777836   92.50749969    4.90999985    1.80999994
   12.30972195   98.22519684    4.90999985    1.80999994
   12.31138897   97.02519989    4.90999985    1.83000004
   12.31472206  101.86900330    4.90999985    1.83000004
   12.31777763  105.41699982    4.90999985    1.83000004
   12.32111073   91.36180115    4.90999985    1.83000004
   12.32416630   93.05419922    4.90999985    1.83000004
   12.32750034   92.29360199    4.90999985    1.85000002
   12.33083344  107.94499969    4.90999985    1.83000004
   12.33388901   91.23970032    4.90999985    1.85000002
   12.33722210  108.99800110    4.90999985    1.85000002
   12.34055519  100.06300354    4.90999985    1.85000002
   12.34305477   92.01940155    4.90999985    1.86000001
   12.34416676  105.02899933    4.90999985    1.86000001
   12.34749985  106.88899994    4.90999985    1.85000002
   12.35055637  115.24800110    4.90999985    1.85000002
   12.35388947   95.63379669    4.90999985    1.86000001
   12.35694504   99.17569733    4.90999985    1.86000001
   12.36027813  108.72000122    4.90999985    1.86000001
   12.36361122  113.33599854    4.90999985    1.85000002
   12.36666679  137.69299316    4.90999985    1.85000002
   12.36999989  113.28299713    4.90999985    1.86000001
   12.37333393   94.02050018    4.90999985    1.86000001
   12.37638855  114.97599792    4.90999985    1.86000001
   12.37694454  106.77899933    4.90999985    1.86000001
   12.38027763  112.07099915    4.90999985    1.86000001
   12.38333321  129.71699524    4.90999985    1.86000001
   12.38666630  133.07899475    4.90999985    1.86000001
   12.38972187  103.73600006    4.90999985    1.86000001
   12.39305496  133.17700195    4.90999985    1.86000001
   12.39638901   91.64520264    4.90999985    1.88000000
   12.39944458   94.04250336    4.90999985    1.88000000
   12.40277767  124.10299683    4.90999985    1.88000000
   12.40611076  135.91200256    4.90999985    1.88000000
   12.40916634  104.79499817    4.90999985    1.88000000
   12.40972137   97.86029816    4.90999985    1.88000000
   12.41277695   97.04709625    4.90999985    1.88000000
   12.41611099   86.15630341    4.90999985    1.89999998
   12.41916656  122.30799866    4.90999985    1.89999998
   12.42250061  130.87399292    4.90999985    1.88000000
   12.42555618   97.28620148    4.90999985    1.89999998
   12.42888927   99.50879669    4.90999985    1.89999998
   12.43222237   99.42919922    4.90999985    1.89999998
   12.43527794   95.16159821    4.90999985    1.91999996
   12.43861103  112.98899841    4.90999985    1.91999996
   12.44194412   89.02680206    4.90999985    1.91999996
   12.44305515   87.30660248    4.90999985    1.91999996
   12.44555569  115.97399902    4.90999985    1.91999996
   12.44888878  110.75299835    4.90999985    1.91999996
   12.45194435   86.25769806    4.90999985    1.91999996
   12.45555496  100.02799988    4.90999985    1.91999996
   12.45888901  104.33699799    4.90999985    1.91999996
   12.46194458  102.17500305    4.90999985    1.91999996
   12.46527767   93.21330261    4.90999985    1.94000006
   12.46833324   98.78350067    4.90999985    1.94000006
   12.47166634   86.24140167    4.90999985    1.94000006
   12.47499943   99.65750122    4.90999985    1.94000006
   12.47638798   86.52390289    4.90999985    1.94000006
   12.47861099   93.84339905    4.90999985    1.94000006
   12.48194408   82.72229767    4.90999985    1.94000006
   12.48500061   99.99669647    4.90999985    1.96000004
   12.48833370   97.82559967    4.90999985    1.96000004
   12.49194431   86.81880188    4.90999985    1.96000004
   12.49499989   90.54740143    4.90999985    1.96000004
   12.49833393   87.63539886    4.90999985    1.96000004
   12.50138855   93.57550049    4.90999985    1.96000004
   12.50472260  102.63099670    4.90999985    1.98000002
   12.50805569   89.52909851    4.90999985    1.96000004
   12.50972176   85.78749847    4.90999985    1.98000002
   12.51166630   86.83699799    4.90999985    1.98000002
   12.51500034  100.41200256    4.90999985    1.98000002
   12.51805496   87.34220123    4.90999985    1.96000004
   12.52138901   97.11540222    4.90999985    1.98000002
   12.52444458   85.85479736    4.90999985    1.98000002
   12.52777767  100.35399628    4.90999985    1.98000002
   12.53111076   99.23829651    4.90999985    1.98000002
   12.53416729   93.50099945    4.90999985    1.98000002
   12.53750038  121.03600311    4.90999985    1.98000002
   12.54083347   94.07520294    4.90999985    1.98000002
   12.54305553  119.60600281    4.90999985    1.98000002
   12.54444504   94.00399780    4.90999985    2.00000000
   12.54777813   93.19799805    4.90999985    2.00000000
   12.55083370   91.92079926    4.90999985    2.00000000
   12.55416679  100.76899719    4.90999985    2.00000000
   12.55749989  103.19200134    4.90999985    2.01999998
   12.56055546  102.04000092    4.90999985    2.00000000
   12.56388950  105.27999878    4.90999985    2.00000000
   12.56694412   84.75399780    4.90999985    2.01999998
   12.57027817   90.21130371    4.90999985    2.01999998
   12.57361126   96.85910034    4.90999985    2.00000000
   12.57638836   94.78980255    4.90999985    2.01999998
   12.57722187   92.57240295    4.90999985    2.01999998
   12.58055592  113.66500092    4.90999985    2.01999998
   12.58361053   84.90290070    4.90999985    2.01999998
   12.58694458  101.52100372    4.90999985    2.01999998
   12.59027767  106.22000122    4.90999985    2.01999998
   12.59333324   97.22170258    4.90999985    2.01999998
   12.59666634   92.63970184    4.90999985    2.01999998
   12.59972191   86.57499695    4.90999985    2.03999996
   12.60305595   98.19750214    4.90999985    2.03999996
   12.60638905  121.11299896    4.86999989    2.03999996
   12.60944462  101.52500153    4.80999994    2.03999996
   12.61000061  112.52700043    4.80000019    2.03999996
   12.61333370   88.41159821    4.73999977    2.03999996
   12.61638927   92.40119934    4.67999983    2.03999996
   12.61972237   85.20909882    4.65999985    2.03999996
   12.62305546   85.07599640    4.61999989    2.03999996
   12.62611103   88.54650116    4.59999990    2.05999994
   12.62944412   82.46579742    4.53999996    2.05999994
   12.63249969   85.92880249    4.53000021    2.05999994
   12.63583279   83.41950226    4.46999979    2.05999994
   12.63916683   83.49579620    4.42999983    2.05999994
   12.64222240   86.40029907    4.40999985    2.05999994
   12.64333344   84.34829712    4.40999985    2.05999994
   12.64583302   95.30380249    4.42999983    2.07999992
   12.64888859   91.11660004    4.40999985    2.07999992
   12.65222168   92.19809723    4.40999985    2.07999992
   12.65555477   91.87449646    4.44999981    2.07999992
   12.65861034   94.12709808    4.44999981    2.07999992
   12.66194439   92.06390381    4.48999977    2.07999992
   12.66499996  102.40399933    4.51000023    2.07999992
   12.66833401   90.52210236    4.53000021    2.07999992
   12.67166710   93.91940308    4.53000021    2.09999990
   12.67472267   95.47740173    4.53999996    2.07999992
   12.67666721   95.24210358    4.53999996    2.07999992
   12.67861176   95.73509979    4.53999996    2.07999992
   12.68166733   96.69760132    4.51000023    2.09999990
   12.68500042  101.42500305    4.44999981    2.09999990
   12.68833351  107.06700134    4.40999985    2.09999990
   12.69138908  100.89099884    4.36999989    2.09999990
   12.69472218   94.03639984    4.36999989    2.07999992
   12.69833374   90.24179840    4.36999989    2.09999990
   12.70138836  104.16699982    4.36999989    2.09999990
   12.70472240   97.70760345    4.36999989    2.09999990
   12.70805550   95.31269836    4.34999990    2.11999989
   12.71000004   95.20670319    4.34999990    2.09999990
   12.71166611   99.13259888    4.34999990    2.11999989
   12.71472168  113.33799744    4.34999990    2.09999990
   12.71805477  124.25199890    4.34999990    2.11999989
   12.72138882  109.94599915    4.34999990    2.11999989
   12.72444439  104.08599854    4.34999990    2.09999990
   12.72777748  117.83699799    4.30999994    2.09999990
   12.73111057   83.69349670    4.26000023    2.11999989
   12.73416710   93.68389893    4.21999979    2.13000011
   12.73750019   90.26550293    4.15999985    2.11999989
   12.74055576   86.34929657    4.13999987    2.11999989
   12.74333382  102.42199707    4.09999990    2.11999989
   12.74444485   94.59279633    4.07999992    2.13000011
   12.74750042  105.09200287    4.03999996    2.13000011
   12.75083351   96.98269653    4.01999998    2.13000011
   12.75416660   85.75920105    3.97000003    2.13000011
   12.75722218   83.60060120    3.93000007    2.13000011
   12.76055527   84.77899933    3.84999990    2.13000011
   12.76388931   80.46140289    3.78999996    2.13000011
   12.76694393  105.68800354    3.72000003    2.13000011
   12.77027798   79.95989990    3.68000007    2.13000011
   12.77333355   79.69670105    3.64000010    2.15000010
   12.77666664   82.52880096    3.64000010    2.13000011
   12.77722168  103.65699768    3.64000010    2.13000011
   12.78027725   92.58290100    3.64000010    2.13000011
   12.78361130  104.74800110    3.59999990    2.15000010
   12.78694534  107.09700012    3.61999989    2.15000010
   12.79000092  102.74199677    3.59999990    2.15000010
   12.79333401   84.75009918    3.57999992    2.15000010
   12.79666710  102.75000000    3.53999996    2.15000010
   12.79972267   96.76719666    3.50000000    2.15000010
   12.80305576   90.14929962    3.39000010    2.17000008
   12.80611134   80.11100006    3.30999994    2.17000008
   12.80944443   85.79209900    3.26999998    2.17000008
   12.81000042  105.24400330    3.26999998    2.17000008
   12.81305599   82.04840088    3.21000004    2.17000008
   12.81611156  104.23699951    3.18000007    2.17000008
   12.81944466  126.39800262    3.14000010    2.17000008
   12.82277775  120.91100311    3.18000007    2.17000008
   12.82583332  117.67900085    3.18000007    2.17000008
   12.82916641  117.08100128    3.25000000    2.17000008
   12.83222198  102.82599640    3.32999992    2.17000008
   12.83555508  104.50000000    3.36999989    2.17000008
   12.83888817   92.59279633    3.30999994    2.17000008
   12.84194374  102.16200256    3.21000004    2.17000008
   12.84333324  102.54299927    3.14000010    2.17000008
   12.84583282  106.48300171    3.05999994    2.19000006
   12.84888840  101.15899658    3.00000000    2.17000008
   12.85222244   90.87619781    2.96000004    2.17000008
   12.85555553  106.88800049    3.00000000    2.17000008
   12.85861111  110.29199982    3.05999994    2.17000008
   12.86194515  107.03600311    3.11999989    2.17000008
   12.86500072   94.97000122    3.07999992    2.19000006
   12.86833382  101.96099854    3.03999996    2.19000006
   12.87166691   91.06500244    3.05999994    2.19000006
   12.87472248   94.03479767    3.09999990    2.19000006
   12.87666702  115.98799896    3.09999990    2.19000006
   12.87861156  108.70899963    3.11999989    2.21000004
   12.88166714  107.72299957    3.16000009    2.19000006
   12.88500023   96.27780151    3.14000010    2.19000006
   12.88833332  110.26300049    3.11999989    2.19000006
   12.89138889  106.08200073    3.01999998    2.19000006
   12.89472198  103.94899750    3.01999998    2.21000004
   12.89777756  102.87400055    3.01999998    2.19000006
   12.90111065   93.06349945    3.01999998    2.21000004
   12.90444374  104.61699677    3.01999998    2.21000004
   12.90749931   95.80280304    3.00000000    2.21000004
   12.90999985  108.85900116    3.01999998    2.21000004
   12.91138840  111.29100037    3.01999998    2.21000004
   12.91444397  110.14499664    3.01999998    2.21000004
   12.91777802   95.08329773    3.05999994    2.21000004
   12.92111111   91.03320313    3.09999990    2.21000004
   12.92416668   82.21579742    3.01999998    2.21000004
   12.92750072  100.63099670    2.94000006    2.21000004
   12.93083382   99.05390167    3.09999990    2.21000004
   12.93388939   88.31670380    3.03999996    2.21000004
   12.93722248   89.75240326    2.91000009    2.21000004
   12.94055557   89.66519928    2.84999990    2.23000002
   12.94333363   86.78199768    2.75000000    2.23000002
   12.94416714   81.71540070    2.73000002    2.21000004
   12.94722271   89.46170044    2.75000000    2.21000004
   12.95055580   98.92160034    2.75000000    2.21000004
   12.95388889   97.16819763    2.86999989    2.23000002
   12.95694447  104.40100098    2.98000002    2.23000002
   12.96027756   91.04239655    3.00000000    2.23000002
   12.96333313   99.58540344    2.98000002    2.23000002
   12.96666622   86.95919800    2.98000002    2.23000002
   12.96999931   81.46869659    3.03999996    2.23000002
   12.97305489   81.18550110    2.98000002    2.23000002
   12.97638798   81.45140076    2.75000000    2.23000002
   12.97694397   81.62889862    2.75000000    2.23000002
   12.97999954  100.87400055    2.73000002    2.25000000
   12.98333359   97.24420166    2.75000000    2.23000002
   12.98666668  102.03199768    2.78999996    2.23000002
   12.98972225  110.38999939    2.89000010    2.25000000
   12.99305534  103.05200195    2.91000009    2.23000002
   12.99611092  102.06300354    2.93000007    2.23000002
   12.99944496   97.43599701    2.91000009    2.25000000
   13.00277805  107.60800171    2.86999989    2.23000002
   13.00583363   96.38120270    2.84999990    2.25000000
   13.00916672  104.26799774    2.75000000    2.25000000
   13.01027775  108.21900177    2.73000002    2.25000000
   13.01249981  103.01899719    2.67000008    2.25000000
   13.01583290   95.08339691    2.66000009    2.25000000
   13.01916599  102.55300140    2.64000010    2.25000000
   13.02222157   93.29869843    2.61999989    2.25000000
   13.02555561  106.31500244    2.64000010    2.25000000
   13.02888870   89.94740295    2.75000000    2.25000000
   13.03194427   95.34690094    2.75000000    2.25000000
   13.03527832   94.19589996    2.80999994    2.25000000
   13.03833389   95.15470123    2.76999998    2.26999998
   13.04166698   88.57369995    2.78999996    2.26999998
   13.04361153   96.68139648    2.75000000    2.25000000
   13.04527855  101.31500244    2.69000006    2.26999998
   13.04861164   94.26090240    2.67000008    2.26999998
   13.05194473   81.72190094    2.64000010    2.26999998
   13.05500031   82.87779999    2.50000000    2.25000000
   13.05833340   95.95670319    2.23000002    2.26999998
   13.06166649   83.57630157    2.11999989    2.26999998
   13.06472206   95.69129944    2.09999990    2.26999998
   13.06805515  100.95200348    2.07999992    2.26999998
   13.07111073  100.08999634    2.17000008    2.26999998
   13.07444477  111.69499969    2.25000000    2.28999996
   13.07694435   99.29119873    2.28999996    2.28999996
   13.07805538  101.36599731    2.28999996    2.28999996
   13.08138847   97.54370117    2.40000010    2.26999998
   13.08472157   97.62650299    2.48000002    2.26999998
   13.08777714  107.13999939    2.55999994    2.26999998
   13.09111118  107.85500336    2.61999989    2.26999998
   13.09444427  117.26300049    2.71000004    2.28999996
   13.09749985  114.84899902    2.78999996    2.28999996
   13.10083389  132.39500427    2.86999989    2.26999998
   13.10388947  114.12599945    2.94000006    2.28999996
   13.10722256  122.61799622    3.01999998    2.28999996
   13.11027813  130.27200317    3.01999998    2.28999996
   13.11055565  117.92299652    2.98000002    2.28999996
   13.11388969  124.87699890    2.98000002    2.28999996
   13.11722279  130.89500427    2.98000002    2.26999998
   13.12027836  123.70400238    2.98000002    2.26999998
   13.12361145  102.84500122    2.98000002    2.26999998
   13.12694454  106.42299652    2.96000004    2.28999996
   13.13000011  122.47200012    2.94000006    2.28999996
   13.13333321  110.46600342    3.05999994    2.28999996
   13.13638878  108.36900330    3.09999990    2.28999996
   13.13972187  117.00399780    3.23000002    2.28999996
   13.14305496  123.14800262    3.28999996    2.28999996
   13.14361095  114.23600006    3.30999994    2.30999994
   13.14638901  113.28199768    3.34999990    2.28999996
   13.14972210  121.51000214    3.45000005    2.28999996
   13.15305519  112.33399963    3.48000002    2.28999996
   13.15611076  104.05699921    3.50000000    2.30999994
   13.15944386  129.47999573    3.41000009    2.28999996
   13.16277695  129.52400208    3.18000007    2.28999996
   13.16583252  120.04299927    3.07999992    2.30999994
   13.16916656  107.11599731    3.09999990    2.28999996
   13.17222214  121.25700378    3.16000009    2.28999996
   13.17555618  117.96499634    3.18000007    2.30999994
   13.17694473  121.66999817    3.16000009    2.30999994
   13.17916679  120.14499664    3.20000005    2.30999994
   13.18249989  121.59600067    3.20000005    2.30999994
   13.18583298  118.31800079    3.14000010    2.28999996
   13.18888855  118.00000000    3.03999996    2.30999994
   13.19222260  104.87200165    2.93000007    2.30999994
   13.19555569   97.39219666    2.82999992    2.30999994
   13.19861126  127.13700104    2.78999996    2.30999994
   13.20194435  102.15599823    2.78999996    2.30999994
   13.20499992  100.95600128    2.78999996    2.32999992
   13.20833302  114.55000305    2.80999994    2.32999992
   13.21027756  113.86199951    2.82999992    2.32999992
   13.21194458  127.89800262    2.82999992    2.30999994
   13.21527767  121.40799713    2.82999992    2.30999994
   13.21861076  123.67900085    2.89000010    2.30999994
   13.22166634  121.38099670    2.94000006    2.32999992
   13.22499943  111.32399750    3.01999998    2.32999992
   13.22833252  113.08100128    3.05999994    2.30999994
   13.23138809  105.93299866    3.01999998    2.30999994
   13.23472214  102.61900330    3.00000000    2.32999992
   13.23777771  103.92900085    2.96000004    2.32999992
   13.24111176  113.75599670    2.94000006    2.32999992
   13.25972176   97.66860199    3.05999994    2.32999992
   13.26111126   97.43170166    3.05999994    2.32999992
   13.26444435  105.81800079    3.01999998    2.32999992
   13.26749992  100.73600006    3.00000000    2.32999992
   13.27083302   95.19439697    2.96000004    2.32999992
   13.27416611  103.65899658    2.94000006    2.32999992
   13.27722168   96.80979919    2.89000010    2.32999992
   13.28055573  101.57800293    2.96000004    2.32999992
   13.28361130  107.90200043    3.05999994    2.32999992
   13.28694534  101.24700165    3.11999989    2.32999992
   13.29027843  105.91500092    3.16000009    2.32999992
   13.29305553   92.26540375    3.20000005    2.32999992
   13.29388905  103.79399872    3.21000004    2.32999992
   13.29694462  121.87899780    3.28999996    2.32999992
   13.30027771  112.81099701    3.30999994    2.32999992
   13.30361176   99.87490082    3.30999994    2.32999992
   13.30666733   99.50170135    3.26999998    2.32999992
   13.31000042   98.10710144    3.20000005    2.34999990
   13.31333351   86.63870239    3.14000010    2.34999990
   13.31638908   95.91000366    3.09999990    2.34999990
   13.31972218   84.01789856    3.07999992    2.34999990
   13.32277775   93.40709686    3.05999994    2.34999990
   13.32611084  107.23799896    3.03999996    2.34999990
   13.32666683   92.83679962    3.03999996    2.34999990
   13.32972240  103.46299744    3.01999998    2.34999990
   13.33305550   87.86710358    3.05999994    2.34999990
   13.33638859   86.12480164    3.14000010    2.36999989
   13.33944416   84.02179718    3.21000004    2.34999990
   13.34277725   95.87660217    3.30999994    2.34999990
   13.34611034   97.42729950    3.39000010    2.34999990
   13.34916592  102.01899719    3.48000002    2.34999990
   13.35249996   89.94490051    3.53999996    2.34999990
   13.35555553   99.16780090    3.59999990    2.34999990
   13.35888958   93.90630341    3.59999990    2.34999990
   13.36000061   78.84529877    3.59999990    2.34999990
   13.36250019   94.98380280    3.55999994    2.34999990
   13.36555576  109.29199982    3.55999994    2.34999990
   13.36888885   91.37339783    3.59999990    2.34999990
   13.37194443  108.72000122    3.64000010    2.36999989
   13.37527752  111.99099731    3.64000010    2.34999990
   13.37861156  103.22299957    3.64000010    2.36999989
   13.38166714  101.20500183    3.66000009    2.34999990
   13.38500023   99.59529877    3.66000009    2.34999990
   13.38833332   87.89499664    3.68000007    2.36999989
   13.39138889   98.27510071    3.66000009    2.36999989
   13.39333344   96.30870056    3.66000009    2.36999989
   13.39527798  100.91600037    3.66000009    2.34999990
   13.39833355   91.00949860    3.64000010    2.36999989
   13.40166664   94.81890106    3.53999996    2.36999989
   13.40472221   88.96499634    3.46000004    2.36999989
   13.40805531  113.08899689    3.39000010    2.36999989
   13.41138840  100.68900299    3.32999992    2.36999989
   13.41444397   91.89939880    3.30999994    2.39000010
   13.41777802   90.15039825    3.25000000    2.36999989
   13.42111111  101.58300018    3.21000004    2.36999989
   13.42416668  111.46800232    3.16000009    2.36999989
   13.42666721  103.84500122    3.14000010    2.36999989
   13.42805576   91.03620148    3.11999989    2.36999989
   13.43111134   99.63970184    3.09999990    2.36999989
   13.43444443  103.49400330    3.16000009    2.36999989
   13.43750000  110.16100311    3.20000005    2.36999989
   13.44083309   91.87729645    3.21000004    2.39000010
   13.44416714   90.53469849    3.11999989    2.36999989
   13.44722271   93.84140015    3.05999994    2.39000010
   13.45055580   86.43270111    3.01999998    2.39000010
   13.45388889  102.15899658    2.98000002    2.36999989
   13.45694447   93.22070313    2.98000002    2.39000010
   13.46000004  100.93900299    3.00000000    2.39000010
   13.46083355   93.70259857    3.00000000    2.39000010
   13.46388912   93.44550323    3.03999996    2.39000010
   13.46722221  105.33399963    3.05999994    2.39000010
   13.47027779   89.88800049    3.11999989    2.39000010
   13.47361088  100.23000336    3.18000007    2.39000010
   13.47694397   98.58419800    3.20000005    2.39000010
   13.47999954  101.20999908    3.23000002    2.39000010
   13.48333359   90.11180115    3.30999994    2.39000010
   13.48666668   88.75759888    3.39000010    2.39000010
   13.48972225   86.01180267    3.48000002    2.39000010
   13.49305534   85.15809631    3.61999989    2.39000010
   13.49361134   96.66079712    3.61999989    2.39000010
   13.49666691   93.50150299    3.64000010    2.39000010
   13.50000000   80.80010223    3.61999989    2.39000010
   13.50305557   94.78430176    3.70000005    2.39000010
   13.50638866   85.18340302    3.75000000    2.39000010
   13.50972176   93.37460327    3.82999992    2.39000010
   13.51305580   88.81400299    3.86999989    2.39000010
   13.51611137   87.95649719    3.84999990    2.39000010
   13.51944447   82.06320190    3.80999994    2.39000010
   13.52277756   89.34380341    3.76999998    2.39000010
   13.52583313   80.95719910    3.82999992    2.39000010
   13.52694416   93.60060120    3.80999994    2.39000010
   13.52944374   83.60230255    3.78999996    2.39000010
   13.53277779   87.74340057    3.76999998    2.39000010
   13.63472176   -1.00000000   -1.00000000   -1.00000000
   13.73277760   -1.00000000   -1.00000000   -1.00000000
   13.83861065   -1.00000000   -1.00000000   -1.00000000
   13.91055489   69.58110046    3.03999996    2.46000004
   13.91388893  106.22200012    3.07999992    2.46000004
   13.91722298   97.37249756    3.03999996    2.46000004
   13.92027855  107.50700378    2.96000004    2.46000004
   13.92361164  102.84300232    2.89000010    2.46000004
   13.92666721   96.01429749    2.94000006    2.46000004
   13.93083382   96.01429749    2.94000006    2.46000004
   13.93500042   83.35679626    2.86999989    2.46000004
   13.93833351  100.39399719    2.76999998    2.46000004
   13.94138908  104.58799744    2.76999998    2.48000002
   13.94388866  122.97599792    2.75000000    2.48000002
   13.94499969  104.51599884    2.75000000    2.48000002
   13.94833374  103.90599823    2.73000002    2.46000004
   13.95138836   99.33080292    2.75000000    2.46000004
   13.95472240  107.34500122    2.69000006    2.46000004
   13.95777798  108.18199921    2.67000008    2.46000004
   13.96111107   93.55629730    2.66000009    2.46000004
   13.96444416  102.97399902    2.67000008    2.46000004
   13.96749973  100.88200378    2.67000008    2.46000004
   13.97388840  100.88200378    2.53999996    2.46000004
   13.97777748   97.64649963    2.44000006    2.48000002
   13.98111057  104.73200226    2.40000010    2.48000002
   13.98444462   91.80480194    2.46000004    2.48000002
   13.98750019   91.83139801    2.55999994    2.48000002
   13.99083328   94.86669922    2.64000010    2.48000002
   13.99416733   94.95339966    2.75000000    2.48000002
   13.99722290  101.05799866    2.78999996    2.46000004
   14.00055599  103.35199738    2.78999996    2.48000002
   14.00361156  100.18499756    2.80999994    2.46000004
   14.00694466  102.29000092    2.89000010    2.48000002
   14.01027775  101.16999817    2.96000004    2.48000002
   14.01055527  107.88800049    2.98000002    2.48000002
   14.01666641  107.88800049    2.96000004    2.48000002
   14.02083302  100.22000122    2.89000010    2.48000002
   14.02388859  102.98400116    2.67000008    2.48000002
   14.02722168  105.48699951    2.55999994    2.48000002
   14.03055573  107.81099701    2.48000002    2.48000002
   14.03361130  102.04900360    2.44000006    2.48000002
   14.03694534   98.63520050    2.44000006    2.48000002
   14.04000092  102.88700104    2.46000004    2.50000000
   14.04333401  101.13700104    2.53999996    2.48000002
   14.04388905   96.96620178    2.53999996    2.48000002
   14.04694462  107.15100098    2.66000009    2.48000002
   14.05027771  110.54299927    2.84999990    2.48000002
   14.05333328   97.90229797    2.93000007    2.48000002
   14.05944443   97.90229797    2.98000002    2.48000002
   14.06361103  105.90899658    3.00000000    2.48000002
   14.06694412  108.39099884    2.91000009    2.48000002
   14.06999969  108.80500031    2.76999998    2.48000002
   14.07333374   99.72959900    2.75000000    2.50000000
   14.07638836  112.27100372    2.73000002    2.48000002
   14.07750034   95.91960144    2.67000008    2.48000002
   14.07999992   96.81379700    2.64000010    2.48000002
   14.08333302   97.03600311    2.59999990    2.50000000
   14.08638859  101.15799713    2.59999990    2.50000000
   14.08972168  100.12899780    2.67000008    2.48000002
   14.09305477  102.67800140    2.89000010    2.48000002
   14.09611034  109.01699829    3.01999998    2.50000000
   14.10222244  109.01699829    3.18000007    2.48000002
   14.10638905   93.07089996    3.14000010    2.50000000
   14.10972214   85.24040222    3.18000007    2.50000000
   14.11083412   93.91519928    3.18000007    2.50000000
   14.11333370   99.68270111    3.20000005    2.48000002
   14.11666679   96.29889679    3.16000009    2.50000000
   14.11972237   80.14340210    3.21000004    2.50000000
   14.12305546   86.08119965    3.16000009    2.50000000
   14.12638855   84.95330048    3.18000007    2.50000000
   14.12944412   95.38610077    3.20000005    2.50000000
   14.13277817   96.13210297    3.23000002    2.50000000
   14.13583279  102.25000000    3.28999996    2.50000000
   14.13916683   83.66600037    3.39000010    2.50000000
   14.14499950   83.66600037    3.25000000    2.50000000
   14.14916611   82.28970337    3.09999990    2.51999998
   14.15249920   84.16329956    3.00000000    2.51999998
   14.15583324   88.23940277    2.93000007    2.50000000
   14.15888882   87.02749634    3.00000000    2.50000000
   14.16222191   84.30909729    3.11999989    2.50000000
   14.16555500   95.48100281    3.16000009    2.50000000
   14.16861153   87.02050018    3.14000010    2.50000000
   14.17194462   85.04959869    3.11999989    2.50000000
   14.17500019   88.41989899    3.05999994    2.50000000
   14.17750072   98.57489777    3.05999994    2.51999998
   14.17861176   91.66799927    3.09999990    2.50000000
   14.18194485  106.05500031    3.11999989    2.50000000
   14.18805599  106.05500031    3.20000005    2.50000000
   14.19222260  106.13999939    3.34999990    2.50000000
   14.19527817   94.69190216    3.41000009    2.50000000
   14.19861126   92.65370178    3.36999989    2.50000000
   14.20166683   96.22820282    3.28999996    2.51999998
   14.20499992   91.07969666    3.26999998    2.50000000
   14.20833302   92.44909668    3.39000010    2.50000000
   14.21055508   96.96739960    3.41000009    2.51999998
   14.21194458   96.51290131    3.41000009    2.50000000
   14.21527767   96.85990143    3.41000009    2.51999998
   14.21833324   88.14640045    3.34999990    2.51999998
   14.22166634   93.94419861    3.30999994    2.51999998
   14.22499943   96.35079956    3.28999996    2.51999998
   14.23083305   96.35079956    3.28999996    2.50000000
   14.23500061  100.03099823    3.41000009    2.50000000
   14.23833370   94.39980316    3.45000005    2.50000000
   14.24138927   85.52010345    3.50000000    2.51999998
   14.24416733   88.38320160    3.43000007    2.51999998
   14.24499989   89.42819977    3.39000010    2.51999998
   14.24833393   92.25959778    3.30999994    2.51999998
   14.25166702   90.14050293    3.28999996    2.50000000
   14.25472260   94.85289764    3.30999994    2.51999998
   14.25805569   89.30149841    3.36999989    2.51999998
   14.26138878   96.43979645    3.39000010    2.51999998
   14.26444435   94.59989929    3.41000009    2.51999998
   14.26777744   94.03639984    3.45000005    2.51999998
   14.27361107   94.03639984    3.46000004    2.51999998
   14.27777767  101.75299835    3.57999992    2.51999998
   14.28111076   95.50209808    3.64000010    2.51999998
   14.28416729   96.23860168    3.64000010    2.51999998
   14.28750038   90.29470062    3.50000000    2.51999998
   14.29083347   96.77790070    3.48000002    2.51999998
   14.29388905   92.71369934    3.59999990    2.51999998
   14.29722309   78.97550201    3.57999992    2.51999998
   14.30055618   92.91300201    3.46000004    2.51999998
   14.30361176   91.44110107    3.48000002    2.51999998
   14.30694485   95.39189911    3.51999998    2.51999998
   14.31000042   88.53009796    3.55999994    2.51999998
   14.31083393   92.90200043    3.55999994    2.51999998
   14.31666660   92.90200043    3.68000007    2.51999998
   14.32055569   84.63200378    3.72000003    2.51999998
   14.32388878   95.00150299    3.72000003    2.51999998
   14.32722187   86.19819641    3.66000009    2.51999998
   14.33027744   90.83820343    3.61999989    2.51999998
   14.33361053   83.42220306    3.57999992    2.51999998
   14.33694458   89.04740143    3.55999994    2.51999998
   14.34000015   81.02369690    3.53999996    2.51999998
   14.34333324   76.78820038    3.46000004    2.53999996
   14.34416676   81.47850037    3.46000004    2.53999996
   14.34694386   82.00399780    3.45000005    2.51999998
   14.35027790   88.78700256    3.45000005    2.53999996
   14.35361195   87.92690277    3.43000007    2.51999998
   14.35944462   87.92690277    3.46000004    2.51999998
   14.36361122   85.95449829    3.48000002    2.51999998
   14.36666679   91.24389648    3.51999998    2.51999998
   14.36999989   89.47969818    3.46000004    2.53999996
   14.37333393   92.88159943    3.46000004    2.53999996
   14.37638855   82.76609802    3.50000000    2.51999998
   14.37750053   83.66179657    3.50000000    2.51999998
   14.38000011   82.69950104    3.51999998    2.51999998
   14.38333321   83.29930115    3.57999992    2.53999996
   14.38666630   79.63529968    3.59999990    2.51999998
   14.38972187   84.92079926    3.59999990    2.53999996
   14.39305496   81.06420135    3.55999994    2.51999998
   14.39611053   84.08779907    3.61999989    2.53999996
   14.40222168   84.08779907    3.72000003    2.53999996
   14.40638828   80.37339783    3.72000003    2.53999996
   14.40972137   76.96779633    3.64000010    2.53999996
   14.41083336   75.85630035    3.64000010    2.53999996
   14.41305542   75.16870117    3.61999989    2.53999996
   14.41638851   78.22930145    3.59999990    2.53999996
   14.41972256   82.50769806    3.57999992    2.51999998
   14.42277813   81.91840363    3.45000005    2.53999996
   14.42611122   82.96559906    3.41000009    2.53999996
   14.42916679   78.20120239    3.50000000    2.53999996
   14.43249989   76.38860321    3.48000002    2.53999996
   14.43583298   86.40930176    3.48000002    2.53999996
   14.43888855   81.62159729    3.51999998    2.53999996
   14.44499969   81.62159729    3.50000000    2.53999996
   14.44916630   81.68489838    3.45000005    2.53999996
   14.45249939   78.51119995    3.46000004    2.53999996
   14.45555496   78.68550110    3.46000004    2.53999996
   14.45888901   79.93589783    3.46000004    2.53999996
   14.46222210   77.00489807    3.50000000    2.53999996
   14.46527767   80.04440308    3.70000005    2.53999996
   14.46861076   77.23699951    4.90999985    2.61999989
   14.47194386   81.19999695    0.23000000    0.70999998
   14.47499943   80.18409729    0.11000000    0.38000000
   14.47749996   81.61530304    0.11000000    0.28000000
   14.47861099   75.97319794    0.09000000    0.15000001
   14.48194408   76.87750244    0.09000000    0.05000000
   14.48805618   76.87750244    0.09000000    0.05000000
   14.49194431   78.28079987    0.09000000    0.05000000
   14.49527836   76.67359924    0.09000000    0.05000000
   14.49861145   76.89959717    0.09000000    0.05000000
   14.50194454   74.73329926    0.09000000    0.05000000
   14.50500011   73.89479828    0.09000000    0.05000000
   14.50833321   72.15390015    0.09000000    0.05000000
   14.51083374   73.48880005    0.09000000    0.05000000
   14.51166630   72.42400360    0.09000000    0.05000000
   14.51500034   71.37090302    0.09000000    0.05000000
   14.51833344   71.83350372    0.09000000    0.05000000
   14.52138901   72.88120270    0.09000000    0.05000000
   14.52472210   74.46849823    0.09000000    0.05000000
   14.53083324   74.46849823    0.09000000    0.05000000
   14.53500080   76.30359650    0.09000000    0.05000000
   14.53805637   76.85620117    0.09000000    0.05000000
   14.54138947   75.29429626    0.09000000    0.05000000
   14.54416752   73.15460205    0.09000000    0.05000000
   14.54500008   76.67089844    0.09000000    0.05000000
   14.54833412   75.76450348    0.09000000    0.05000000
   14.55166721   81.97840118    0.09000000    0.05000000
   14.55472279   77.31199646    0.09000000    0.05000000
   14.55805588   78.70030212    0.09000000    0.05000000
   14.56138897   81.20729828    0.09000000    0.05000000
   14.56444454   77.15190125    0.09000000    0.05000000
   14.56777763   74.15229797    0.09000000    0.05000000
   14.57361126   74.15229797    0.09000000    0.05000000
   14.57777786   74.43979645    0.09000000    0.05000000
   14.58111095   79.93679810    0.09000000    0.05000000
   14.58416653   75.35630035    0.09000000    0.05000000
   14.58749962   80.84339905    0.09000000    0.05000000
   14.59055519   79.42269897    0.09000000    0.05000000
   14.59388828   85.86779785    0.09000000    0.05000000
   14.59722233   88.98259735    0.09000000    0.05000000
   14.60027790   80.98709869    0.09000000    0.05000000
   14.60361195   92.99320221    0.09000000    0.05000000
   14.60694504   80.55139923    0.09000000    0.05000000
   14.61000061   80.70359802    0.09000000    0.05000000
   14.61083412   79.88990021    0.09000000    0.05000000
   14.61638927   79.88990021    0.09000000    0.05000000
   14.62055588   86.97039795    0.09000000    0.05000000
   14.62388897   87.26909637    0.09000000    0.05000000
   14.62694454   87.46060181    0.09000000    0.05000000
   14.63027763   86.24659729    0.09000000    0.05000000
   14.63361073   86.42729950    0.09000000    0.05000000
   14.63666630   76.40709686    0.09000000    0.05000000
   14.64000034   83.46479797    0.09000000    0.05000000
   14.64333344   84.50569916    0.09000000    0.05000000
   14.64416695   80.31469727    0.09000000    0.05000000
   14.64666653   85.55729675    0.09000000    0.05000000
   14.64999962   79.05879974    0.09000000    0.05000000
   14.65333271   87.46209717    0.09000000    0.05000000
   14.65944386   87.46209717    0.09000000    0.05000000
   14.66333294   98.30680084    0.09000000    0.05000000
   14.66666698  102.09300232    0.09000000    0.05000000
   14.67000008   92.57340240    0.09000000    0.05000000
   14.67333412  106.06199646    0.09000000    0.05000000
   14.67638874   91.47270203    0.09000000    0.05000000
   14.67750072   96.32440186    0.09000000    0.05000000
   14.68000031  106.85700226    0.09000000    0.05000000
   14.68333340  127.17400360    0.09000000    0.05000000
   14.68666649  111.88200378    0.09000000    0.05000000
   14.68972206  117.63600159    0.09000000    0.05000000
   14.69305515   89.43900299    0.09000000    0.05000000
   14.69638920  111.25099945    0.09000000    0.05000000
   14.70222187  111.25099945    0.09000000    0.05000000
   14.70638847  100.13899994    0.09000000    0.05000000
   14.70944405  109.29199982    0.09000000    0.05000000
   14.71083355   96.08679962    0.09000000    0.05000000
   14.71305561  105.98200226    0.09000000    0.05000000
   14.71638870  100.90100098    0.09000000    0.05000000
   14.71972179  108.48400116    0.09000000    0.05000000
   14.72277737   96.15799713    0.09000000    0.05000000
   14.72611046   98.14569855    0.09000000    0.05000000
   14.72944355  100.88899994    0.09000000    0.05000000
   14.73249912  106.80999756    0.09000000    0.05000000
   14.73583317  103.29499817    0.09000000    0.05000000
   14.73888874   88.13700104    0.09000000    0.05000000
   14.74499989   88.13700104    0.09000000    0.05000000
   14.74916649  104.71399689    0.09000000    0.05000000
   14.75249958   96.62359619    0.09000000    0.05000000
   14.75555515  108.23899841    0.09000000    0.05000000
   14.75888920   98.13580322    0.09000000    0.05000000
   14.76194477  104.64399719    0.09000000    0.05000000
   14.76527786   96.10009766    0.09000000    0.05000000
   14.76861095  101.39299774    0.09000000    0.05000000
   14.77166653   97.45140076    0.09000000    0.05000000
   14.77499962  120.46600342    0.09000000    0.05000000
   14.77750015  116.45300293    0.09000000    0.05000000
   14.77833271  102.73500061    0.09000000    0.05000000
   14.78166676  110.99900055    0.09000000    0.05000000
   14.78777790  110.99900055    0.09000000    0.05000000
   14.79194450  103.18299866    0.09000000    0.05000000
   14.79527855  106.52899933    0.09000000    0.05000000
   14.79833412  109.75700378    0.09000000    0.05000000
   14.80166721  112.55599976    0.09000000    0.05000000
   14.80500031  102.81199646    0.09000000    0.05000000
   14.80805588  109.79100037    0.09000000    0.05000000
   14.81083393   99.24179840    0.09000000    0.05000000
   14.81166649   99.13159943    0.09000000    0.05000000
   14.81500053  102.13300323    0.09000000    0.05000000
   14.81833363  105.90799713    0.09000000    0.05000000
   14.82138920  100.02100372    0.09000000    0.05000000
   14.82472229   98.14230347    0.09000000    0.05000000
   14.83083344   98.14230347    0.09000000    0.05000000
   14.83472157  108.83999634    0.09000000    0.05000000
   14.83805561  114.47100067    0.09000000    0.05000000
   14.84138870  116.45500183    0.09000000    0.05000000
   14.84416676  115.15899658    0.09000000    0.05000000
   14.84472179  114.41000366    0.09000000    0.05000000
   14.84805489  118.33100128    0.09000000    0.05000000
   14.85138893  124.01200104    0.09000000    0.05000000
   14.85444450  124.07900238    0.09000000    0.05000000
   14.85777855  117.97399902    0.09000000    0.05000000
   14.86111164  118.04000092    0.09000000    0.05000000
   14.86416721  113.41600037    0.09000000    0.05000000
   14.86750031  103.72699738    0.09000000    0.05000000
   14.87361145  103.72699738    0.09000000    0.05000000
   14.87777805  108.80100250    0.09000000    0.05000000
   14.88083363  107.25199890    0.09000000    0.05000000
   14.88416672  125.20200348    0.09000000    0.05000000
   14.88749981  118.17500305    0.09000000    0.05000000
   14.89055538  120.54699707    0.09000000    0.05000000
   14.89388847  111.18800354    0.09000000    0.05000000
   14.89694405  107.91100311    0.09000000    0.05000000
   14.90027714  107.49500275    0.09000000    0.05000000
   14.90361118   96.34079742    0.09000000    0.05000000
   14.90666676   96.45210266    0.09000000    0.05000000
   14.90999985  112.77400208    0.09000000    0.05000000
   14.91083336  111.68499756    0.09000000    0.05000000
   14.94250011  111.68499756    0.09000000    0.05000000
   14.94666672  119.09999847    0.09000000    0.05000000
   14.95694447  115.76399994    0.00000000    0.00000000
   14.96083355  108.20300293    0.00000000    0.00000000
   14.96472168  109.64199829    0.00000000    0.00000000
   14.96861076  112.04100037    0.00000000    0.00000000
   14.97499943  112.04100037    0.00000000    0.00000000
   14.97972202   98.65920258    0.00000000    0.00000000
   14.98305511  107.37200165    0.09000000    0.05000000
   14.98611164  109.47499847    0.09000000    0.05000000
   14.98944473  108.32099915    0.09000000    0.05000000
   14.99250031  109.38899994    0.09000000    0.05000000
   14.99583340  105.98699951    0.09000000    0.05000000
   14.99916649  109.22399902    0.09000000    0.05000000
   15.00222206  106.83200073    0.09000000    0.05000000
   15.00555515  106.27999878    0.09000000    0.05000000
   15.00888920  102.67199707    0.09000000    0.05000000
   15.01083374   99.00969696    0.09000000    0.05000000
   15.01222229   99.61160278    0.09000000    0.05000000
   15.01722240   99.61160278    0.09000000    0.05000000
   15.02138901  112.17700195    0.09000000    0.05000000
   15.02444458  104.77799988    0.09000000    0.05000000
   15.02777767   98.95449829    0.09000000    0.05000000
   15.03083324   99.68579865    0.09000000    0.05000000
   15.03416729  112.00199890    0.09000000    0.05000000
   15.03750038   99.76010132    0.09000000    0.05000000
   15.04055595  113.50700378    0.09000000    0.05000000
   15.04388905  106.56999969    0.09000000    0.05000000
   15.04444504  113.61799622    0.09000000    0.05000000
   15.04722309  107.04900360    0.09000000    0.05000000
   15.05055618  102.70400238    0.09000000    0.05000000
   15.05388927  102.65299988    0.09000000    0.05000000
   15.06000042  102.65299988    0.09000000    0.05000000
   15.06416702   98.77749634    0.09000000    0.05000000
   15.06722260  101.39499664    0.09000000    0.05000000
   15.07055569   98.98239899    0.09000000    0.05000000
   15.07388878   97.70539856    0.09000000    0.05000000
   15.07694435   99.77619934    0.09000000    0.05000000
   15.07777786   97.01210022    0.09000000    0.05000000
   15.08055592   97.83899689    0.09000000    0.05000000
   15.08388901   98.46029663    0.09000000    0.05000000
   15.08722210  105.78299713    0.09000000    0.05000000
   15.09027767   99.17939758    0.09000000    0.05000000
   15.09361076  101.41400146    0.09000000    0.05000000
   15.09666634   95.71739960    0.09000000    0.05000000
   15.10277843   95.71739960    0.09000000    0.05000000
   15.10694504   93.25879669    0.09000000    0.05000000
   15.11027813   95.41280365    0.09000000    0.05000000
   15.11111164   96.81800079    0.09000000    0.05000000
   15.11361122   88.40090179    0.09000000    0.05000000
   15.11694431   91.91549683    0.09000000    0.05000000
   15.12027836  100.13500214    0.09000000    0.05000000
   15.12333393   91.39959717    0.09000000    0.05000000
   15.12666702  101.10500336    0.09000000    0.05000000
   15.12972260   85.13500214    0.09000000    0.05000000
   15.13305569   87.14099884    0.09000000    0.05000000
   15.13638878   89.24279785    0.09000000    0.05000000
   15.13944435   97.61139679    0.09000000    0.05000000
   15.14555550   97.61139679    0.09000000    0.05000000
   15.14972210   94.75250244    0.09000000    0.05000000
   15.15305519   93.19110107    0.09000000    0.05000000
   15.15638828   90.40110016    0.09000000    0.05000000
   15.15944386  100.26599884    0.09000000    0.05000000
   15.16277695   93.88819885    0.09000000    0.05000000
   15.16583252   92.02120209    0.09000000    0.05000000
   15.16916656   96.56620026    0.09000000    0.05000000
   15.17250061   96.82170105    0.09000000    0.05000000
   15.17555618   94.45269775    0.09000000    0.05000000
   15.17777824   87.38289642    0.09000000    0.05000000
   15.17916679   96.69329834    0.09000000    0.05000000
   15.18249989   97.20030212    0.09000000    0.05000000
   15.18861103   97.20030212    0.09000000    0.05000000
   15.19277763   89.94589996    0.09000000    0.05000000
   15.19583321   89.41010284    0.09000000    0.05000000
   15.19916630   91.24669647    0.09000000    0.05000000
   15.20222187   91.73639679    0.09000000    0.05000000
   15.20555496   97.75379944    0.09000000    0.05000000
   15.20888901   90.49970245    0.09000000    0.05000000
   15.21111107   88.32230377    0.09000000    0.05000000
   15.21222210   93.35359955    0.09000000    0.05000000
   15.21555519   90.53649902    0.09000000    0.05000000
   15.21888828   96.77770233    0.09000000    0.05000000
   15.22194386  100.56999969    0.09000000    0.05000000
   15.22527695   88.93000031    0.09000000    0.05000000
   15.23138809   88.93000031    0.09000000    0.05000000
   15.23555565   92.61329651    0.09000000    0.05000000
   15.23861122   87.11849976    0.09000000    0.05000000
   15.24194431   93.29889679    0.09000000    0.05000000
   15.24444485   83.83599854    0.09000000    0.05000000
   15.24527836   84.64279938    0.09000000    0.05000000
   15.24861145   85.50279999    0.09000000    0.05000000
   15.25194454   84.80419922    0.09000000    0.05000000
   15.25500011   85.13800049    0.09000000    0.05000000
   15.25833321   89.31710052    0.09000000    0.05000000
   15.26166630   86.51229858    0.09000000    0.05000000
   15.26472187   96.74410248    0.09000000    0.05000000
   15.26805496   95.01390076    0.09000000    0.05000000
   15.27416611   95.01390076    0.09000000    0.05000000
   15.27833271   87.79460144    0.09000000    0.05000000
   15.28166676   90.58319855    0.09000000    0.05000000
   15.28472233   91.88059998    0.09000000    0.05000000
   15.28805637   89.36609650    0.09000000    0.05000000
   15.29138947   89.27149963    0.09000000    0.05000000
   15.29444504   91.25620270    0.09000000    0.05000000
   15.29777813   89.80500031    0.09000000    0.05000000
   15.30083370   87.76090240    0.09000000    0.05000000
   15.30416679   87.47010040    0.09000000    0.05000000
   15.30749989   83.70079803    0.09000000    0.05000000
   15.31055546   92.08049774    0.09000000    0.05000000
   15.31111145   87.62139893    0.09000000    0.05000000
   15.31694412   87.62139893    0.09000000    0.05000000
   15.32111073   93.10220337    0.09000000    0.05000000
   15.32444477   83.74479675    0.09000000    0.05000000
   15.32750034   84.99230194    0.09000000    0.05000000
   15.33083344   86.63529968    0.09000000    0.05000000
   15.33416653   85.07790375    0.09000000    0.05000000
   15.33722210   87.58750153    0.09000000    0.05000000
   15.34055519   91.63999939    0.09000000    0.05000000
   15.34388828   85.87689972    0.09000000    0.05000000
   15.34444427   91.24379730    0.09000000    0.05000000
   15.34749985   91.66130066    0.09000000    0.05000000
   15.35055637   90.44809723    0.09000000    0.05000000
   15.35388947   90.16369629    0.09000000    0.05000000
   15.36000061   90.16369629    0.09000000    0.05000000
   15.36388969   90.21440125    0.09000000    0.05000000
   15.36722279   90.48429871    0.09000000    0.05000000
   15.37055588   85.72190094    0.09000000    0.05000000
   15.37361145   78.77230072    0.09000000    0.05000000
   15.37694454   81.72360229    0.09000000    0.05000000
   15.37777805   87.03289795    0.09000000    0.05000000
   15.38055611   85.18190002    0.09000000    0.05000000
   15.38361073   87.91490173    0.09000000    0.05000000
   15.38694477   82.79199982    0.09000000    0.05000000
   15.39027786   82.17420197    0.09000000    0.05000000
   15.39333344   86.56140137    0.09000000    0.05000000
   15.39666653   82.71720123    0.09000000    0.05000000
   15.40277767   82.71720123    0.09000000    0.05000000
   15.40694427   90.66880035    0.09000000    0.05000000
   15.40999985   82.10109711    0.09000000    0.05000000
   15.41111088   83.09239960    0.09000000    0.05000000
   15.41388893   82.23690033    0.09000000    0.05000000
   15.41694450   82.81400299    0.09000000    0.05000000
   15.42027855   81.97260284    0.09000000    0.05000000
   15.42361164   81.18489838    0.09000000    0.05000000
   15.42694473   81.99099731    0.09000000    0.05000000
   15.43000031   84.37120056    0.09000000    0.05000000
   15.43333340   79.42479706    0.09000000    0.05000000
   15.43666649   79.64350128    0.09000000    0.05000000
   15.43972206   78.43820190    0.09000000    0.05000000
   15.44555569   78.43820190    0.09000000    0.05000000
   15.44972229   84.73439789    0.09000000    0.05000000
   15.45305538   79.62989807    0.09000000    0.05000000
   15.45611095   76.57649994    0.09000000    0.05000000
   15.45944405   81.44999695    0.09000000    0.05000000
   15.46277714   74.74759674    0.09000000    0.05000000
   15.46583271   81.55139923    0.09000000    0.05000000
   15.46916580   78.50720215    0.09000000    0.05000000
   15.47222137   80.81230164    0.09000000    0.05000000
   15.47555542   78.63919830    0.09000000    0.05000000
   15.47777748   82.04660034    0.09000000    0.05000000
   15.47916603   79.01229858    0.09000000    0.05000000
   15.48222160   83.78099823    0.09000000    0.05000000
   15.48833370   83.78099823    0.09000000    0.05000000
   15.49250031   80.72270203    0.09000000    0.05000000
   15.49583340   83.30239868    0.09000000    0.05000000
   15.49916649   79.74579620    0.09000000    0.05000000
   15.50222206   84.44180298    0.09000000    0.05000000
   15.50555515   80.85649872    0.09000000    0.05000000
   15.50861073   79.46070099    0.09000000    0.05000000
   15.51111126   76.89510345    0.09000000    0.05000000
   15.51249981   77.80000305    0.09000000    0.05000000
   15.51555538   82.96269989    0.09000000    0.05000000
   15.51888847   82.15540314    0.09000000    0.05000000
   15.52222157   90.52369690    0.09000000    0.05000000
   15.52527714   83.75969696    0.09000000    0.05000000
   15.53138828   83.75969696    0.09000000    0.05000000
   15.53555584   85.08370209    0.09000000    0.05000000
   15.53861141   90.97149658    0.09000000    0.05000000
   15.54194450   88.54699707    0.09000000    0.05000000
   15.54444504   84.29060364    0.09000000    0.05000000
   15.54555607   84.23030090    0.09000000    0.05000000
   15.54861164   87.29139709    0.09000000    0.05000000
   15.55194473   86.15529633    0.09000000    0.05000000
   15.55527782   85.78410339    0.09000000    0.05000000
   15.55833340   90.24109650    0.09000000    0.05000000
   15.56166649   87.56819916    0.09000000    0.05000000
   15.56500053   86.47039795    0.09000000    0.05000000
   15.56805515   84.43199921    0.09000000    0.05000000
   15.57416630   84.43199921    0.09000000    0.05000000
   15.57833290   83.82299805    0.09000000    0.05000000
   15.58138847   84.25650024    0.09000000    0.05000000
   15.58472157   83.01000214    0.09000000    0.05000000
   15.58805561   88.07630157    0.09000000    0.05000000
   15.59111118   81.21440125    0.09000000    0.05000000
   15.59444427   87.41190338    0.09000000    0.05000000
   15.59777737   84.35559845    0.09000000    0.05000000
   15.60083389   82.94170380    0.09000000    0.05000000
   15.60416698   81.96469879    0.09000000    0.05000000
   15.60750008   81.80829620    0.09000000    0.05000000
   15.61055565   81.36340332    0.09000000    0.05000000
   15.61111164   80.59269714    0.09000000    0.05000000
   15.61694431   80.59269714    0.09000000    0.05000000
   15.62111092   83.70330048    0.09000000    0.05000000
   15.62444496   81.41110229    0.09000000    0.05000000
   15.62750053   81.93109894    0.09000000    0.05000000
   15.63083363   83.24700165    0.09000000    0.05000000
   15.63416672   78.73110199    0.09000000    0.05000000
   15.63722229   78.49849701    0.09000000    0.05000000
   15.64055538   82.40969849    0.09000000    0.05000000
   15.64361095   82.51370239    0.09000000    0.05000000
   15.64444447   84.16100311    0.09000000    0.05000000
   15.64722252   79.93710327    0.09000000    0.05000000
   15.65027714   82.76010132    0.09000000    0.05000000
   15.65361118   79.98239899    0.09000000    0.05000000
   15.65972137   79.98239899    0.09000000    0.05000000
   15.66388893   80.89489746    0.09000000    0.05000000
   15.66722298   85.04299927    0.09000000    0.05000000
   15.67055607   81.16269684    0.09000000    0.05000000
   15.67361164   82.19799805    0.09000000    0.05000000
   15.67694473   80.20310211    0.09000000    0.05000000
   15.67777824   84.84529877    0.09000000    0.05000000
   15.68055630   83.31140137    0.09000000    0.05000000
   15.68361092   86.25379944    0.09000000    0.05000000
   15.68694496   80.19730377    0.09000000    0.05000000
   15.69027805   89.39420319    0.09000000    0.05000000
   15.69333363   79.16320038    0.09000000    0.05000000
   15.69666672   81.55290222    0.09000000    0.05000000
   15.70277786   81.55290222    0.09000000    0.05000000
   15.70694447   82.37030029    0.09000000    0.05000000
   15.71000004   83.24120331    0.09000000    0.05000000
   15.71111107   87.30259705    0.09000000    0.05000000
   15.71361065   82.84780121    0.09000000    0.05000000
   15.71694374   89.22100067    0.09000000    0.05000000
   15.71999931   88.67079926    0.09000000    0.05000000
   15.72333336   87.85569763    0.09000000    0.05000000
   15.72638798   87.23549652    0.09000000    0.05000000
   15.72972202   85.76560211    0.09000000    0.05000000
   15.73305511   83.22129822    0.09000000    0.05000000
   15.73611164   87.60209656    0.09000000    0.05000000
   15.73944473   87.16999817    0.09000000    0.05000000
   15.74555588   87.16999817    0.09000000    0.05000000
   15.74972248   87.22830200    0.09000000    0.05000000
   15.75277805   84.46730042    0.09000000    0.05000000
   15.75611115   85.00319672    0.09000000    0.05000000
   15.75944424   79.03749847    0.09000000    0.05000000
   15.76249981   90.57369995    0.09000000    0.05000000
   15.76583290   90.75620270    0.09000000    0.05000000
   15.76916599   86.31620026    0.09000000    0.05000000
   15.77222157   82.72630310    0.09000000    0.05000000
   15.77555561   83.02189636    0.09000000    0.05000000
   15.77777767   89.88269806    0.09000000    0.05000000
   15.77916622   90.73629761    0.09000000    0.05000000
   15.78249931   82.45379639    0.09000000    0.05000000
   15.78833389   82.45379639    0.09000000    0.05000000
   15.79250050   86.89969635    0.09000000    0.05000000
   15.79583359   87.43840027    0.09000000    0.05000000
   15.79888916   85.63700104    0.09000000    0.05000000
   15.80222225   87.58740234    0.09000000    0.05000000
   15.80555534   94.04499817    0.09000000    0.05000000
   15.80861092   87.54450226    0.09000000    0.05000000
   15.81111145   84.71980286    0.09000000    0.05000000
   15.81222248   85.63539886    0.09000000    0.05000000
   15.81555557   87.43309784    0.09000000    0.05000000
   15.81861115   78.69039917    0.09000000    0.05000000
   15.82194424   86.30090332    0.09000000    0.05000000
   15.82499981   85.83860016    0.09000000    0.05000000
   15.83111095   85.83860016    0.09000000    0.05000000
   15.83527756   88.19819641    0.09000000    0.05000000
   15.83861065   82.26920319    0.09000000    0.05000000
   15.84194374   88.20780182    0.09000000    0.05000000
   15.84444427   85.56880188    0.09000000    0.05000000
   15.84555531   87.36620331    0.09000000    0.05000000
   15.84888840   86.32189941    0.09000000    0.05000000
   15.85194492   86.58450317    0.09000000    0.05000000
   15.85527802   88.92659760    0.09000000    0.05000000
   15.85833359   85.63629913    0.09000000    0.05000000
   15.86166668   89.01059723    0.09000000    0.05000000
   15.86500072   87.58249664    0.09000000    0.05000000
   15.86805534   84.86720276    0.09000000    0.05000000
   15.87416649   84.86720276    0.09000000    0.05000000
   15.87833309   83.08640289    0.09000000    0.05000000
   15.88138866   84.84459686    0.09000000    0.05000000
   15.88472176   83.34179688    0.09000000    0.05000000
   15.88777733   83.76300049    0.09000000    0.05000000
   15.89111137   83.56860352    0.09000000    0.05000000
   15.89444447   84.37809753    0.09000000    0.05000000
   15.89750004   82.91049957    0.09000000    0.05000000
   15.90083313   83.75640106    0.09000000    0.05000000
   15.90416622   84.87439728    0.09000000    0.05000000
   15.90722179   80.22409821    0.09000000    0.05000000
   15.91055489   83.14710236    0.09000000    0.05000000
   15.91111088   78.56459808    0.09000000    0.05000000
   15.91694450   78.56459808    0.09000000    0.05000000
   15.92111111   79.78869629    0.09000000    0.05000000
   15.92416668   80.44280243    0.09000000    0.05000000
   15.92750072   80.87470245    0.09000000    0.05000000
   15.94499969   81.20929718    0.09000000    0.05000000
   15.94750023   79.32340240    0.09000000    0.05000000
   15.95083332   82.10009766    0.09000000    0.05000000
   15.95388889   87.31300354    0.09000000    0.05000000
   15.96000004   87.31300354    0.09000000    0.05000000
   15.96416664   81.20469666    0.09000000    0.05000000
   15.96722221   82.44100189    0.09000000    0.05000000
   15.97055531   82.15950012    0.09000000    0.05000000
   15.97361088   82.44799805    0.09000000    0.05000000
   15.97694397   86.67649841    0.09000000    0.05000000
   15.97833252   83.45529938    0.09000000    0.05000000
   15.98055553   83.29370117    0.09000000    0.05000000
   15.98361111   81.50620270    0.09000000    0.05000000
   15.98694515   77.81510162    0.09000000    0.05000000
   15.99027824   79.31639862    0.09000000    0.05000000
   15.99333382   79.15480042    0.09000000    0.05000000
   15.99666691   84.18650055    0.09000000    0.05000000
   16.00277710   84.18650055    0.09000000    0.05000000
   16.00694466   79.19159698    0.09000000    0.05000000
   16.01000023   83.28549957    0.09000000    0.05000000
   16.01166725   78.26650238    0.09000000    0.05000000
   16.01388931   78.83249664    0.09000000    0.05000000
   16.01694489   83.26529694    0.09000000    0.05000000
   16.02027702   82.21739960    0.09000000    0.05000000
   16.02361107   79.13849640    0.09000000    0.05000000
   16.02666664   79.42120361    0.09000000    0.05000000
   16.03000069   82.00250244    0.09000000    0.05000000
   16.03305435   76.61109924    0.09000000    0.05000000
   16.03638840   78.62270355    0.09000000    0.05000000
   16.03972244   80.28009796    0.09000000    0.05000000
   16.04555511   80.28009796    0.09000000    0.05000000
   16.04972076   77.74500275    0.09000000    0.05000000
   16.05305481   75.97949982    0.09000000    0.05000000
   16.05611038   76.14389801    0.09000000    0.05000000
   16.05944443   76.88600159    0.09000000    0.05000000
   16.06277657   77.92289734    0.09000000    0.05000000
   16.06583214   80.91380310    0.09000000    0.05000000
   16.06916809   81.91850281    0.09000000    0.05000000
   16.07222366   78.81939697    0.09000000    0.05000000
   16.07555580   78.94660187    0.09000000    0.05000000
   16.07833481   75.74919891    0.09000000    0.05000000
   16.07916832   79.27719879    0.09000000    0.05000000
   16.08222389   81.13809967    0.09000000    0.05000000
   16.08833313   81.13809967    0.09000000    0.05000000
   16.09250069   76.70030212    0.09000000    0.05000000
   16.09583473   78.12380219    0.09000000    0.05000000
   16.09916687   77.68009949    0.09000000    0.05000000
   16.10222244   77.17970276    0.09000000    0.05000000
   16.10555649   78.62180328    0.09000000    0.05000000
   16.10861206   79.00620270    0.09000000    0.05000000
   16.11166763   77.88719940    0.09000000    0.05000000
   16.11250114   75.24870300    0.09000000    0.05000000
   16.11583328   83.09889984    0.09000000    0.05000000
   16.11888885   78.12190247    0.09000000    0.05000000
   16.12222290   80.03340149    0.09000000    0.05000000
   16.12555504   77.75910187    0.09000000    0.05000000
   16.13138962   77.75910187    0.09000000    0.05000000
   16.13555527   80.12999725    0.09000000    0.05000000
   16.13861084   81.19380188    0.09000000    0.05000000
   16.14194489   79.59970093    0.09000000    0.05000000
   16.14500046   78.11180115    0.09000000    0.05000000
   16.14555550   81.84619904    0.09000000    0.05000000
   16.14861107   78.98549652    0.09000000    0.05000000
   16.15194321   83.30429840    0.09000000    0.05000000
   16.15527725   78.47519684    0.09000000    0.05000000
   16.15833282   76.14589691    0.09000000    0.05000000
   16.16166687   73.62719727    0.09000000    0.05000000
   16.16472244   76.74210358    0.09000000    0.05000000
   16.16805458   77.83229828    0.09000000    0.05000000
   16.17416573   77.83229828    0.09000000    0.05000000
   16.17833328   83.02439880    0.09000000    0.05000000
   16.17888832   80.59850311    0.09000000    0.05000000
   16.18194389   77.95559692    0.09000000    0.05000000
   16.18527603   74.88510132    0.09000000    0.05000000
   16.18833160   78.53269958    0.09000000    0.05000000
   16.19166565   75.12449646    0.09000000    0.05000000
   16.19499969   75.88289642    0.09000000    0.05000000
   16.19805527   79.89440155    0.09000000    0.05000000
   16.20138931   82.14179993    0.09000000    0.05000000
   16.20472336   76.16259766    0.09000000    0.05000000
   16.20777893   76.71240234    0.09000000    0.05000000
   16.21111107   79.88050079    0.09000000    0.05000000
   16.21222305   74.78990173    0.09000000    0.05000000
   16.21694565   74.78990173    0.09000000    0.05000000
   16.22111130   78.33280182    0.09000000    0.05000000
   16.22444534   75.66729736    0.09000000    0.05000000
   16.22750092   76.38569641    0.09000000    0.05000000
   16.23083305   75.87599945    0.09000000    0.05000000
   16.23416710   77.30580139    0.09000000    0.05000000
   16.23722267   78.65350342    0.09000000    0.05000000
   16.24055672   77.12909698    0.09000000    0.05000000
   16.24361229   77.13539886    0.09000000    0.05000000
   16.24555588   76.97010040    0.09000000    0.05000000
   16.24722290   76.94080353    0.09000000    0.05000000
   16.25055504   78.58000183    0.09000000    0.05000000
   16.25361061   78.49549866    0.09000000    0.05000000
   16.25972176   78.49549866    0.09000000    0.05000000
   16.26388931   80.75789642    0.09000000    0.05000000
   16.26722145   81.02449799    0.09000000    0.05000000
   16.27055550   82.76020050    0.09000000    0.05000000
   16.27361107   78.39790344    0.09000000    0.05000000
   16.27694511   74.97180176    0.09000000    0.05000000
   16.27888870   76.73500061    0.09000000    0.05000000
   16.28055573   77.16929626    0.09000000    0.05000000
   16.28388786   77.30480194    0.09000000    0.05000000
   16.28722191   76.99079895    0.09000000    0.05000000
   16.29027748   80.53990173    0.09000000    0.05000000
   16.29361153   82.39379883    0.09000000    0.05000000
   16.29666710   77.85970306    0.09000000    0.05000000
   16.30277634   77.85970306    0.09000000    0.05000000
   16.30666542   79.59960175    0.09000000    0.05000000
   16.30999947   79.55930328    0.09000000    0.05000000
   16.31222153   79.61740112    0.09000000    0.05000000
   16.31361008   89.43630219    0.09000000    0.05000000
   16.31694603   77.85829926    0.09000000    0.05000000
   16.32000160   79.90760040    0.09000000    0.05000000
   16.32333374   81.64289856    0.09000000    0.05000000
   16.32666779   82.34179688    0.09000000    0.05000000
   16.32972336   79.62030029    0.09000000    0.05000000
   16.33305550   85.42859650    0.09000000    0.05000000
   16.33638954   82.55220032    0.09000000    0.05000000
   16.33944511   80.25599670    0.09000000    0.05000000
   16.34555626   80.25599670    0.09000000    0.05000000
   16.34972191   83.32180023    0.09000000    0.05000000
   16.35277748   85.33740234    0.09000000    0.05000000
   16.35611153   83.92140198    0.09000000    0.05000000
   16.35944557   82.99379730    0.09000000    0.05000000
   16.36250114   83.81320190    0.09000000    0.05000000
   16.36583328   82.52510071    0.09000000    0.05000000
   16.36916733   82.83959961    0.09000000    0.05000000
   16.37222290   91.66120148    0.09000000    0.05000000
   16.37555504   88.52839661    0.09000000    0.05000000
   16.37888908   81.01540375    0.09000000    0.05000000
   16.37916756   86.80039978    0.09000000    0.05000000
   16.38249969   90.39820099    0.09000000    0.05000000
   16.38833237   90.39820099    0.09000000    0.05000000
   16.39249992   83.85590363    0.09000000    0.05000000
   16.39583397   85.18090057    0.09000000    0.05000000
   16.39888954   87.65570068    0.09000000    0.05000000
   16.40222168   89.16429901    0.09000000    0.05000000
   16.40527725   88.64900208    0.09000000    0.05000000
   16.40861130   84.44640350    0.09000000    0.05000000
   16.41194344   81.94460297    0.09000000    0.05000000
   16.41250038   81.37370300    0.09000000    0.05000000
   16.41555595   84.30529785    0.09000000    0.05000000
   16.41888809   81.23519897    0.09000000    0.05000000
   16.42194366   90.40180206    0.09000000    0.05000000
   16.42527771   90.84760284    0.09000000    0.05000000
   16.43111038   90.84760284    0.09000000    0.05000000
   16.43527603   91.80159760    0.09000000    0.05000000
   16.43861008   90.68240356    0.09000000    0.05000000
   16.44166565   89.72820282    0.09000000    0.05000000
   16.44499969   86.59420013    0.09000000    0.05000000
   16.44583321   89.05970001    0.09000000    0.05000000
   16.44861031   87.89199829    0.09000000    0.05000000
   16.45194435   88.64839935    0.09000000    0.05000000
   16.45527840   91.17130280    0.09000000    0.05000000
   16.45833397   89.96469879    0.09000000    0.05000000
   16.46166801   86.36039734    0.09000000    0.05000000
   16.46472359   87.42590332    0.09000000    0.05000000
   16.46805573   85.97200012    0.09000000    0.05000000
   16.47416687   85.97200012    0.09000000    0.05000000
   16.47833443   88.77700043    0.09000000    0.05000000
   16.47916794   89.91999817    0.09000000    0.05000000
   16.48166656   87.71859741    0.09000000    0.05000000
   16.48500061   80.05249786    0.09000000    0.05000000
   16.48861122   85.61019897    0.09000000    0.05000000
   16.49166679   84.22149658    0.09000000    0.05000000
   16.49500084   90.11419678    0.09000000    0.05000000
   16.49833298   89.57260132    0.09000000    0.05000000
   16.50138855   84.43109894    0.09000000    0.05000000
   16.50472260   86.21779633    0.09000000    0.05000000
   16.50777817   83.69329834    0.09000000    0.05000000
   16.51111031   85.35540009    0.09000000    0.05000000
   16.51250076   87.08119965    0.09000000    0.05000000
   16.51694489   87.08119965    0.09000000    0.05000000
   16.52111053   86.52619934    0.09000000    0.05000000
   16.52416611   85.54029846    0.09000000    0.05000000
   16.52750015   85.13400269    0.09000000    0.05000000
   16.53083229   91.59320068    0.09000000    0.05000000
   16.53416634   89.86340332    0.09000000    0.05000000
   16.53722191   94.75009918    0.09000000    0.05000000
   16.54055595   91.74590302    0.09000000    0.05000000
   16.54388809   88.78820038    0.09000000    0.05000000
   16.54583359   84.94840240    0.09000000    0.05000000
   16.54722214   88.16449738    0.09000000    0.05000000
   16.55055428   84.21800232    0.09000000    0.05000000
   16.55388832   91.79419708    0.09000000    0.05000000
   16.55972099   91.79419708    0.09000000    0.05000000
   16.56388855   87.66790009    0.09000000    0.05000000
   16.56722260   84.30590057    0.09000000    0.05000000
   16.57027817   86.63659668    0.09000000    0.05000000
   16.57361221   96.80110168    0.09000000    0.05000000
   16.57694626   89.71479797    0.09000000    0.05000000
   16.57916832   88.75469971    0.09000000    0.05000000
   16.58027840   90.36419678    0.09000000    0.05000000
   16.58361244   93.41590118    0.09000000    0.05000000
   16.58694458   92.92299652    0.09000000    0.05000000
   16.59000015   90.28079987    0.09000000    0.05000000
   16.59333420   87.35700226    0.09000000    0.05000000
   16.59638977   90.04630280    0.09000000    0.05000000
   16.60250092   90.04630280    0.09000000    0.05000000
   16.60666656   89.33730316    0.09000000    0.05000000
   16.61000061   88.13950348    0.09000000    0.05000000
   16.61250114   87.95200348    0.09000000    0.05000000
   16.61361122   89.93550110    0.09000000    0.05000000
   16.61694527   89.50980377    0.09000000    0.05000000
   16.62027740   86.60800171    0.09000000    0.05000000
   16.62333298   88.12139893    0.09000000    0.05000000
   16.62666702   85.45400238    0.09000000    0.05000000
   16.62972260   86.74500275    0.09000000    0.05000000
   16.63305473   86.08589935    0.09000000    0.05000000
   16.63638878   81.59649658    0.09000000    0.05000000
   16.63944435   84.67990112    0.09000000    0.05000000
   16.64555550   84.67990112    0.09000000    0.05000000
   16.64972115   83.58419800    0.09000000    0.05000000
   16.65277672   78.56439972    0.09000000    0.05000000
   16.65611076   77.49140167    0.09000000    0.05000000
   16.65916634   81.09619904    0.09000000    0.05000000
   16.66250038   83.66339874    0.09000000    0.05000000
   16.66583252   87.13919830    0.09000000    0.05000000
   16.66888809   78.08429718    0.09000000    0.05000000
   16.67222214   80.51670074    0.09000000    0.05000000
   16.67555428   80.24620056    0.09000000    0.05000000
   16.67860985   86.33249664    0.09000000    0.05000000
   16.68055534   80.74620056    0.09000000    0.05000000
   16.68222237   81.95439911    0.09000000    0.05000000
   16.68833160   81.95439911    0.09000000    0.05000000
   16.69249916   87.93540192    0.09000000    0.05000000
   16.69555473   84.30480194    0.09000000    0.05000000
   16.69888878   80.77469635    0.09000000    0.05000000
   16.70222282   81.99140167    0.09000000    0.05000000
   16.70555687   85.03869629    0.09000000    0.05000000
   16.70861244   85.24590302    0.09000000    0.05000000
   16.71194458   85.49359894    0.09000000    0.05000000
   16.71389008   91.50379944    0.09000000    0.05000000
   16.71527863   86.69439697    0.09000000    0.05000000
   16.71861076   86.81349945    0.09000000    0.05000000
   16.72194481   84.27200317    0.09000000    0.05000000
   16.72500038   89.33480072    0.09000000    0.05000000
   16.73111153   89.33480072    0.09000000    0.05000000
   16.73527718   92.46309662    0.09000000    0.05000000
   16.73861122   91.39769745    0.09000000    0.05000000
   16.74166679   87.75820160    0.09000000    0.05000000
   16.74500084   83.77279663    0.09000000    0.05000000
   16.74722290   89.09709930    0.09000000    0.05000000
   16.74861145   92.12740326    0.09000000    0.05000000
   16.75194359   86.83429718    0.09000000    0.05000000
   16.75499916   91.20819855    0.09000000    0.05000000
   16.75833321   83.95649719    0.09000000    0.05000000
   16.76166725   85.35489655    0.09000000    0.05000000
   16.76472282   85.08840179    0.09000000    0.05000000
   16.76805496   83.80590057    0.09000000    0.05000000
   16.77388954   83.80590057    0.09000000    0.05000000
   16.77805519   81.72630310    0.09000000    0.05000000
   16.78055573   83.60050201    0.09000000    0.05000000
   16.78166580   83.40190125    0.09000000    0.05000000
   16.78499985   85.17469788    0.09000000    0.05000000
   16.78805542   85.02359772    0.09000000    0.05000000
   16.79138756   82.06369781    0.09000000    0.05000000
   16.79472160   82.07749939    0.09000000    0.05000000
   16.79777718   79.76100159    0.09000000    0.05000000
   16.80111122   82.55329895    0.09000000    0.05000000
   16.80444336   87.12799835    0.09000000    0.05000000
   16.80749893   87.98280334    0.09000000    0.05000000
   16.81083298   73.37960052    0.09000000    0.05000000
   16.81694603   73.37960052    0.09000000    0.05000000
   16.82111168   88.59870148    0.09000000    0.05000000
   16.82416725   85.67340088    0.09000000    0.05000000
   16.82750130   91.18789673    0.09000000    0.05000000
   16.83055687   87.90670013    0.09000000    0.05000000
   16.83388901   85.81790161    0.09000000    0.05000000
   16.83722305   82.81159973    0.09000000    0.05000000
   16.84027863   86.58439636    0.09000000    0.05000000
   16.84361267   86.33360291    0.09000000    0.05000000
   16.84694481   84.63909912    0.09000000    0.05000000
   16.84777832   83.71050262    0.09000000    0.05000000
   16.85055542   80.74829865    0.09000000    0.05000000
   16.85361099   80.68620300    0.09000000    0.05000000
   16.85972214   80.68620300    0.09000000    0.05000000
   16.86388969   83.87220001    0.09000000    0.05000000
   16.86722183   84.49019623    0.09000000    0.05000000
   16.87027740   78.09400177    0.09000000    0.05000000
   16.87361145   83.11370087    0.09000000    0.05000000
   16.87694550   83.18260193    0.09000000    0.05000000
   16.88000107   77.79209900    0.09000000    0.05000000
   16.88111115   77.32980347    0.09000000    0.05000000
   16.88361168   80.58280182    0.09000000    0.05000000
   16.88666725   82.98169708    0.09000000    0.05000000
   16.88999939   81.44529724    0.09000000    0.05000000
   16.89305496   78.16649628    0.09000000    0.05000000
   16.89638901   78.55349731    0.09000000    0.05000000
   16.90250015   78.55349731    0.09000000    0.05000000
   16.90666580   77.78079987    0.09000000    0.05000000
   16.90999985   85.43520355    0.09000000    0.05000000
   16.91305542   80.02700043    0.09000000    0.05000000
   16.91472244   83.33399963    0.09000000    0.05000000
   16.91666603   84.04299927    0.09000000    0.05000000
   16.92000008   83.63549805    0.09000000    0.05000000
   16.92305565   81.75810242    0.09000000    0.05000000
   16.92638779   83.16970062    0.09000000    0.05000000
   16.92972183   89.43650055    0.09000000    0.05000000
   16.93277740   82.60939789    0.09000000    0.05000000
   16.93610954   94.20929718    0.09000000    0.05000000
   16.93944359   89.99960327    0.09000000    0.05000000
   16.94527626   89.99960327    0.09000000    0.05000000
   16.96389008   95.75129700    0.09000000    0.05000000
   16.96694565   96.10919952    0.09000000    0.05000000
   16.97027779   89.33670044    0.09000000    0.05000000
   16.97333336   94.57299805    0.09000000    0.05000000
   16.97666740   91.52169800    0.09000000    0.05000000
   16.98000145  103.75000000    0.09000000    0.05000000
   16.98305511   97.79129791    0.09000000    0.05000000
   16.98833275   97.79129791    0.09000000    0.05000000
   16.99250031  100.54000092    0.09000000    0.05000000
   16.99583435  102.99800110    0.09000000    0.05000000
   16.99666786   98.38110352    0.09000000    0.05000000
   16.99944496   98.51370239    0.09000000    0.05000000
   17.00277710   96.61009979    0.09000000    0.05000000
   17.00583267   94.68479919    0.09000000    0.05000000
   17.00916672  101.84200287    0.09000000    0.05000000
   17.01222229   97.25279999    0.09000000    0.05000000
   17.01555634  102.95099640    0.09000000    0.05000000
   17.01888847  108.22699738    0.09000000    0.05000000
   17.02194405   99.34619904    0.09000000    0.05000000
   17.02527809  100.07099915    0.09000000    0.05000000
   17.03138924  100.07099915    0.09000000    0.05000000
   17.03527641  104.19699860    0.09000000    0.05000000
   17.03861046   93.74130249    0.09000000    0.05000000
   17.04194450   88.60420227    0.09000000    0.05000000
   17.04500008   87.95330048    0.09000000    0.05000000
   17.04833221   93.03919983    0.09000000    0.05000000
   17.05166626   89.14759827    0.09000000    0.05000000
   17.05499840   91.54789734    0.09000000    0.05000000
   17.05805397   91.39810181    0.09000000    0.05000000
   17.06138802   91.47609711    0.09000000    0.05000000
   17.06333351   91.01979828    0.09000000    0.05000000
   17.06499863   82.30310059    0.09000000    0.05000000
   17.06833458   89.35340118    0.09000000    0.05000000
   17.07416725   89.35340118    0.09000000    0.05000000
   17.07833481   98.88659668    0.09000000    0.05000000
   17.08139038   87.76290131    0.09000000    0.05000000
   17.08472252   91.49459839    0.09000000    0.05000000
   17.08777809   92.87280273    0.09000000    0.05000000
   17.09111214   90.72949982    0.09000000    0.05000000
   17.09444427   88.13539886    0.09000000    0.05000000
   17.09666824   86.75229645    0.09000000    0.05000000
   17.09805679   85.61119843    0.09000000    0.05000000
   17.10138893   87.19460297    0.09000000    0.05000000
   17.10444450   81.00530243    0.09000000    0.05000000
   17.10777855   81.58799744    0.09000000    0.05000000
   17.11111069   81.33950043    0.09000000    0.05000000
   17.11694527   81.33950043    0.09000000    0.05000000
   17.12111092   80.50969696    0.09000000    0.05000000
   17.12444496   85.01770020    0.09000000    0.05000000
   17.12750053   86.18250275    0.09000000    0.05000000
   17.13000107   80.00910187    0.09000000    0.05000000
   17.13111115   77.02870178    0.09000000    0.05000000
   17.13444519   87.68939972    0.09000000    0.05000000
   17.13777733   79.05970001    0.09000000    0.05000000
   17.14083290   87.88729858    0.09000000    0.05000000
   17.14416695   82.87010193    0.09000000    0.05000000
   17.14722252   82.46939850    0.09000000    0.05000000
   17.15055466   84.68199921    0.09000000    0.05000000
   17.15388870   83.14270020    0.09000000    0.05000000
   17.15972137   83.14270020    0.09000000    0.05000000
   17.16388893   90.03980255    0.09000000    0.05000000
   17.16722107   84.09010315    0.09000000    0.05000000
   17.17027664   82.85410309    0.09000000    0.05000000
   17.17361069   88.22010040    0.09000000    0.05000000
   17.17694473   89.75569916    0.09000000    0.05000000
   17.18000031   90.02110291    0.09000000    0.05000000
   17.18333244   86.67109680    0.09000000    0.05000000
   17.18638802   91.81939697    0.09000000    0.05000000
   17.18972206   93.92179871    0.09000000    0.05000000
   17.19305420   87.88249969    0.09000000    0.05000000
   17.19610977   91.65350342    0.09000000    0.05000000
   17.19666672   97.88220215    0.09000000    0.05000000
   17.20277786   97.88220215    0.09000000    0.05000000
   17.20666695   92.95529938    0.09000000    0.05000000
   17.21000099   88.78880310    0.09000000    0.05000000
   17.21333504   87.65489960    0.09000000    0.05000000
   17.21638870   88.74449921    0.09000000    0.05000000
   17.21972275   90.60749817    0.09000000    0.05000000
   17.22305679   87.45639801    0.09000000    0.05000000
   17.22611237   99.66619873    0.09000000    0.05000000
   17.22944450   93.43800354    0.09000000    0.05000000
   17.23027802   79.78669739    0.09000000    0.05000000
   17.23305511   90.41529846    0.09000000    0.05000000
   17.23638916   93.73419952    0.09000000    0.05000000
   17.23944473   93.79190063    0.09000000    0.05000000
   17.24555588   93.79190063    0.09000000    0.05000000
   17.24972153   87.18270111    0.09000000    0.05000000
   17.25277710   90.31960297    0.09000000    0.05000000
   17.25611115   96.05000305    0.09000000    0.05000000
   17.25916672   97.49019623    0.09000000    0.05000000
   17.26250076   95.47080231    0.09000000    0.05000000
   17.26361084   95.56909943    0.09000000    0.05000000
   17.26611137   94.20790100    0.09000000    0.05000000
   17.26944351   91.38800049    0.09000000    0.05000000
   17.27249908   97.87500000    0.09000000    0.05000000
   17.27583313   84.73200226    0.09000000    0.05000000
   17.27916718   87.25440216    0.09000000    0.05000000
   17.28222275   94.90000153    0.09000000    0.05000000
   17.28833199   94.90000153    0.09000000    0.05000000
   17.29249954   95.69860077    0.09000000    0.05000000
   17.29555511   92.36509705    0.09000000    0.05000000
   17.29694366   96.47609711    0.09000000    0.05000000
   17.29916573   88.78369904    0.09000000    0.05000000
   17.30249977   97.26750183    0.09000000    0.05000000
   17.30555534   91.87169647    0.09000000    0.05000000
   17.30888748   91.03489685    0.09000000    0.05000000
   17.31222153   90.78569794    0.09000000    0.05000000
   17.31527710   95.57299805    0.09000000    0.05000000
   17.31861115   98.88050079    0.09000000    0.05000000
   17.32166672   91.96330261    0.09000000    0.05000000
   17.32500076   92.13860321    0.09000000    0.05000000
   17.33111191   92.13860321    0.09000000    0.05000000
   17.33527756   90.01629639    0.09000000    0.05000000
   17.33861160   94.98860168    0.09000000    0.05000000
   17.34166718  101.29399872    0.09000000    0.05000000
   17.34500122   94.78639984    0.09000000    0.05000000
   17.34833336   93.49819946    0.09000000    0.05000000
   17.35138893   92.43900299    0.09000000    0.05000000
   17.35472298   97.49649811    0.09000000    0.05000000
   17.35777855   99.69020081    0.09000000    0.05000000
   17.36111069  103.77100372    0.09000000    0.05000000
   17.36361122   95.98619843    0.09000000    0.05000000
   17.36472321  101.08100128    0.09000000    0.05000000
   17.36805534   97.02220154    0.09000000    0.05000000
   17.37416649   97.02220154    0.09000000    0.05000000
   17.37805557   92.84600067    0.09000000    0.05000000
   17.38138962   91.04419708    0.09000000    0.05000000
   17.38472176   93.25499725    0.09000000    0.05000000
   17.38777733   98.62599945    0.09000000    0.05000000
   17.39111137  100.12500000    0.09000000    0.05000000
   17.39444351  101.03399658    0.09000000    0.05000000
   17.39694405  102.13600159    0.09000000    0.05000000
   17.39777756   97.51380157    0.09000000    0.05000000
   17.40111160   98.35620117    0.09000000    0.05000000
   17.40444374  100.94300079    0.09000000    0.05000000
   17.40749931  100.45400238    0.09000000    0.05000000
   17.41083336   97.38339996    0.09000000    0.05000000
   17.41694450   97.38339996    0.09000000    0.05000000
   17.42111015   96.21099854    0.09000000    0.05000000
   17.42416573   95.88970184    0.09000000    0.05000000
   17.42749977  106.88700104    0.09000000    0.05000000
   17.43027687  103.88600159    0.09000000    0.05000000
   17.43111038   99.07070160    0.09000000    0.05000000
   17.43444443  103.43499756    0.09000000    0.05000000
   17.43777657  110.48100281    0.09000000    0.05000000
   17.44083214  109.64199829    0.09000000    0.05000000
   17.44416618  108.52200317    0.09000000    0.05000000
   17.44722176  108.50599670    0.09000000    0.05000000
   17.45055580  102.36000061    0.09000000    0.05000000
   17.45388985  103.86699677    0.09000000    0.05000000
   17.45972252  103.86699677    0.09000000    0.05000000
   17.46389008  110.12000275    0.09000000    0.05000000
   17.46722221  115.79199982    0.09000000    0.05000000
   17.47027779  114.45500183    0.09000000    0.05000000
   17.47361183  121.40899658    0.09000000    0.05000000
   17.47694588  110.95999908    0.09000000    0.05000000
   17.48000145  100.91200256    0.09000000    0.05000000
   17.48333359  110.39099884    0.09000000    0.05000000
   17.48666763  105.32199860    0.09000000    0.05000000
   17.48972321  106.88099670    0.09000000    0.05000000
   17.49305534  111.34999847    0.09000000    0.05000000
   17.49611092  108.42800140    0.09000000    0.05000000
   17.49694443  107.49199677    0.09000000    0.05000000
   17.50250053  107.49199677    0.09000000    0.05000000
   17.50666618  108.62699890    0.09000000    0.05000000
   17.51000023  111.84799957    0.09000000    0.05000000
   17.51305580  106.62000275    0.09000000    0.05000000
   17.51638794  105.07199860    0.09000000    0.05000000
   17.51972198  102.07900238    0.09000000    0.05000000
   17.52277756   98.20939636    0.09000000    0.05000000
   17.52611160  104.67600250    0.09000000    0.05000000
   17.52916718  104.27100372    0.09000000    0.05000000
   17.53027725  102.01699829    0.09000000    0.05000000
   17.53277779  116.88099670    0.09000000    0.05000000
   17.53610992   99.81849670    0.09000000    0.05000000
   17.53916550  105.24199677    0.09000000    0.05000000
   17.54527664  105.24199677    0.09000000    0.05000000
   17.54944420  111.27799988    0.09000000    0.05000000
   17.55277634  105.17900085    0.09000000    0.05000000
   17.55611038  111.27700043    0.09000000    0.05000000
   17.55916595   99.48660278    0.09000000    0.05000000
   17.56250000   95.40010071    0.09000000    0.05000000
   17.56361008   92.51470184    0.09000000    0.05000000
   17.56583214   95.10030365    0.09000000    0.05000000
   17.56916809   96.16089630    0.09000000    0.05000000
   17.57250023   92.77390289    0.09000000    0.05000000
   17.57555580  104.12500000    0.09000000    0.05000000
   17.57888985   89.22160339    0.09000000    0.05000000
   17.58194542   88.06369781    0.09000000    0.05000000
   17.58833313   88.06369781    0.09000000    0.05000000
   17.59250069   98.48629761    0.09000000    0.05000000
   17.59555626   97.35479736    0.09000000    0.05000000
   17.59694481   89.10299683    0.09000000    0.05000000
   17.59916687   94.92489624    0.09000000    0.05000000
   17.60250092   97.97219849    0.09000000    0.05000000
   17.60555649   92.49939728    0.09000000    0.05000000
   17.60888863   92.57270050    0.09000000    0.05000000
   17.61222267   91.88809967    0.09000000    0.05000000
   17.61527824   86.53579712    0.09000000    0.05000000
   17.61861038   91.79389954    0.09000000    0.05000000
   17.62194443   88.26339722    0.09000000    0.05000000
   17.62500000   86.73300171    0.09000000    0.05000000
   17.63111115   86.73300171    0.09000000    0.05000000
   17.63527679   92.35220337    0.09000000    0.05000000
   17.63833237   91.20700073    0.09000000    0.05000000
   17.64166641   90.21350098    0.09000000    0.05000000
   17.64500046   89.35440063    0.09000000    0.05000000
   17.64805603   94.84329987    0.09000000    0.05000000
   17.65138817   90.70739746    0.09000000    0.05000000
   17.65472221   99.36689758    0.09000000    0.05000000
   17.65777779   89.97059631    0.09000000    0.05000000
   17.66110992   98.01570129    0.09000000    0.05000000
   17.66361046   95.72949982    0.09000000    0.05000000
   17.66444397   96.16280365    0.09000000    0.05000000
   17.66777802   91.37280273    0.09000000    0.05000000
   17.67388916   91.37280273    0.09000000    0.05000000
   17.67805481   93.77010345    0.09000000    0.05000000
   17.68138885   94.22460175    0.09000000    0.05000000
   17.68444443   98.76760101    0.09000000    0.05000000
   17.68777657   91.11460114    0.09000000    0.05000000
   17.69111061   96.57599640    0.09000000    0.05000000
   17.69416618   92.89379883    0.09000000    0.05000000
   17.69694328   97.33350372    0.09000000    0.05000000
   17.69777679   96.38809967    0.09000000    0.05000000
   17.70111275  101.26200104    0.09000000    0.05000000
   17.70444489   92.11409760    0.09000000    0.05000000
   17.70750046   95.77100372    0.09000000    0.05000000
   17.71083450   90.51920319    0.09000000    0.05000000
   17.71666718   90.51920319    0.09000000    0.05000000
   17.72083473   89.34169769    0.09000000    0.05000000
   17.72416687   87.32270050    0.09000000    0.05000000
   17.72750092   93.21920013    0.09000000    0.05000000
   17.73027802   92.37200165    0.09000000    0.05000000
   17.73083305   91.74250031    0.09000000    0.05000000
   17.73416710   88.87270355    0.09000000    0.05000000
   17.73750114   96.04660034    0.09000000    0.05000000
   17.74055672   86.54049683    0.09000000    0.05000000
   17.74388885   92.24009705    0.09000000    0.05000000
   17.74694443   88.02140045    0.09000000    0.05000000
   17.75027847   95.64579773    0.09000000    0.05000000
   17.75361061   93.27590179    0.09000000    0.05000000
   17.75972176   93.27590179    0.09000000    0.05000000
   17.76388931   87.48000336    0.09000000    0.05000000
   17.76694489   83.92859650    0.09000000    0.05000000
   17.77027702   80.91799927    0.09000000    0.05000000
   17.77333260   87.94170380    0.09000000    0.05000000
   17.77666664   85.58229828    0.09000000    0.05000000
   17.78000069   93.49169922    0.09000000    0.05000000
   17.78305435   94.00090027    0.09000000    0.05000000
   17.78638840   93.03279877    0.09000000    0.05000000
   17.78972244   89.49770355    0.09000000    0.05000000
   17.79277802   90.71920013    0.09000000    0.05000000
   17.79611015   92.10340118    0.09000000    0.05000000
   17.79694366   89.30930328    0.09000000    0.05000000
   17.80249977   89.30930328    0.09000000    0.05000000
   17.80666542   94.47029877    0.09000000    0.05000000
   17.80972099   94.69830322    0.09000000    0.05000000
   17.81305504   92.85420227    0.09000000    0.05000000
   17.81638718   89.68689728    0.09000000    0.05000000
   17.81972313   87.54080200    0.09000000    0.05000000
   17.82277870   91.32669830    0.09000000    0.05000000
   17.82611275   88.87709808    0.09000000    0.05000000
   17.82944489   88.44100189    0.09000000    0.05000000
   17.83027840   90.19170380    0.09000000    0.05000000
   17.83277893   83.05380249    0.09000000    0.05000000
   17.83611107   88.42690277    0.09000000    0.05000000
   17.83944511   88.08280182    0.09000000    0.05000000
   17.84527779   88.08280182    0.09000000    0.05000000
   17.84944534   87.18070221    0.09000000    0.05000000
   17.85277748   94.19300079    0.09000000    0.05000000
   17.85583305   90.79489899    0.09000000    0.05000000
   17.85916710   90.55400085    0.09000000    0.05000000
   17.86250114   86.56050110    0.09000000    0.05000000
   17.86361122   89.79810333    0.09000000    0.05000000
   17.86583328   89.33670044    0.09000000    0.05000000
   17.86916733   89.63349915    0.09000000    0.05000000
   17.87249947   90.00050354    0.09000000    0.05000000
   17.87555504   91.89559937    0.09000000    0.05000000
   17.87888908   92.78269958    0.09000000    0.05000000
   17.88222313   85.18489838    0.09000000    0.05000000
   17.88805580   85.18489838    0.09000000    0.05000000
   17.89222145   83.21820068    0.09000000    0.05000000
   17.89555550   83.25399780    0.09000000    0.05000000
   17.89694405   83.02999878    0.09000000    0.05000000
   17.89888954   87.41580200    0.09000000    0.05000000
   17.90222168   88.67310333    0.09000000    0.05000000
   17.90555573   86.20290375    0.09000000    0.05000000
   17.90888786   90.76429749    0.09000000    0.05000000
   17.91194344   87.12519836    0.09000000    0.05000000
   17.91527748   86.45659637    0.09000000    0.05000000
   17.91833305   84.93209839    0.09000000    0.05000000
   17.92166519   86.78980255    0.09000000    0.05000000
   17.92499924   83.67829895    0.09000000    0.05000000
   17.93111038   83.67829895    0.09000000    0.05000000
   17.93527603   87.36029816    0.09000000    0.05000000
   17.93833160   91.85189819    0.09000000    0.05000000
   17.94166565   88.20349884    0.09000000    0.05000000
   17.94472122   96.50350189    0.09000000    0.05000000
   17.94805527   94.27239990    0.09000000    0.05000000
   17.95138931   97.35540009    0.09000000    0.05000000
   17.95444489   97.22699738    0.09000000    0.05000000
   17.95777893   92.41510010    0.09000000    0.05000000
   17.96111107   95.41030121    0.09000000    0.05000000
   17.96361160   90.81710052    0.09000000    0.05000000
   17.98416710   90.81710052    0.09000000    0.05000000
   17.98833275  101.29699707    0.09000000    0.05000000
   17.99138832   92.49949646    0.09000000    0.05000000
   17.99472237   91.03269958    0.09000000    0.05000000
   17.99694443   91.28260040    0.09000000    0.05000000
   17.99861145   91.76570129    0.09000000    0.05000000
   18.00166702   91.62329865    0.09000000    0.05000000
   18.00499916   96.91130066    0.09000000    0.05000000
   18.00833321   95.47920227    0.09000000    0.05000000
   18.01138878   97.34400177    0.09000000    0.05000000
   18.01472282   91.43659973    0.09000000    0.05000000
   18.01805496   93.55470276    0.09000000    0.05000000
   18.02111053   99.65830231    0.09000000    0.05000000
   18.02694511   99.65830231    0.09000000    0.05000000
   18.03111076  100.24600220    0.09000000    0.05000000
   18.03416634   95.05699921    0.09000000    0.05000000
   18.03750038   98.78610229    0.09000000    0.05000000
   18.04083252   94.37940216    0.09000000    0.05000000
   18.04388809   94.10540009    0.09000000    0.05000000
   18.04722214   93.06220245    0.09000000    0.05000000
   18.05027771   94.81939697    0.09000000    0.05000000
   18.05360985   99.59839630    0.09000000    0.05000000
   18.05694389   97.10710144    0.09000000    0.05000000
   18.05999947   93.57319641    0.09000000    0.05000000
   18.06333351   96.92440033    0.09000000    0.05000000
   18.06388855   95.91940308    0.09000000    0.05000000
   18.06972313   95.91940308    0.09000000    0.05000000
   18.07389069   96.72039795    0.09000000    0.05000000
   18.07722282   92.45140076    0.09000000    0.05000000
   18.08027840   93.80719757    0.09000000    0.05000000
   18.08361244   95.85359955    0.09000000    0.05000000
   18.08666801   95.04900360    0.09000000    0.05000000
   18.09000015   90.25270081    0.09000000    0.05000000
   18.09333420   93.27200317    0.09000000    0.05000000
   18.09638977   92.67890167    0.09000000    0.05000000
   18.09722328   90.07299805    0.09000000    0.05000000
   18.10000038   87.83339691    0.09000000    0.05000000
   18.10333443   93.08989716    0.09000000    0.05000000
   18.10666656   93.24669647    0.09000000    0.05000000
   18.11250114   93.24669647    0.09000000    0.05000000
   18.11666679   93.89399719    0.09000000    0.05000000
   18.12000084   95.70559692    0.09000000    0.05000000
   18.12305641   94.33439636    0.09000000    0.05000000
   18.12638855   92.41790009    0.09000000    0.05000000
   18.12972260   89.56320190    0.09000000    0.05000000
   18.13055611   97.47010040    0.09000000    0.05000000
   18.13305473   94.67099762    0.09000000    0.05000000
   18.13638878   92.68119812    0.09000000    0.05000000
   18.13972282   91.03980255    0.09000000    0.05000000
   18.14277840   86.85720062    0.09000000    0.05000000
   18.14611053   86.68679810    0.09000000    0.05000000
   18.14916611   88.42500305    0.09000000    0.05000000
   18.15555573   88.42500305    0.09000000    0.05000000
   18.15944481   88.85449982    0.09000000    0.05000000
   18.16277695   87.38230133    0.09000000    0.05000000
   18.16388893   94.84510040    0.09000000    0.05000000
   18.16638756   85.16380310    0.09000000    0.05000000
   18.16972160   93.15440369    0.09000000    0.05000000
   18.17305565   90.51860046    0.09000000    0.05000000
   18.17611122   95.26959991    0.09000000    0.05000000
   18.17944336   94.70410156    0.09000000    0.05000000
   18.18277740   94.78279877    0.09000000    0.05000000
   18.18583298   88.68969727    0.09000000    0.05000000
   18.18916512   94.42299652    0.09000000    0.05000000
   18.19222069   93.43280029    0.09000000    0.05000000
   18.19833183   93.43280029    0.09000000    0.05000000
   18.20250130  100.16000366    0.09000000    0.05000000
   18.20555687  100.37100220    0.09000000    0.05000000
   18.20888901  101.21800232    0.09000000    0.05000000
   18.21222305  102.89499664    0.09000000    0.05000000
   18.21527863  101.84700012    0.09000000    0.05000000
   18.21861076   95.89160156    0.09000000    0.05000000
   18.22166634   98.15630341    0.09000000    0.05000000
   18.22500038  107.30000305    0.09000000    0.05000000
   18.22833443  103.17500305    0.09000000    0.05000000
   18.23055649  106.66799927    0.09000000    0.05000000
   18.23166656  109.32099915    0.09000000    0.05000000
   18.23500061  117.20099640    0.09000000    0.05000000
   18.24111176  117.20099640    0.09000000    0.05000000
   18.24527740  109.77999878    0.09000000    0.05000000
   18.24861145   99.96769714    0.09000000    0.05000000
   18.25166702   96.18920135    0.09000000    0.05000000
   18.25499916   99.30069733    0.09000000    0.05000000
   18.25805473   99.78440094    0.09000000    0.05000000
   18.26138878  103.05699921    0.09000000    0.05000000
   18.26388931  100.40799713    0.09000000    0.05000000
   18.26499939   95.61139679    0.09000000    0.05000000
   18.26833344  100.25499725    0.09000000    0.05000000
   18.27166557  118.24199677    0.09000000    0.05000000
   18.27472115  104.08300018    0.09000000    0.05000000
   18.27805519  111.71800232    0.09000000    0.05000000
   18.28388786  111.71800232    0.09000000    0.05000000
   18.28805542  111.84100342    0.09000000    0.05000000
   18.29138756  105.23999786    0.09000000    0.05000000
   18.29444313  105.90699768    0.09000000    0.05000000
   18.29722214  103.46800232    0.09000000    0.05000000
   18.29805565  108.21700287    0.09000000    0.05000000
   18.30138779  108.93399811    0.09000000    0.05000000
   18.30472183  103.34100342    0.09000000    0.05000000
   18.30777740  103.13500214    0.09000000    0.05000000
   18.31110954  110.44799805    0.09000000    0.05000000
   18.31444359  100.05699921    0.09000000    0.05000000
   18.31750107   92.68550110    0.09000000    0.05000000
   18.32083511  102.27700043    0.09000000    0.05000000
   18.32694626  102.27700043    0.09000000    0.05000000
   18.33083344  100.50199890    0.09000000    0.05000000
   18.33416748   99.45749664    0.09000000    0.05000000
   18.33750153   93.06449890    0.09000000    0.05000000
   18.34055710  100.75399780    0.09000000    0.05000000
   18.34388924   97.21089935    0.09000000    0.05000000
   18.34722328   90.60820007    0.09000000    0.05000000
   18.35027885   92.41069794    0.09000000    0.05000000
   18.35361099   94.65589905    0.09000000    0.05000000
   18.35666656   92.17590332    0.09000000    0.05000000
   18.36000061   91.48480225    0.09000000    0.05000000
   18.36333466   92.61820221    0.09000000    0.05000000
   18.36388969   91.01349640    0.09000000    0.05000000
   18.36972237   91.01349640    0.09000000    0.05000000
   18.37388992   83.01519775    0.09000000    0.05000000
   18.37694550   97.88220215    0.09000000    0.05000000
   18.38027763   98.80229950    0.09000000    0.05000000
   18.38361168   93.75250244    0.09000000    0.05000000
   18.38666725   92.49949646    0.09000000    0.05000000
   18.38999939   90.50060272    0.09000000    0.05000000
   18.39305496   93.43810272    0.09000000    0.05000000
   18.39638901   94.31459808    0.09000000    0.05000000
   18.39722252   96.08360291    0.09000000    0.05000000
   18.39972115   94.09980011    0.09000000    0.05000000
   18.40305519   86.34459686    0.09000000    0.05000000
   18.40638924   91.23059845    0.09000000    0.05000000
   18.41250038   91.23059845    0.09000000    0.05000000
   18.41666603   91.86180115    0.09000000    0.05000000
   18.42000008   85.21399689    0.09000000    0.05000000
   18.42305565   82.96640015    0.09000000    0.05000000
   18.42638779   84.62139893    0.09000000    0.05000000
   18.42944336   85.25009918    0.09000000    0.05000000
   18.43055534   87.94519806    0.09000000    0.05000000
   18.43333244   79.52600098    0.09000000    0.05000000
   18.43638802   91.21140289    0.09000000    0.05000000
   18.43972206   93.90499878    0.09000000    0.05000000
   18.44277763   89.99759674    0.09000000    0.05000000
   18.44610977   88.93560028    0.09000000    0.05000000
   18.44944382   83.88339996    0.09000000    0.05000000
   18.45527840   83.88339996    0.09000000    0.05000000
   18.45944595   89.02839661    0.09000000    0.05000000
   18.46277809   84.00209808    0.09000000    0.05000000
   18.46389008   83.24089813    0.09000000    0.05000000
   18.46638870   92.01450348    0.09000000    0.05000000
   18.46944427   83.45339966    0.09000000    0.05000000
   18.47277832   86.24579620    0.09000000    0.05000000
   18.47583389   83.52169800    0.09000000    0.05000000
   18.47916794   88.69730377    0.09000000    0.05000000
   18.48250008   80.93049622    0.09000000    0.05000000
   18.48555565   87.27359772    0.09000000    0.05000000
   18.48888969   90.72699738    0.09000000    0.05000000
   18.49222183   88.66899872    0.09000000    0.05000000
   18.49833298   88.66899872    0.09000000    0.05000000
   18.50222206   91.54989624    0.09000000    0.05000000
   18.50555611   88.94879913    0.09000000    0.05000000
   18.50888824   91.59490204    0.09000000    0.05000000
   18.51194382   94.85540009    0.09000000    0.05000000
   18.51527786   92.43840027    0.09000000    0.05000000
   18.51861000   96.93409729    0.09000000    0.05000000
   18.52166557   96.76820374    0.09000000    0.05000000
   18.52499962   94.91999817    0.09000000    0.05000000
   18.52805519   98.66819763    0.09000000    0.05000000
   18.53055573   92.22250366    0.09000000    0.05000000
   18.53194427   98.90679932    0.09000000    0.05000000
   18.53499985   92.00740051    0.09000000    0.05000000
   18.54111099   92.00740051    0.09000000    0.05000000
   18.54527664  103.27999878    0.09000000    0.05000000
   18.54833221  101.31400299    0.09000000    0.05000000
   18.55166626   95.15910339    0.09000000    0.05000000
   18.55499840   99.86720276    0.09000000    0.05000000
   18.55805397   99.37139893    0.09000000    0.05000000
   18.56138802  104.62899780    0.09000000    0.05000000
   18.56388855  106.16000366    0.09000000    0.05000000
   18.56499863  100.93499756    0.09000000    0.05000000
   18.56805611   96.97160339    0.09000000    0.05000000
   18.57139015   97.06150055    0.09000000    0.05000000
   18.57444572   95.15899658    0.09000000    0.05000000
   18.57777786   97.67590332    0.09000000    0.05000000
   18.58388901   97.67590332    0.09000000    0.05000000
   18.58805656   94.00090027    0.09000000    0.05000000
   18.59138870   97.29509735    0.09000000    0.05000000
   18.59444427   92.72940063    0.09000000    0.05000000
   18.59722328   94.62989807    0.09000000    0.05000000
   18.59833336   93.88619995    0.09000000    0.05000000
   18.60138893   94.73149872    0.09000000    0.05000000
   18.60472298   96.86509705    0.09000000    0.05000000
   18.60777855   91.68479919    0.09000000    0.05000000
   18.61111069   92.60890198    0.09000000    0.05000000
   18.61444473   93.50749969    0.09000000    0.05000000
   18.61750031   94.04789734    0.09000000    0.05000000
   18.62083435   91.91989899    0.09000000    0.05000000
   18.62666702   91.91989899    0.09000000    0.05000000
   18.63083267   94.38649750    0.09000000    0.05000000
   18.63416672   98.86150360    0.09000000    0.05000000
   18.63722229   87.32959747    0.09000000    0.05000000
   18.64055634  100.65100098    0.09000000    0.05000000
   18.64388847   90.86199951    0.09000000    0.05000000
   18.64694405   95.29560089    0.09000000    0.05000000
   18.65027809   89.00689697    0.09000000    0.05000000
   18.65361023   94.15660095    0.09000000    0.05000000
   18.65666580   96.17749786    0.09000000    0.05000000
   18.65999985   89.30370331    0.09000000    0.05000000
   18.66305542   88.36969757    0.09000000    0.05000000
   18.66388893   86.02410126    0.09000000    0.05000000
   18.66972160   86.02410126    0.09000000    0.05000000
   18.67361069   89.59159851    0.09000000    0.05000000
   18.67694473   94.86560059    0.09000000    0.05000000
   18.68027687   96.97059631    0.09000000    0.05000000
   18.68333244   98.25199890    0.09000000    0.05000000
   18.68666649   92.78919983    0.09000000    0.05000000
   18.68999863   95.85140228    0.09000000    0.05000000
   18.69305420   89.65619659    0.09000000    0.05000000
   18.69638824   90.56109619    0.09000000    0.05000000
   18.69722176   94.52429962    0.09000000    0.05000000
   18.70000076   92.70369720    0.09000000    0.05000000
   18.70305634   87.65119934    0.09000000    0.05000000
   18.70639038   92.39029694    0.09000000    0.05000000
   18.71250153   92.39029694    0.09000000    0.05000000
   18.71666718   95.76809692    0.09000000    0.05000000
   18.71972275   90.02610016    0.09000000    0.05000000
   18.72305679   89.21659851    0.09000000    0.05000000
   18.72638893   93.98590088    0.09000000    0.05000000
   18.72944450   89.88210297    0.09000000    0.05000000
   18.73055649   94.45220184    0.09000000    0.05000000
   18.73305511   88.06099701    0.09000000    0.05000000
   18.73611069   98.71749878    0.09000000    0.05000000
   18.73944473   96.12860107    0.09000000    0.05000000
   18.74277878   92.88929749    0.09000000    0.05000000
   18.74583435   89.99610138    0.09000000    0.05000000
   18.74916649   90.83850098    0.09000000    0.05000000
   18.75527763   90.83850098    0.09000000    0.05000000
   18.75944519   91.28459930    0.09000000    0.05000000
   18.76277733   90.67549896    0.09000000    0.05000000
   18.76388931   91.57450104    0.09000000    0.05000000
   18.76638794   87.72519684    0.09000000    0.05000000
   18.76972198   86.35189819    0.09000000    0.05000000
   18.77277756   87.62629700    0.09000000    0.05000000
   18.77611160   90.39520264    0.09000000    0.05000000
   18.77916718   85.43920135    0.09000000    0.05000000
   18.78249931   88.94219971    0.09000000    0.05000000
   18.78583336   93.73339844    0.09000000    0.05000000
   18.78888893   87.64929962    0.09000000    0.05000000
   18.79222107   88.27249908    0.09000000    0.05000000
   18.79805565   88.27249908    0.09000000    0.05000000
   18.80222130   89.36460114    0.09000000    0.05000000
   18.80555534   85.56379700    0.09000000    0.05000000
   18.80861092   85.34130096    0.09000000    0.05000000
   18.81194305   83.49610138    0.09000000    0.05000000
   18.81527710   87.35849762    0.09000000    0.05000000
   18.81833458   87.10530090    0.09000000    0.05000000
   18.82166672   83.04270172    0.09000000    0.05000000
   18.82500076   84.26249695    0.09000000    0.05000000
   18.82805634   85.24210358    0.09000000    0.05000000
   18.83055687   84.06929779    0.09000000    0.05000000
   18.83166695   89.25109863    0.09000000    0.05000000
   18.83472252   92.98419952    0.09000000    0.05000000
   18.84111214   92.98419952    0.09000000    0.05000000
   18.84500122   92.20140076    0.09000000    0.05000000
   18.84833336   87.46330261    0.09000000    0.05000000
   18.85166740   88.80069733    0.09000000    0.05000000
   18.85499954   87.12509918    0.09000000    0.05000000
   18.85805511   83.11730194    0.09000000    0.05000000
   18.86138916   86.03260040    0.09000000    0.05000000
   18.86388969   88.39689636    0.09000000    0.05000000
   18.86499977   87.94640350    0.09000000    0.05000000
   18.86805534   84.82630157    0.09000000    0.05000000
   18.87138939   84.13269806    0.09000000    0.05000000
   18.87472153   81.16549683    0.09000000    0.05000000
   18.87777710  100.97899628    0.09000000    0.05000000
   18.88388824  100.97899628    0.09000000    0.05000000
   18.88805580   91.26249695    0.09000000    0.05000000
   18.89111137   91.01229858    0.09000000    0.05000000
   18.89444351   99.27310181    0.09000000    0.05000000
   18.89722252   95.68530273    0.09000000    0.05000000
   18.89805603   92.81670380    0.09000000    0.05000000
   18.90111160   92.32980347    0.09000000    0.05000000
   18.90444374   90.18260193    0.09000000    0.05000000
   18.90777779   90.48870087    0.09000000    0.05000000
   18.91083336   90.95939636    0.09000000    0.05000000
   18.91416550   87.27829742    0.09000000    0.05000000
   18.91722107   92.95159912    0.09000000    0.05000000
   18.92055511   87.68849945    0.09000000    0.05000000
   18.92666626   87.68849945    0.09000000    0.05000000
   18.93083191   88.98600006    0.09000000    0.05000000
   18.93416595   94.63649750    0.09000000    0.05000000
   18.93722153   91.31189728    0.09000000    0.05000000
   18.94055557   98.41120148    0.09000000    0.05000000
   18.94361115   86.26599884    0.09000000    0.05000000
   18.94694328   88.62729645    0.09000000    0.05000000
   18.95027924   90.34140015    0.09000000    0.05000000
   18.95333481   88.53350067    0.09000000    0.05000000
   18.95666695   94.79530334    0.09000000    0.05000000
   18.96000099   92.25599670    0.09000000    0.05000000
   18.96305656   94.48490143    0.09000000    0.05000000
   18.96389008   93.34110260    0.09000000    0.05000000
   18.96944427   93.34110260    0.09000000    0.05000000
   18.97361183   90.78350067    0.09000000    0.05000000
   18.97694588   89.91840363    0.09000000    0.05000000
   18.98000145   87.76349640    0.09000000    0.05000000
   18.99749947   92.40750122    0.09000000    0.05000000
   19.00000000   85.33480072    0.09000000    0.05000000
   19.00333405   88.00820160    0.09000000    0.05000000
   19.00638962   86.95890045    0.09000000    0.05000000
   19.01250076   86.95890045    0.09000000    0.05000000
   19.01666641   79.36959839    0.09000000    0.05000000
   19.02000046   83.83029938    0.09000000    0.05000000
   19.02305603   82.86650085    0.09000000    0.05000000
   19.02638817   85.74859619    0.09000000    0.05000000
   19.02944374   84.02870178    0.09000000    0.05000000
   19.03083229   82.94640350    0.09000000    0.05000000
   19.03333282   84.34230042    0.09000000    0.05000000
   19.03666687   83.70690155    0.09000000    0.05000000
   19.03972244   79.13110352    0.09000000    0.05000000
   19.04305458   81.16809845    0.09000000    0.05000000
   19.04611015   87.65319824    0.09000000    0.05000000
   19.04944420   81.16069794    0.09000000    0.05000000
   19.05527687   81.16069794    0.09000000    0.05000000
   19.05944443   81.92420197    0.09000000    0.05000000
   19.06277657   82.43869781    0.09000000    0.05000000
   19.06416512   83.64559937    0.09000000    0.05000000
   19.06638718   84.67600250    0.09000000    0.05000000
