    HOUR (UT)   FLARE FACTOR    SKY TESTER    SUN TESTER
   11.73083305   -1.00000000   -1.00000000   -1.00000000
   12.00249958  165.61199951    0.00000000    0.00000000
   12.00555515  160.59800720    0.00000000    0.00000000
   12.00888920  149.99600220    0.00000000    0.00000000
   12.01222229  148.73800659    0.00000000    0.00000000
   12.01527786  152.34100342    0.00000000    0.00000000
   12.01861095  151.87699890    0.00000000    0.00000000
   12.02277756  151.87699890    0.00000000    0.00000000
   12.02694416  143.88999939    0.00000000    0.00000000
   12.02999973  155.16400146    0.73000002    1.75000000
   12.03333378  153.91299438    0.73000002    1.75000000
   12.03555584  142.65299988    0.73000002    1.75000000
   12.03694534  142.28199768    0.73000002    1.75000000
   12.04027843  152.54200745    0.73000002    1.75000000
   12.04333401  148.50399780    0.73000002    1.75000000
   12.04666710  140.20300293    0.73000002    1.75000000
   12.05000019  144.93400574    0.73000002    1.75000000
   12.05305576  151.94500732    0.73000002    1.75000000
   12.05638885  143.35800171    0.73000002    1.75000000
   12.05944443  141.05599976    0.73000002    1.75000000
   12.06555557  141.05599976    0.73000002    1.75000000
   12.06972218  139.69200134    0.73000002    1.75000000
   12.07277775  143.53300476    0.73000002    1.75000000
   12.07611084  145.09300232    0.73000002    1.75000000
   12.07944393  155.50999451    0.73000002    1.75000000
   12.08277798  147.23699951    0.73000002    1.75000000
   12.08583260  150.61099243    0.73000002    1.75000000
   12.08916664  156.33399963    0.73000002    1.75000000
   12.09222221  145.03199768    0.73000002    1.75000000
   12.09555531  157.99800110    0.73000002    1.75000000
   12.09888840  134.41400146    0.73000002    1.75000000
   12.10194492  142.52999878    0.73000002    1.75000000
   12.10249996  156.44799805    0.73000002    1.75000000
   12.10833359  156.44799805    0.73000002    1.75000000
   12.11250019  146.42199707    0.73000002    1.75000000
   12.11583328  143.02600098    0.73000002    1.75000000
   12.11888885  165.54100037    0.73000002    1.75000000
   12.12222195  139.82400513    0.73000002    1.75000000
   12.12555599  130.90499878    0.73000002    1.75000000
   12.12861156  143.76199341    0.73000002    1.75000000
   12.13194466  132.22300720    0.73000002    1.75000000
   12.13500023  132.67199707    0.73000002    1.75000000
   12.13583279  152.49800110    0.73000002    1.75000000
   12.13888836  132.41299438    0.73000002    1.75000000
   12.14194393  140.24200439    0.73000002    1.75000000
   12.14527798  138.22999573    0.73000002    1.75000000
   12.15111065  138.22999573    0.73000002    1.75000000
   12.15527725  148.45899963    0.73000002    1.75000000
   12.15861034  142.27999878    0.73000002    1.75000000
   12.16194439  143.37800598    0.73000002    1.75000000
   12.16499996  134.48599243    0.73000002    1.75000000
   12.16833401  146.44500732    0.73000002    1.75000000
   12.16916656  142.75199890    0.73000002    1.75000000
   12.17194462  156.81599426    0.73000002    1.75000000
   12.17500019  151.46699524    0.73000002    1.75000000
   12.17833328  148.64199829    0.73000002    1.75000000
   12.18166733  136.02799988    0.73000002    1.75000000
   12.18472195  131.40400696    0.73000002    1.75000000
   12.18805599  129.94599915    0.73000002    1.75000000
   12.19416714  129.94599915    0.73000002    1.75000000
   12.19833374  127.79599762    0.73000002    1.75000000
   12.20138836  129.08200073    0.73000002    1.75000000
   12.20277786  131.89500427    0.73000002    1.75000000
   12.20527744  128.23599243    0.73000002    1.75000000
   12.20833302  140.50399780    0.73000002    1.75000000
   12.21166611  129.16400146    0.73000002    1.75000000
   12.21472168  126.86799622    0.73000002    1.75000000
   12.21805477  130.03999329    0.73000002    1.75000000
   12.22138882  133.50599670    0.73000002    1.75000000
   12.22444439  138.69000244    0.73000002    1.75000000
   12.22777748  138.78999329    0.73000002    1.75000000
   12.23111057  143.51699829    0.73000002    1.75000000
   12.23694515  143.51699829    0.73000002    1.75000000
   12.24111176  147.36999512    0.73000002    1.75000000
   12.24416733  144.17500305    0.73000002    1.75000000
   12.24750042  134.85699463    0.73000002    1.75000000
   12.25083351  149.24899292    0.73000002    1.75000000
   12.25388908  133.49600220    0.73000002    1.75000000
   12.25722218  127.66000366    0.73000002    1.75000000
   12.26055527  131.64399719    0.73000002    1.75000000
   12.26361084  135.64799500    0.73000002    1.75000000
   12.26694393  131.34399414    0.73000002    1.75000000
   12.26916599  126.97699738    0.73000002    1.75000000
   12.27055550  134.28500366    0.73000002    1.75000000
   12.27388859  134.10200500    0.73000002    1.75000000
   12.27972221  134.10200500    0.73000002    1.75000000
   12.28388977  129.97900391    0.73000002    1.75000000
   12.28722286  131.42300415    0.73000002    1.75000000
   12.29027843  137.15800476    0.73000002    1.75000000
   12.29361153  138.34599304    0.73000002    1.75000000
   12.29694462  146.14599609    0.73000002    1.75000000
   12.30000019  141.96400452    0.73000002    1.75000000
   12.30249977  136.81399536    0.73000002    1.75000000
   12.30361176  136.75399780    0.73000002    1.75000000
   12.30694485  131.23100281    0.73000002    1.75000000
   12.31000042  154.88299561    0.73000002    1.75000000
   12.31333351  139.83500671    0.73000002    1.75000000
   12.31666660  131.89599609    0.73000002    1.75000000
   12.32250023  131.89599609    0.73000002    1.75000000
   12.32666683  141.69900513    0.73000002    1.75000000
   12.32999992  131.72900391    0.73000002    1.75000000
   12.33333302  127.35299683    0.73000002    1.75000000
   12.33583260  131.41099548    0.73000002    1.75000000
   12.33694458  149.28900146    0.73000002    1.75000000
   12.34000015  136.52699280    0.73000002    1.75000000
   12.34333324  139.01199341    0.73000002    1.75000000
   12.34666634  126.63999939    0.73000002    1.75000000
   12.34972191  127.14199829    0.73000002    1.75000000
   12.35305595  122.82199860    0.73000002    1.75000000
   12.35638905  132.50199890    0.73000002    1.75000000
   12.35944462  125.67900085    0.73000002    1.75000000
   12.36555576  125.67900085    0.73000002    1.75000000
   12.36972237  133.26100159    0.73000002    1.75000000
   12.37277794  123.94200134    0.73000002    1.75000000
   12.37611103  134.12100220    0.73000002    1.75000000
   12.37916660  141.27799988    0.73000002    1.75000000
   12.38249969  135.19799805    0.73000002    1.75000000
   12.38583279  133.44000244    0.73000002    1.75000000
   12.38888836  133.28900146    0.73000002    1.75000000
   12.39222240  137.85099792    0.73000002    1.75000000
   12.39555550  136.21600342    0.73000002    1.75000000
   12.39861107  136.53799438    0.73000002    1.75000000
   12.40194416  138.84300232    0.73000002    1.75000000
   12.40249920  147.51600647    0.73000002    1.75000000
   12.40833282  147.51600647    0.73000002    1.75000000
   12.41249943  128.56799316    0.73000002    1.75000000
   12.41555500  138.04299927    0.73000002    1.75000000
   12.41888905  124.90899658    0.73000002    1.75000000
   12.42222214  134.89799500    0.73000002    1.75000000
   12.42527771  129.36900330    0.73000002    1.75000000
   12.42861176  138.01300049    0.73000002    1.75000000
   12.43194485  137.90400696    0.73000002    1.75000000
   12.43500042  144.17399597    0.73000002    1.75000000
   12.43583298  132.92399597    0.73000002    1.75000000
   12.43861103  134.43699646    0.73000002    1.75000000
   12.44194412  136.54600525    0.73000002    1.75000000
   12.44499969  127.65299988    0.73000002    1.75000000
   12.45111084  127.65299988    0.73000002    1.75000000
   12.45527744  128.67999268    0.73000002    1.75000000
   12.45861053  132.10000610    0.73000002    1.75000000
   12.46166611  138.57400513    0.73000002    1.75000000
   12.46500015  169.16499329    0.73000002    1.75000000
   12.46833324  125.06800079    0.73000002    1.75000000
   12.46916580  121.62799835    0.73000002    1.75000000
   12.47194386  133.50500488    0.73000002    1.75000000
   12.47527695  140.10499573    0.73000002    1.75000000
   12.47833252  140.41200256    0.73000002    1.75000000
   12.48166656  178.30599976    0.73000002    1.75000000
   12.48472214  217.46499634    0.73000002    1.75000000
   12.48805618  179.90499878    0.73000002    1.75000000
   12.49416733  179.90499878    0.73000002    1.75000000
   12.49805546  219.59399414    0.73000002    1.75000000
   12.50138855  221.74400330    0.73000002    1.75000000
   12.50249958  225.22500610    0.73000002    1.75000000
   12.50500011  212.69200134    0.73000002    1.75000000
   12.50833321  184.83500671    0.73000002    1.75000000
   12.51138878  160.75199890    0.73000002    1.75000000
   12.51472187  191.14399719    0.73000002    1.75000000
   12.51805496  197.13099670    0.73000002    1.75000000
   12.52111053  179.12699890    0.73000002    1.75000000
   12.52444458  183.63600159    0.73000002    1.75000000
   12.52777767  161.44700623    0.73000002    1.75000000
   12.53083324  188.51699829    0.73000002    1.75000000
   12.53694534  188.51699829    0.73000002    1.75000000
   12.54111195  154.71699524    0.73000002    1.75000000
   12.54416752  141.21699524    0.73000002    1.75000000
   12.54750061  142.83099365    0.73000002    1.75000000
   12.55055618  126.16400146    0.73000002    1.75000000
   12.55388927  120.04799652    0.73000002    1.75000000
   12.55722237  145.79299927    0.73000002    1.75000000
   12.56027794  138.96699524    0.73000002    1.75000000
   12.56361103  137.89100647    0.73000002    1.75000000
   12.56694412  131.30099487    0.73000002    1.75000000
   12.56916618  121.21199799    0.73000002    1.75000000
   12.57055569  126.26399994    0.73000002    1.75000000
   12.57388878  135.34199524    0.73000002    1.75000000
   12.57972240  135.34199524    0.73000002    1.75000000
   12.58388901  131.77600098    0.73000002    1.75000000
   12.58694458  139.47900391    0.73000002    1.75000000
   12.59027767  123.97399902    0.73000002    1.75000000
   12.59361076  134.21800232    0.73000002    1.75000000
   12.59666634  129.20599365    0.73000002    1.75000000
   12.60000038  138.68099976    0.73000002    1.75000000
   12.60249996  131.33799744    0.73000002    1.75000000
   12.60361195  142.98800659    0.73000002    1.75000000
   12.60694504  132.33900452    0.73000002    1.75000000
   12.61000061  122.80400085    0.73000002    1.75000000
   12.61333370  128.14500427    0.73000002    1.75000000
   12.61638927  121.23100281    0.73000002    1.75000000
   12.62250042  121.23100281    0.73000002    1.75000000
   12.62666702  136.72500610    0.73000002    1.75000000
   12.63000011  134.10499573    0.73000002    1.75000000
   12.63305569  147.83599854    0.73000002    1.75000000
   12.63583279  143.82699585    0.73000002    1.75000000
   12.63666630  142.41799927    0.73000002    1.75000000
   12.64000034  147.27699280    0.73000002    1.75000000
   12.64305496  142.00000000    0.73000002    1.75000000
   12.64638901  140.34100342    0.73000002    1.75000000
   12.64944458  148.83900452    0.73000002    1.75000000
   12.65277767  153.73100281    0.73000002    1.75000000
   12.65611076  136.22399902    0.73000002    1.75000000
   12.65916634  137.03599548    0.73000002    1.75000000
   12.66555500  137.03599548    0.73000002    1.75000000
   12.66944504  138.89799500    0.73000002    1.75000000
   12.67277813  132.22900391    0.73000002    1.75000000
   12.67611122  141.49000549    0.73000002    1.75000000
   12.67916679  131.94999695    0.73000002    1.75000000
   12.68249989  132.53300476    0.73000002    1.75000000
   12.68583298  130.14199829    0.73000002    1.75000000
   12.68888855  129.58900452    0.73000002    1.75000000
   12.69222260  133.36999512    0.73000002    1.75000000
   12.69527817  133.37399292    0.73000002    1.75000000
   12.69861126  132.33099365    0.73000002    1.75000000
   12.70194435  141.58999634    0.73000002    1.75000000
   12.70249939  147.83799744    0.73000002    1.75000000
   12.70833302  147.83799744    0.73000002    1.75000000
   12.71249962  138.36399841    0.73000002    1.75000000
   12.71555519  129.77000427    0.73000002    1.75000000
   12.71888828  131.95700073    0.73000002    1.75000000
   12.72194386  129.87399292    0.73000002    1.75000000
   12.72527695  144.03399658    0.73000002    1.75000000
   12.72861099  134.74299622    0.73000002    1.75000000
   12.73166656  124.33399963    0.73000002    1.75000000
   12.73500061  128.08399963    0.73000002    1.75000000
   12.73583317  140.25199890    0.73000002    1.75000000
   12.73861122  131.86900330    0.73000002    1.75000000
   12.74194431  144.07699585    0.73000002    1.75000000
   12.74499989  133.42700195    0.73000002    1.75000000
   12.75111103  133.42700195    0.73000002    1.75000000
   12.75527763  143.85800171    0.73000002    1.75000000
   12.75833321  134.30599976    0.73000002    1.75000000
   12.76166630  132.58700562    0.73000002    1.75000000
   12.76500034  125.70500183    0.73000002    1.75000000
   12.76805496  121.98100281    0.73000002    1.75000000
   12.76916599  127.72799683    0.73000002    1.75000000
   12.77166653  127.57499695    0.73000002    1.75000000
   12.77499962  121.63700104    0.73000002    1.75000000
   12.77805519  127.94799805    0.73000002    1.75000000
   12.78138828  125.28800201    0.73000002    1.75000000
   12.78472233  119.67299652    0.73000002    1.75000000
   12.78777790  130.31300354    0.73000002    1.75000000
   12.79388905  130.31300354    0.73000002    1.75000000
   12.79805565  121.41500092    0.73000002    1.75000000
   12.80138874  124.84999847    0.73000002    1.75000000
   12.80249977  130.19799805    0.73000002    1.75000000
   12.80500031  130.00100708    0.73000002    1.75000000
   12.80833340  127.90499878    0.73000002    1.75000000
   12.81138897  141.73100281    0.73000002    1.75000000
   12.81472206  126.63999939    0.73000002    1.75000000
   12.81805515  128.36000061    0.73000002    1.75000000
   12.82138920  124.31099701    0.73000002    1.75000000
   12.82444477  135.31700134    0.73000002    1.75000000
   12.82777786  127.20099640    0.73000002    1.75000000
   12.83111095  128.07699585    0.73000002    1.75000000
   12.83666611  128.07699585    0.73000002    1.75000000
   12.84083271  120.79299927    0.73000002    1.75000000
   12.84416676  131.64799500    0.73000002    1.75000000
   12.84749985  129.21499634    0.73000002    1.75000000
   12.85055637  130.41400146    0.73000002    1.75000000
   12.85388947  123.69000244    0.73000002    1.75000000
   12.85694504  126.94499969    0.73000002    1.75000000
   12.86027813  130.49800110    0.73000002    1.75000000
   12.86361122  131.09899902    0.73000002    1.75000000
   12.86666679  139.83200073    0.73000002    1.75000000
   12.86916637  138.75500488    0.73000002    1.75000000
   12.87027836  134.88900757    0.73000002    1.75000000
   12.87361145  127.72299957    0.73000002    1.75000000
   12.87972260  127.72299957    0.73000002    1.75000000
   12.88388920  132.76699829    0.73000002    1.75000000
   12.88694477  123.99900055    0.73000002    1.75000000
   12.89027786  131.33900452    0.73000002    1.75000000
   12.89361095  129.13400269    0.73000002    1.75000000
   12.89666653  130.22700500    0.73000002    1.75000000
   12.89999962  129.65499878    0.73000002    1.75000000
   12.90249920  130.74099731    0.73000002    1.75000000
   12.90361118  126.31800079    0.73000002    1.75000000
   12.90694427  135.42500305    0.73000002    1.75000000
   12.90999985  131.75799561    0.73000002    1.75000000
   12.91333294  122.25299835    0.73000002    1.75000000
   12.91666698  128.63000488    0.73000002    1.75000000
   12.92250061  128.63000488    0.73000002    1.75000000
   12.92666721  125.44000244    0.73000002    1.75000000
   12.93000031  131.25700378    0.73000002    1.75000000
   12.93305588  121.02100372    0.73000002    1.75000000
   12.93611145  130.59500122    0.73000002    1.75000000
   12.93666649  129.59800720    0.73000002    1.75000000
   12.94000053  132.01100159    0.73000002    1.75000000
   12.94333363  124.14800262    0.73000002    1.75000000
   12.94638920  122.18000031    0.73000002    1.75000000
   12.94972229  119.44799805    0.73000002    1.75000000
   12.95305538  122.48699951    0.73000002    1.75000000
   12.95611095  128.39700317    0.73000002    1.75000000
   12.95944405  107.72399902    0.73000002    1.75000000
   12.96527767  107.72399902    0.73000002    1.75000000
   12.96944427  127.49900055    0.73000002    1.75000000
   12.97277737  121.82700348    0.73000002    1.75000000
   12.97583294  119.48200226    0.73000002    1.75000000
   12.97916603  119.43099976    0.73000002    1.75000000
   12.98249912  128.22999573    0.73000002    1.75000000
   12.98555565  129.41200256    0.73000002    1.75000000
   12.98888874  135.36199951    0.73000002    1.75000000
   12.99222279  127.07599640    0.73000002    1.75000000
   12.99527836  122.50299835    0.73000002    1.75000000
   12.99861145  119.28900146    0.73000002    1.75000000
   13.00166702  131.99099731    0.73000002    1.75000000
   13.00277805  122.34600067    0.73000002    1.75000000
   13.02333355  122.34600067    0.73000002    1.75000000
   13.02750015  118.34100342    0.73000002    1.75000000
   13.03055573  125.20999908    0.73000002    1.75000000
   13.03388977  131.11300659    0.73000002    1.75000000
   13.03611183  120.74400330    0.73000002    1.75000000
   13.03750038  118.68599701    0.73000002    1.75000000
   13.04083347  120.97399902    0.73000002    1.75000000
   13.04416752  130.61199951    0.73000002    1.75000000
   13.04722309  124.53900146    0.73000002    1.75000000
   13.05055618  125.74400330    0.73000002    1.75000000
   13.05388927  121.05000305    0.73000002    1.75000000
   13.05694485  122.09899902    0.73000002    1.75000000
   13.06027794  121.91699982    0.73000002    1.75000000
   13.06611156  121.91699982    0.73000002    1.75000000
   13.07027817  121.44200134    0.73000002    1.75000000
   13.07333374  120.95200348    0.73000002    1.75000000
   13.07666683  107.40899658    0.73000002    1.75000000
   13.07972240  127.44799805    0.73000002    1.75000000
   13.08305550  120.62500000    0.73000002    1.75000000
   13.08638859  122.81400299    0.73000002    1.75000000
   13.08944416  120.32700348    0.73000002    1.75000000
   13.09277725  122.58300018    0.73000002    1.75000000
   13.09611034  129.54100037    0.73000002    1.75000000
   13.09916592  126.20099640    0.73000002    1.75000000
   13.10249996  120.65200043    0.73000002    1.75000000
   13.10305595  127.04900360    0.73000002    1.75000000
   13.10888958  127.04900360    0.73000002    1.75000000
   13.11305618  117.62200165    0.73000002    1.75000000
   13.11611176  127.23899841    0.73000002    1.75000000
   13.11944485  119.58699799    0.73000002    1.75000000
   13.12277794  122.17500305    0.73000002    1.75000000
   13.12583351  121.10700226    0.73000002    1.75000000
   13.12916660  122.20800018    0.73000002    1.75000000
   13.13249969  113.91400146    0.73000002    1.75000000
   13.13555527  119.14600372    0.73000002    1.75000000
   13.13638878  113.93099976    0.73000002    1.75000000
   13.13916683  118.47699738    0.73000002    1.75000000
   13.14249992  122.03399658    0.73000002    1.75000000
   13.14583302  119.56400299    0.73000002    1.75000000
   13.15166664  119.56400299    0.73000002    1.75000000
   13.15583324  132.22000122    0.73000002    1.75000000
   13.15916634  124.82700348    0.73000002    1.75000000
   13.16222191  128.42300415    0.73000002    1.75000000
   13.16555500  126.21299744    0.73000002    1.75000000
   13.16888905  126.25599670    0.73000002    1.75000000
   13.16972256  127.04299927    0.73000002    1.75000000
   13.17222214  132.96800232    0.73000002    1.75000000
   13.17555618  128.99499512    0.73000002    1.75000000
   13.17888927  128.29800415    0.73000002    1.75000000
   13.18194485  121.89499664    0.73000002    1.75000000
   13.18527794  128.46899414    0.73000002    1.75000000
   13.18833351  125.78700256    0.73000002    1.75000000
   13.19444466  125.78700256    0.73000002    1.75000000
   13.19861126  123.58899689    0.73000002    1.75000000
   13.20194435  130.25599670    0.73000002    1.75000000
   13.20305538  118.75399780    0.73000002    1.75000000
   13.20555496  130.02799988    0.73000002    1.75000000
   13.20888901  122.46800232    0.73000002    1.75000000
   13.21222210  126.03700256    0.73000002    1.75000000
   13.21527767  127.55000305    0.73000002    1.75000000
   13.21861076  127.43499756    0.73000002    1.75000000
   13.22194386  120.78199768    0.73000002    1.75000000
   13.22499943  125.80799866    0.73000002    1.75000000
   13.22833252  124.94200134    0.73000002    1.75000000
   13.23138809  120.87799835    0.73000002    1.75000000
   13.23750019  120.87799835    0.73000002    1.75000000
   13.24166679  122.78299713    0.73000002    1.75000000
   13.24472237  126.35700226    0.73000002    1.75000000
   13.24805546  123.54100037    0.73000002    1.75000000
   13.25111103  125.75199890    0.73000002    1.75000000
   13.25444412  120.26000214    0.73000002    1.75000000
   13.25777817  124.47799683    0.73000002    1.75000000
   13.26083374  130.54100037    0.73000002    1.75000000
   13.26416683  133.19299316    0.73000002    1.75000000
   13.26749992  130.58000183    0.73000002    1.75000000
   13.26972198  127.67800140    0.73000002    1.75000000
   13.27083302  131.07200623    0.73000002    1.75000000
   13.27416611  130.37699890    0.73000002    1.75000000
   13.28027725  130.37699890    0.73000002    1.75000000
   13.28444481  128.92300415    0.73000002    1.75000000
   13.28777790  123.83499908    0.73000002    1.75000000
   13.29083347  133.93600464    0.73000002    1.75000000
   13.29416752  124.13099670    0.73000002    1.75000000
   13.29722309  125.26599884    0.73000002    1.75000000
   13.30055618  126.15499878    0.73000002    1.75000000
   13.30305576  118.51300049    0.73000002    1.75000000
   13.30416679  122.41200256    0.73000002    1.75000000
   13.30749989  124.76999664    0.73000002    1.75000000
   13.31083393  120.66600037    0.73000002    1.75000000
   13.31388950  125.20500183    0.73000002    1.75000000
   13.31722260  123.44400024    0.73000002    1.75000000
   13.32305527  123.44400024    0.73000002    1.75000000
   13.32722187  124.90399933    0.73000002    1.75000000
   13.33055592  123.34799957    0.73000002    1.75000000
   13.33361053  125.18199921    0.73000002    1.75000000
   13.33638859  121.05899811    0.73000002    1.75000000
   13.33722210  119.06199646    0.73000002    1.75000000
   13.34055519  121.19300079    0.73000002    1.75000000
   13.34388828  118.01000214    0.73000002    1.75000000
   13.34694386  124.43900299    0.73000002    1.75000000
   13.35027790  117.96199799    0.73000002    1.75000000
   13.35361195  123.77899933    0.73000002    1.75000000
   13.35666752  122.46800232    0.73000002    1.75000000
   13.36000061  122.13800049    0.73000002    1.75000000
   13.36611176  122.13800049    0.73000002    1.75000000
   13.36999989  122.28199768    0.73000002    1.75000000
   13.37333393  127.76300049    0.73000002    1.75000000
   13.37666702  126.15399933    0.73000002    1.75000000
   13.37972260  133.48399353    0.73000002    1.75000000
   13.38305569  128.10200500    0.73000002    1.75000000
   13.38638878  128.50300598    0.73000002    1.75000000
   13.38944435  123.81700134    0.73000002    1.75000000
   13.39194393   -1.00000000   -1.00000000   -1.00000000
   15.04777813   -1.00000000   -1.00000000   -1.00000000
   15.09722233  122.15699768    0.50000000    2.64000010
   15.10055637  133.06599426    0.50000000    2.64000010
   15.10388947  109.83699799    0.51999998    2.64000010
   15.10694504  106.29799652    0.51999998    2.64000010
   15.11027813  128.24400330    0.50000000    2.64000010
   15.11361122  119.05799866    0.41999999    2.64000010
   15.11750031  119.05799866    0.41999999    2.64000010
   15.12166691  112.89700317    0.41999999    2.64000010
   15.12500000  110.17400360    0.40000001    2.64000010
   15.12833309  122.06900024    0.38000000    2.64000010
   15.13055611  108.86100006    0.38000000    2.64000010
   15.13194466  124.11599731    0.36000001    2.64000010
   15.13500023  107.46800232    0.36000001    2.64000010
   15.13833332   97.65460205    0.38000000    2.64000010
   15.14166641  103.04000092    0.38000000    2.64000010
   15.14472198  107.80100250    0.38000000    2.64000010
   15.14805508   99.53479767    0.38000000    2.64000010
   15.15138817  103.00499725    0.40000001    2.64000010
   15.15444374  101.24700165    0.41999999    2.64000010
   15.16083336  101.24700165    0.38000000    2.64000010
   15.16499996  104.22899628    0.38000000    2.64000010
   15.26666641   -1.00000000   -1.00000000   -1.00000000
   15.41750050   -1.00000000   -1.00000000   -1.00000000
   15.53527832   -1.00000000   -1.00000000   -1.00000000
   15.56055546  234.85000610    0.30000001    2.66000009
   15.56361103  218.46800232    0.30000001    2.66000009
   15.56694412  205.38499451    0.30000001    2.66000009
   15.56999969  218.72999573    0.30000001    2.66000009
   15.57333374  222.25700378    0.28000000    2.67000008
   15.57666683  182.42500305    0.28000000    2.67000008
   15.58055592  182.42500305    0.28000000    2.66000009
   15.58472157  190.14700317    0.28000000    2.66000009
   15.58805561  193.54899597    0.30000001    2.66000009
   15.59138870  173.59700012    0.31999999    2.66000009
   15.59361076  189.36399841    0.31999999    2.66000009
   15.59499931  167.25700378    0.31999999    2.66000009
   15.59833336  182.58599854    0.31999999    2.66000009
   15.60138893  163.43400574    0.31999999    2.67000008
   15.60472298  171.53799438    0.31999999    2.67000008
   15.60805607  189.02900696    0.34000000    2.66000009
   15.61111164  171.24299622    0.36000001    2.66000009
   15.61444473  187.77499390    0.36000001    2.66000009
   15.61777782  160.77799988    0.38000000    2.66000009
   15.62361145  160.77799988    0.41999999    2.66000009
   15.62777805  174.54499817    0.44000000    2.66000009
   15.63111115  164.02900696    0.46000001    2.66000009
   15.63416672  178.97300720    0.46000001    2.66000009
   15.63749981  163.25399780    0.46000001    2.66000009
   15.64083290  156.63200378    0.46000001    2.66000009
   15.64388847  153.34300232    0.41999999    2.66000009
   15.64722252  140.00100708    0.38000000    2.66000009
   15.65055561  135.25500488    0.38000000    2.66000009
   15.65361118  143.92500305    0.34000000    2.66000009
   15.65694427  123.98000336    0.30000001    2.66000009
   15.66027737  142.14700317    0.30000001    2.66000009
   15.66083336  163.72399902    0.30000001    2.66000009
   15.66638851  163.72399902    0.31999999    2.67000008
   15.67055607  131.28199768    0.31999999    2.67000008
   15.67388916  150.52000427    0.31999999    2.66000009
   15.67722225  140.67199707    0.31999999    2.66000009
   15.68027782  127.68000031    0.31999999    2.64000010
   15.68361092  158.13600159    0.30000001    2.66000009
   15.68666649  129.51800537    0.30000001    2.67000008
   15.69000053  111.05599976    0.30000001    2.67000008
   15.69333363  122.71299744    0.31999999    2.66000009
   15.69416714  137.78799438    0.31999999    2.66000009
   15.69694424  116.31400299    0.31999999    2.66000009
   15.70027733  116.54699707    0.31999999    2.66000009
   15.70361137  128.98100281    0.31999999    2.67000008
   15.70916653  128.98100281    0.31999999    2.67000008
   15.71333313  119.86799622    0.34000000    2.66000009
   15.71666622  114.35199738    0.34000000    2.66000009
   15.71972179  117.61799622    0.34000000    2.66000009
   15.72305489  122.34999847    0.31999999    2.66000009
   15.72638798  127.18599701    0.34000000    2.66000009
   15.72722149  107.08499908    0.34000000    2.66000009
   15.72999954  122.18299866    0.31999999    2.67000008
   15.73333359  117.47799683    0.34000000    2.66000009
   15.73638916  123.49099731    0.34000000    2.66000009
   15.73972225  117.35399628    0.34000000    2.66000009
   15.74277782  132.79699707    0.31999999    2.66000009
   15.74611092  122.55300140    0.31999999    2.66000009
   15.75194454  122.55300140    0.34000000    2.66000009
   15.75611115  121.97899628    0.34000000    2.66000009
   15.75944424  131.77600098    0.34000000    2.66000009
   15.76111126  121.81700134    0.34000000    2.66000009
   15.76333332  129.92799377    0.34000000    2.66000009
   15.76666641  118.96099854    0.34000000    2.66000009
   15.76999950  122.83599854    0.31999999    2.67000008
   15.77305508  118.50499725    0.31999999    2.66000009
   15.77638817  116.08799744    0.30000001    2.66000009
   15.77944374  110.72799683    0.30000001    2.66000009
   15.78277779  114.30899811    0.30000001    2.67000008
   15.78611183  127.41100311    0.30000001    2.67000008
   15.78916740  109.41799927    0.30000001    2.67000008
   15.79500008  109.41799927    0.28000000    2.67000008
   15.79916668  111.90000153    0.28000000    2.67000008
   15.80222225  123.41300201    0.30000001    2.67000008
   15.80555534  115.60099792    0.30000001    2.67000008
   15.80861092  102.66000366    0.30000001    2.67000008
   15.81194496  103.75099945    0.30000001    2.67000008
   15.81527805  117.68599701    0.30000001    2.67000008
   15.81833363  109.27899933    0.30000001    2.67000008
   15.82166672  110.78299713    0.31999999    2.67000008
   15.82499981  104.05799866    0.31999999    2.67000008
   15.82722187  104.17199707    0.31999999    2.67000008
   15.82833290  117.05699921    0.34000000    2.67000008
   15.83166695  107.78199768    0.31999999    2.67000008
   15.83777714  107.78199768    0.31999999    2.66000009
   15.84194374  114.15000153    0.31999999    2.67000008
   15.84499931  118.24800110    0.31999999    2.67000008
   15.84833336  105.82099915    0.30000001    2.69000006
   15.85166740  105.44200134    0.30000001    2.69000006
   15.85472298  125.45200348    0.31999999    2.66000009
   15.85805607  112.16999817    0.31999999    2.66000009
   15.86055565  112.02700043    0.31999999    2.66000009
   15.86166668  124.94000244    0.31999999    2.66000009
   15.86500072  108.10099792    0.31999999    2.66000009
   15.86805534  120.93900299    0.31999999    2.66000009
   15.87138939  114.22799683    0.31999999    2.66000009
   15.87472248  109.89600372    0.31999999    2.67000008
   15.88055611  109.89600372    0.30000001    2.66000009
   15.88472176  113.73200226    0.30000001    2.67000008
   15.88805580  115.47399902    0.30000001    2.67000008
   15.89111137  117.78299713    0.30000001    2.67000008
   15.89388847  107.61900330    0.30000001    2.66000009
   15.89472198  109.71700287    0.30000001    2.66000009
   15.89805508  105.61199951    0.28000000    2.66000009
   15.90111065  115.11299896    0.28000000    2.67000008
   15.90444374  113.75299835    0.28000000    2.67000008
   15.90777779  106.52600098    0.28000000    2.67000008
   15.91083336  108.46900177    0.28000000    2.67000008
   15.91416645  106.59899902    0.28000000    2.67000008
   15.91750050  112.44000244    0.28000000    2.67000008
   15.92333412  112.44000244    0.30000001    2.66000009
   15.92750072  118.97399902    0.28000000    2.67000008
   15.93083382  113.58100128    0.30000001    2.66000009
   15.93388939  110.84600067    0.28000000    2.67000008
   15.93722248  107.35500336    0.30000001    2.67000008
   15.94055557  104.28700256    0.30000001    2.67000008
   15.94361115  111.10700226    0.30000001    2.67000008
   15.94694424  115.31099701    0.30000001    2.67000008
   15.95027733  107.68900299    0.30000001    2.67000008
   15.95333290  109.19499969    0.30000001    2.67000008
   15.95666695  111.01499939    0.30000001    2.66000009
   15.95972157  108.17600250    0.30000001    2.67000008
   15.96055508  107.86799622    0.30000001    2.67000008
   15.96638870  107.86799622    0.30000001    2.67000008
   15.97055531  114.96900177    0.28000000    2.67000008
   15.97361088  109.11599731    0.30000001    2.66000009
   15.97694397  109.45200348    0.30000001    2.66000009
   15.97999954  106.01699829    0.30000001    2.67000008
   15.98333359  108.57800293    0.28000000    2.67000008
   15.98666668  107.63500214    0.28000000    2.67000008
   15.98972225  104.09700012    0.28000000    2.66000009
   15.99305534  105.67800140    0.30000001    2.67000008
   15.99388885  108.03600311    0.30000001    2.67000008
   15.99666691  108.09799957    0.30000001    2.67000008
   16.00000000  112.14299774    0.28000000    2.67000008
   16.00333405  109.55999756    0.28000000    2.67000008
   16.00916672  109.55999756    0.28000000    2.67000008
   16.01333427  105.12799835    0.30000001    2.66000009
   16.01638794  105.95200348    0.31999999    2.66000009
   16.02000046  117.05599976    0.34000000    2.66000009
   16.02333260  102.64800262    0.31999999    2.67000008
   16.02638817  116.62799835    0.34000000    2.67000008
   16.02722168  108.33899689    0.34000000    2.67000008
   16.03000069  107.51799774    0.34000000    2.66000009
   16.03333282  108.31400299    0.31999999    2.67000008
   16.03638840  112.01200104    0.31999999    2.66000009
   16.03972244  104.36000061    0.31999999    2.66000009
   16.04305458  109.44200134    0.31999999    2.66000009
   16.04638863  110.20300293    0.30000001    2.67000008
   16.05194283  110.20300293    0.31999999    2.67000008
   16.05611038  112.48300171    0.30000001    2.67000008
   16.05944443  118.18699646    0.30000001    2.67000008
   16.06055450  107.63600159    0.30000001    2.67000008
   16.06277657  106.67700195    0.30000001    2.66000009
   16.06611061  112.20899963    0.30000001    2.67000008
   16.06916809  110.33599854    0.30000001    2.67000008
   16.07250023  113.61499786    0.30000001    2.67000008
   16.07583427  108.75399780    0.30000001    2.67000008
   16.07916832  112.19899750    0.30000001    2.67000008
   16.08222389  106.09999847    0.30000001    2.67000008
   16.08555603  108.22200012    0.30000001    2.67000008
   16.08861160  103.10099792    0.30000001    2.67000008
   16.09472275  103.10099792    0.30000001    2.67000008
   16.09889030  115.80899811    0.30000001    2.66000009
   16.10222244  110.16600037    0.30000001    2.66000009
   16.10555649  104.17199707    0.30000001    2.66000009
   16.10861206  107.22200012    0.30000001    2.66000009
   16.11194420  106.29199982    0.30000001    2.67000008
   16.11499977  121.19400024    0.30000001    2.67000008
   16.11833382  115.01899719    0.30000001    2.67000008
   16.12166595  104.64700317    0.30000001    2.67000008
   16.12472153  111.24099731    0.30000001    2.67000008
   16.12750053  108.90599823    0.30000001    2.67000008
   16.12833405  108.93000031    0.30000001    2.67000008
   16.13166618  107.33799744    0.30000001    2.67000008
   16.13777733  107.33799744    0.30000001    2.66000009
   16.14194489  111.21700287    0.31999999    2.67000008
   16.14500046  110.14099884    0.31999999    2.67000008
   16.14833260  101.10199738    0.31999999    2.67000008
   16.15138817  110.31900024    0.31999999    2.69000006
   16.15472221  117.42199707    0.31999999    2.67000008
   16.15805435  108.77400208    0.31999999    2.67000008
   16.16083336  103.47100067    0.31999999    2.66000009
   16.16138840  101.94799805    0.31999999    2.66000009
   16.16472244  102.17900085    0.31999999    2.66000009
   16.16777802  106.40799713    0.34000000    2.67000008
   16.17111015  101.91000366    0.34000000    2.67000008
   16.17444420  106.11199951    0.34000000    2.67000008
   16.18055534  106.11199951    0.31999999    2.66000009
   16.18472099   97.76029968    0.31999999    2.67000008
   16.18777657  110.67800140    0.31999999    2.67000008
   16.19111061  104.67500305    0.31999999    2.67000008
   16.19416618  112.00099945    0.34000000    2.67000008
   16.19472122  105.23699951    0.34000000    2.67000008
   16.19805527  106.30400085    0.31999999    2.67000008
   16.20111275  106.20500183    0.31999999    2.67000008
   16.20444489  105.95200348    0.31999999    2.67000008
   16.20777893  105.28500366    0.31999999    2.67000008
   16.21083450  110.06400299    0.30000001    2.67000008
   16.21416664  118.33000183    0.30000001    2.67000008
   16.21750069  101.71099854    0.30000001    2.67000008
   16.22333336  101.71099854    0.30000001    2.69000006
   16.22750092  113.52999878    0.28000000    2.67000008
   16.23083305  110.94100189    0.28000000    2.67000008
   16.23388863  127.91400146    0.28000000    2.67000008
   16.23722267  109.63899994    0.28000000    2.69000006
   16.24055672  106.15399933    0.28000000    2.67000008
   16.24361229  109.43800354    0.28000000    2.67000008
   16.24694443  119.01799774    0.28000000    2.67000008
   16.25027847  104.48799896    0.28000000    2.67000008
   16.25333405  102.35900116    0.28000000    2.67000008
   16.25666618   98.84279633    0.28000000    2.67000008
   16.25972176  114.53399658    0.28000000    2.67000008
   16.26083374   98.32070160    0.28000000    2.67000008
   16.26611137   98.32070160    0.30000001    2.67000008
   16.27027702  113.27200317    0.30000001    2.67000008
   16.27361107  106.28800201    0.28000000    2.67000008
   16.27694511  106.36199951    0.30000001    2.67000008
   16.28000069  116.80500031    0.30000001    2.67000008
   16.28333282  115.51599884    0.30000001    2.67000008
   16.28638840  110.05799866    0.30000001    2.67000008
   16.28972244  109.70600128    0.30000001    2.67000008
   16.29305458  108.03700256    0.30000001    2.66000009
   16.29416656  112.57199860    0.30000001    2.66000009
   16.29638863  109.87500000    0.30000001    2.67000008
   16.29972076  109.78900146    0.31999999    2.66000009
   16.30305481  102.31099701    0.31999999    2.66000009
   16.30916595  102.31099701    0.31999999    2.67000008
   16.31333351  102.91899872    0.31999999    2.67000008
   16.31638718  107.55000305    0.31999999    2.67000008
   16.31972313  106.15599823    0.34000000    2.67000008
   16.32277870  114.49099731    0.31999999    2.67000008
   16.32611275  104.46600342    0.34000000    2.67000008
   16.32750130  118.17500305    0.34000000    2.67000008
   16.32972336  108.48300171    0.31999999    2.67000008
   16.33305550  108.35199738    0.34000000    2.66000009
   16.33638954  112.77100372    0.31999999    2.67000008
   16.33944511  116.93000031    0.31999999    2.66000009
   16.34277916  115.79199982    0.31999999    2.66000009
   16.34611130  112.32599640    0.31999999    2.67000008
   16.35194397  112.32599640    0.36000001    2.67000008
   16.35611153  106.61199951    0.36000001    2.66000009
   16.35916710  104.50399780    0.36000001    2.66000009
   16.36083412  101.71700287    0.36000001    2.67000008
   16.36277771  105.67400360    0.40000001    2.67000008
   16.36611176  105.09600067    0.40000001    2.67000008
   16.36944389  100.34100342    0.40000001    2.67000008
   16.37249947   98.54810333    0.44000000    2.66000009
   16.37583351  100.87799835    0.47999999    2.66000009
   16.37888908  105.79399872    0.44000000    2.67000008
   16.38222313  107.25099945    0.38000000    2.67000008
   16.38555527  100.33000183    0.36000001    2.67000008
   16.38861084  108.80400085    0.36000001    2.67000008
   16.39472198  108.80400085    0.38000000    2.67000008
   16.39888954  104.17400360    0.38000000    2.66000009
   16.40222168  109.08200073    0.36000001    2.67000008
   16.40527725  108.82800293    0.36000001    2.67000008
   16.40861130  107.58799744    0.36000001    2.67000008
   16.41166687  107.83499908    0.34000000    2.67000008
   16.41499901  107.16400146    0.34000000    2.67000008
   16.41833305  103.03900146    0.34000000    2.67000008
   16.42138863  108.77600098    0.34000000    2.69000006
   16.42472076  113.47299957    0.34000000    2.67000008
   16.42749977  107.07099915    0.34000000    2.67000008
   16.42833328  107.96600342    0.34000000    2.67000008
   16.43166542  116.00900269    0.36000001    2.67000008
   16.43750000  116.00900269    0.36000001    2.67000008
   16.44166565  126.60299683    0.36000001    2.67000008
   16.44499969  104.46600342    0.36000001    2.67000008
   16.44833183  121.19499969    0.38000000    2.67000008
   16.45138931  134.93699646    0.38000000    2.67000008
   16.45472336  109.22899628    0.38000000    2.67000008
   16.45777893  104.81099701    0.36000001    2.67000008
   16.46083450  104.54499817    0.40000001    2.67000008
   16.46138954  116.53399658    0.40000001    2.67000008
   16.46472359  116.37000275    0.44000000    2.67000008
   16.46805573  132.18400574    0.44000000    2.67000008
   16.47111130  103.99800110    0.44000000    2.67000008
   16.47444534  113.41100311    0.44000000    2.67000008
   16.48055649  113.41100311    0.40000001    2.67000008
   16.48472214  115.49700165    0.41999999    2.67000008
   16.48777771  117.58200073    0.41999999    2.67000008
   16.49111176  103.29100037    0.44000000    2.66000009
   16.49416733  116.03900146    0.46000001    2.67000008
   16.49444389  119.43099976    0.46000001    2.67000008
   16.49805641  105.95200348    0.44000000    2.67000008
   16.50111198  105.87799835    0.46000001    2.66000009
   16.50444412  105.16000366    0.46000001    2.66000009
   16.50749969  109.15299988    0.44000000    2.67000008
   16.51083374  104.99400330    0.41999999    2.66000009
   16.51416588  112.36000061    0.40000001    2.67000008
   16.51722145  102.75499725    0.36000001    2.67000008
   16.52333260  102.75499725    0.36000001    2.67000008
   16.52750015  115.28399658    0.36000001    2.67000008
   16.52777672  109.47200012    0.36000001    2.67000008
   16.53111076  103.75900269    0.34000000    2.67000008
   16.53444481  105.13700104    0.34000000    2.67000008
   16.53750038  115.83000183    0.30000001    2.67000008
   16.54083252  112.79000092    0.25999999    2.67000008
   16.54388809  102.84700012    0.28000000    2.66000009
   16.54722214  108.40200043    0.28000000    2.67000008
   16.55055428  115.08899689    0.28000000    2.67000008
   16.55360985  111.37599945    0.30000001    2.69000006
   16.55694389  111.91200256    0.30000001    2.69000006
   16.56027794  121.80799866    0.28000000    2.67000008
   16.56083298  117.32099915    0.28000000    2.67000008
   16.58139038  117.32099915    0.28000000    2.67000008
   16.58555603  114.92700195    0.28000000    2.67000008
   16.58861160  119.00000000    0.30000001    2.67000008
   16.59194565  112.80200195    0.30000001    2.67000008
   16.59416771  109.47100067    0.30000001    2.67000008
   16.59583473  114.59899902    0.30000001    2.67000008
   16.59889030  103.66000366    0.30000001    2.67000008
   16.60222244  110.71499634    0.30000001    2.67000008
   16.60555649  109.64900208    0.30000001    2.67000008
   16.60861206  111.30500031    0.30000001    2.67000008
   16.61194420  116.53299713    0.30000001    2.67000008
   16.61499977  110.37500000    0.30000001    2.67000008
   16.61833382  120.83200073    0.30000001    2.67000008
   16.62416649  120.83200073    0.31999999    2.67000008
   16.62833405  125.14199829    0.31999999    2.67000008
   16.63138962  119.31600189    0.31999999    2.66000009
   16.63472176  128.41299438    0.31999999    2.67000008
   16.63805580  132.04800415    0.31999999    2.67000008
   16.64111137  127.05300140    0.31999999    2.66000009
   16.64444351  132.74800110    0.31999999    2.66000009
   16.64749908  133.00199890    0.34000000    2.67000008
   16.65083313  144.29100037    0.34000000    2.67000008
   16.65416718  139.65299988    0.34000000    2.67000008
   16.65722275  144.59800720    0.34000000    2.67000008
   16.66055489  150.35299683    0.36000001    2.66000009
   16.66110992  147.51499939    0.36000001    2.66000009
   16.66694450  147.51499939    0.38000000    2.67000008
   16.67111015  165.51899719    0.38000000    2.67000008
   16.67416573  161.87199402    0.44000000    2.67000008
   16.67749977  158.73300171    0.41999999    2.67000008
   16.68083191  161.40100098    0.38000000    2.67000008
   16.68388748  160.50799561    0.40000001    2.67000008
   16.68722153  168.83900452    0.40000001    2.67000008
   16.69055557  154.77699280    0.40000001    2.67000008
   16.69361115  159.36999512    0.41999999    2.67000008
   16.69444275  177.57099915    0.41999999    2.67000008
   16.69722176  171.12500000    0.44000000    2.67000008
   16.70055580  169.30900574    0.44000000    2.69000006
   16.70388985  161.41900635    0.44000000    2.67000008
   16.70972252  161.41900635    0.46000001    2.66000009
   16.71389008  156.69299316    0.47999999    2.67000008
   16.71722221  164.36300659    0.50000000    2.67000008
   16.72027779  171.10899353    0.51999998    2.67000008
   16.72361183  151.96800232    0.51999998    2.67000008
   16.72694588  153.41099548    0.51999998    2.67000008
   16.72777748  157.42500305    0.50000000    2.67000008
   16.73027802  146.27699280    0.50000000    2.67000008
   16.73361206  148.20399475    0.47999999    2.67000008
   16.73694420  141.05000305    0.46000001    2.67000008
   16.73999977  147.88699341    0.44000000    2.66000009
   16.74333382  141.37500000    0.41999999    2.67000008
   16.74666786  148.46699524    0.41999999    2.67000008
   16.75277710  148.46699524    0.40000001    2.67000008
   16.75666618  142.81599426    0.41999999    2.67000008
   16.76000023  133.03999329    0.41999999    2.67000008
   16.76111031  131.33099365    0.41999999    2.67000008
   16.76361084  134.60200500    0.41999999    2.67000008
   16.76694489  132.64100647    0.41999999    2.67000008
   16.77027702  137.77200317    0.41999999    2.67000008
   16.77333260  118.48400116    0.41999999    2.67000008
   16.77666664  131.22099304    0.40000001    2.67000008
   16.78000069  135.85800171    0.38000000    2.67000008
   16.78305435  146.58200073    0.36000001    2.67000008
   16.78638840  161.54100037    0.36000001    2.67000008
   16.78944397  134.02900696    0.30000001    2.67000008
   16.79555511  134.02900696    0.30000001    2.67000008
   16.79972076  133.70300293    0.30000001    2.67000008
   16.80277634  134.13999939    0.30000001    2.67000008
   16.80611038  127.89700317    0.30000001    2.67000008
   16.80944443  123.76799774    0.30000001    2.67000008
   16.81250000  137.89700317    0.30000001    2.67000008
   16.81583214  121.42099762    0.30000001    2.67000008
   16.81888962  126.34799957    0.30000001    2.67000008
   16.82222366  128.41600037    0.31999999    2.67000008
   16.82555580  124.64900208    0.31999999    2.67000008
   16.82777786  122.54000092    0.30000001    2.67000008
   16.82888985  127.27799988    0.30000001    2.67000008
   16.83222389  117.12000275    0.31999999    2.67000008
   16.83833313  117.12000275    0.31999999    2.67000008
   16.84250069  116.81199646    0.30000001    2.67000008
   16.84583473  124.07800293    0.30000001    2.67000008
   16.84889030  119.22200012    0.30000001    2.67000008
   16.85222244  124.78399658    0.30000001    2.67000008
   16.85527802  119.76200104    0.30000001    2.67000008
   16.85861206  121.96199799    0.30000001    2.66000009
   16.86111069  109.06300354    0.30000001    2.66000009
   16.86222267  123.71900177    0.30000001    2.66000009
   16.86555672  119.02600098    0.31999999    2.67000008
   16.86888885  116.26699829    0.30000001    2.67000008
   16.87194443  128.46600342    0.31999999    2.67000008
   16.87527847  109.19100189    0.30000001    2.67000008
   16.88111115  109.19100189    0.30000001    2.67000008
   16.88527679  119.14700317    0.28000000    2.67000008
   16.88861084  118.47899628    0.28000000    2.69000006
   16.89166641  112.76100159    0.28000000    2.67000008
   16.89444351  115.03099823    0.28000000    2.67000008
   16.89527702  131.29600525    0.28000000    2.67000008
   16.89861107  120.70999908    0.28000000    2.67000008
   16.90194321  122.62500000    0.25999999    2.67000008
   16.90499878  103.58100128    0.25999999    2.67000008
   16.90833282  118.95400238    0.25999999    2.67000008
   16.91166687  113.03800201    0.25999999    2.67000008
   16.91472244  120.94100189    0.25999999    2.67000008
   16.91805458  113.54399872    0.25999999    2.67000008
   16.92416573  113.54399872    0.28000000    2.67000008
   16.92805481  105.18399811    0.28000000    2.67000008
   16.93138885  105.47699738    0.28000000    2.67000008
   16.93472099  106.96800232    0.28000000    2.67000008
   16.93777657  115.95099640    0.28000000    2.67000008
   16.94111061  122.01200104    0.28000000    2.67000008
   16.94444275  108.88400269    0.28000000    2.67000008
   16.94749832  113.00499725    0.28000000    2.67000008
   16.95083427  110.59100342    0.28000000    2.67000008
   16.95388985  123.49500275    0.30000001    2.67000008
   16.95722389  115.36799622    0.30000001    2.67000008
   16.96055603  113.51000214    0.30000001    2.67000008
   16.96111107  113.00900269    0.30000001    2.67000008
   16.96694565  113.00900269    0.31999999    2.67000008
   16.97111130  167.14100647    0.31999999    2.67000008
   16.97416687  175.47700500    0.31999999    2.67000008
   16.97750092  162.83999634    0.31999999    2.69000006
   16.98055649  164.82699585    0.34000000    2.67000008
   16.98388863  150.50900269    0.36000001    2.67000008
   16.98722267  170.94299316    0.40000001    2.67000008
   16.99027824  153.52499390    0.41999999    2.67000008
   16.99361229  165.16700745    0.41999999    2.67000008
   16.99444389  154.76199341    0.41999999    2.67000008
   16.99722290  164.15299988    0.41999999    2.67000008
   17.00027847  140.62500000    0.41999999    2.67000008
   17.00361061  146.14500427    0.41999999    2.67000008
   17.00972176  146.14500427    0.41999999    2.67000008
   17.01388931  130.18899536    0.41999999    2.66000009
   17.01694489  149.75100708    0.41999999    2.66000009
   17.02027702  100.06700134    0.40000001    2.66000009
   17.02361107  146.59300232    0.40000001    2.67000008
   17.02666664  154.53599548    0.40000001    2.66000009
   17.02777672  140.85699463    0.40000001    2.66000009
   17.03027725  157.45300293    0.38000000    2.66000009
   17.03361130  148.48100281    0.38000000    2.67000008
   17.03694344  161.27299500    0.38000000    2.66000009
   17.03999901  146.59100342    0.38000000    2.66000009
   17.04333305  158.39399719    0.38000000    2.67000008
   17.04666710  149.44999695    0.36000001    2.67000008
   17.05249977  149.44999695    0.31999999    2.67000008
   17.05666542  138.97999573    0.30000001    2.67000008
   17.05999947  143.16999817    0.30000001    2.67000008
   17.06110954  144.86599731    0.28000000    2.69000006
   17.06333351  145.54400635    0.28000000    2.69000006
   17.06666756  139.11500549    0.30000001    2.67000008
   17.07000160  135.30700684    0.30000001    2.67000008
   17.07305717  139.17500305    0.31999999    2.67000008
   17.07638931  150.45199585    0.31999999    2.67000008
   17.07972336  142.01199341    0.31999999    2.67000008
   17.08277893  144.27200317    0.31999999    2.67000008
   17.08611107  141.75399780    0.34000000    2.67000008
   17.08916664  145.78100586    0.36000001    2.67000008
   17.09555626  145.78100586    0.36000001    2.67000008
   17.09972191  155.72099304    0.36000001    2.67000008
   17.10277748  146.95599365    0.38000000    2.67000008
   17.10611153  153.46600342    0.38000000    2.66000009
   17.10916710  160.84300232    0.38000000    2.66000009
   17.11250114  153.97200012    0.40000001    2.66000009
   17.11583328  157.55499268    0.40000001    2.67000008
   17.11888885  152.61799622    0.40000001    2.66000009
   17.12222290  155.37500000    0.40000001    2.66000009
   17.12527847  162.91600037    0.40000001    2.66000009
   17.12777710  154.81500244    0.40000001    2.66000009
   17.12888908  153.20100403    0.40000001    2.67000008
   17.13222313  154.46499634    0.41999999    2.66000009
   17.13833237  154.46499634    0.41999999    2.67000008
   17.14249992  150.82600403    0.40000001    2.67000008
   17.14555550  142.33099365    0.46000001    2.66000009
   17.14888954  153.26400757    0.40000001    2.67000008
   17.15194321  150.90800476    0.36000001    2.66000009
   17.15527725  153.13800049    0.36000001    2.66000009
   17.15861130  163.81199646    0.36000001    2.67000008
   17.16110992  148.22999573    0.40000001    2.67000008
   17.16222191  155.85299683    0.40000001    2.67000008
   17.16527748  148.66799927    0.47999999    2.67000008
   17.16860962  160.24200439    0.50000000    2.66000009
   17.17166519  154.18400574    0.50000000    2.66000009
   17.17499924  157.95199585    0.51999998    2.66000009
   17.18111038  157.95199585    0.51999998    2.67000008
   17.18527603  152.76800537    0.51999998    2.67000008
   17.18833160  142.18800354    0.47999999    2.69000006
   17.19166565  132.20199585    0.50000000    2.67000008
   17.19444275  129.13200378    0.50000000    2.67000008
   17.19527626  141.13299561    0.51999998    2.67000008
   17.19861031  140.76199341    0.50000000    2.67000008
   17.20194435  138.30599976    0.50000000    2.67000008
   17.20499992  148.75399780    0.50000000    2.67000008
   17.20833397  144.75999451    0.50000000    2.67000008
   17.21166801  118.78500366    0.46000001    2.67000008
   17.21472359  137.97200012    0.41999999    2.67000008
   17.21805573  141.72799683    0.44000000    2.67000008
   17.22389030  141.72799683    0.41999999    2.66000009
   17.22805595  144.64100647    0.44000000    2.66000009
   17.23139000  132.95599365    0.46000001    2.67000008
   17.23444557  142.77299500    0.46000001    2.67000008
   17.23777771  130.36500549    0.46000001    2.67000008
   17.24111176  134.28100586    0.46000001    2.67000008
   17.24416733  132.83099365    0.46000001    2.67000008
   17.24749947  117.19200134    0.46000001    2.67000008
   17.25055504  125.73999786    0.41999999    2.67000008
   17.25388908  117.57099915    0.41999999    2.66000009
   17.25722313  128.23199463    0.40000001    2.66000009
   17.26027870  119.61100006    0.40000001    2.67000008
   17.26111031  122.69400024    0.40000001    2.67000008
   17.26694489  122.69400024    0.36000001    2.67000008
   17.27083397  107.64399719    0.34000000    2.67000008
   17.27416611  130.72399902    0.36000001    2.67000008
   17.27750015  129.36000061    0.36000001    2.66000009
   17.28055573  123.73899841    0.36000001    2.66000009
   17.28388786  128.04100037    0.38000000    2.67000008
   17.28722191  117.09300232    0.36000001    2.66000009
   17.29027748  114.50099945    0.36000001    2.66000009
   17.29361153  140.40600586    0.36000001    2.67000008
   17.29444313  130.01300049    0.36000001    2.67000008
   17.29722214  119.16100311    0.34000000    2.66000009
   17.30027771  123.83200073    0.34000000    2.67000008
   17.30360985  114.16999817    0.34000000    2.67000008
   17.30972099  114.16999817    0.34000000    2.67000008
   17.31388855  131.04400635    0.36000001    2.67000008
   17.31694603  128.62800598    0.34000000    2.67000008
   17.32027817  124.20400238    0.36000001    2.67000008
   17.32333374  144.13600159    0.34000000    2.66000009
   17.32694626  130.77699280    0.36000001    2.66000009
   17.32777786  114.58699799    0.36000001    2.66000009
   17.33055687  130.98100281    0.34000000    2.66000009
   17.33361244  127.16799927    0.34000000    2.67000008
   17.33694458  120.53700256    0.34000000    2.67000008
   17.34027863  130.75199890    0.31999999    2.67000008
   17.34333420  110.89600372    0.31999999    2.67000008
   17.34666824  127.45700073    0.31999999    2.67000008
   17.35250092  127.45700073    0.31999999    2.67000008
   17.35666656  115.42500305    0.31999999    2.67000008
   17.35972214  119.14800262    0.34000000    2.67000008
   17.36111069  115.96199799    0.34000000    2.67000008
   17.36361122  115.08699799    0.34000000    2.66000009
   17.36666679  124.94699860    0.36000001    2.66000009
   17.37000084  116.87599945    0.36000001    2.66000009
   17.37305641  109.74400330    0.36000001    2.66000009
   17.37638855  115.96299744    0.34000000    2.67000008
   17.37972260  126.17800140    0.34000000    2.66000009
   17.38277817  120.77100372    0.34000000    2.66000009
   17.38611031  118.32299805    0.31999999    2.67000008
   17.38944435  122.28500366    0.31999999    2.66000009
   17.39527702  122.28500366    0.30000001    2.67000008
   17.39944458  109.92700195    0.31999999    2.67000008
   17.40277672  117.32399750    0.30000001    2.66000009
   17.40583229  130.56799316    0.31999999    2.67000008
   17.40916634  119.21199799    0.31999999    2.67000008
   17.41250038  110.52799988    0.31999999    2.67000008
   17.41555595  126.12899780    0.31999999    2.67000008
   17.41888809  123.00900269    0.31999999    2.67000008
   17.42194366  122.39700317    0.31999999    2.66000009
   17.42527771  116.56600189    0.31999999    2.66000009
   17.42777634  127.40100098    0.31999999    2.67000008
   17.42888832  124.04900360    0.31999999    2.67000008
   17.43194389  121.24199677    0.31999999    2.66000009
   17.43805504  121.24199677    0.31999999    2.66000009
   17.44222069  117.50700378    0.31999999    2.67000008
   17.44555473  128.41499329    0.31999999    2.67000008
   17.44888878  109.14600372    0.31999999    2.66000009
   17.45222282  114.21600342    0.31999999    2.66000009
   17.45527840  113.85399628    0.31999999    2.66000009
   17.45861244  121.36599731    0.31999999    2.67000008
   17.46111107  110.91400146    0.31999999    2.66000009
   17.46222305  122.51599884    0.31999999    2.66000009
   17.46527863  118.88899994    0.30000001    2.66000009
   17.46861076  110.36499786    0.31999999    2.66000009
   17.47166634  120.63899994    0.30000001    2.67000008
   17.47500038  117.97599792    0.31999999    2.67000008
   17.48111153  117.97599792    0.31999999    2.66000009
   17.48527718  112.12599945    0.34000000    2.67000008
   17.48833275  110.76999664    0.34000000    2.67000008
   17.49166679  110.04199982    0.36000001    2.66000009
   17.49444389  110.97799683    0.34000000    2.66000009
   17.49527740  117.29000092    0.34000000    2.66000009
   17.49833298  114.85199738    0.36000001    2.66000009
   17.50166702  113.60299683    0.36000001    2.66000009
   17.50472260  114.92900085    0.36000001    2.66000009
   17.50833321  108.49500275    0.36000001    2.66000009
   17.51138878  122.32099915    0.38000000    2.67000008
   17.51472282  117.90100098    0.38000000    2.67000008
   17.51777840  115.13999939    0.38000000    2.66000009
   17.52388954  115.13999939    0.40000001    2.66000009
   17.52805519  118.31900024    0.38000000    2.66000009
   17.53111076  116.08999634    0.34000000    2.66000009
   17.53444481  109.25599670    0.34000000    2.66000009
   17.53777695  120.64399719    0.34000000    2.66000009
   17.54083252  115.06900024    0.34000000    2.66000009
   17.54416656  111.72599792    0.34000000    2.66000009
   17.54749870  116.28199768    0.36000001    2.67000008
   17.55055428  115.43000031    0.36000001    2.66000009
   17.55388832  122.40000153    0.34000000    2.66000009
   17.55722237  108.56099701    0.34000000    2.66000009
   17.56027794  110.10299683    0.34000000    2.66000009
   17.56110954  127.71900177    0.34000000    2.66000009
   17.56666756  127.71900177    0.31999999    2.66000009
   17.57083511  124.91699982    0.31999999    2.66000009
   17.57416725  116.91799927    0.31999999    2.66000009
   17.57722282  114.40200043    0.34000000    2.67000008
   17.59472275  107.62200165    0.34000000    2.66000009
   17.59722328  108.38099670    0.34000000    2.66000009
   17.60055542  111.52600098    0.36000001    2.66000009
   17.60361099  116.02799988    0.36000001    2.67000008
   17.60972214  116.02799988    0.36000001    2.66000009
   17.61388969  109.32800293    0.36000001    2.67000008
   17.61694527  116.23400116    0.34000000    2.66000009
   17.62027740  103.52700043    0.34000000    2.66000009
   17.62361145  110.30699921    0.31999999    2.66000009
   17.62666702  110.04199982    0.30000001    2.66000009
   17.62805557  110.53399658    0.31999999    2.66000009
   17.63055611  111.19400024    0.31999999    2.66000009
   17.63388824  111.03600311    0.31999999    2.66000009
   17.63694382  112.89499664    0.30000001    2.66000009
   17.64027786  115.91500092    0.31999999    2.67000008
   17.64333344  112.94699860    0.31999999    2.67000008
   17.64666748  114.12400055    0.31999999    2.66000009
   17.65250015  114.12400055    0.31999999    2.66000009
   17.65666580  112.82399750    0.34000000    2.67000008
   17.65999985  114.53700256    0.31999999    2.67000008
   17.66138840  120.42099762    0.31999999    2.67000008
   17.66361046  116.30400085    0.34000000    2.67000008
   17.66694450  121.91200256    0.31999999    2.66000009
   17.67000008  113.21399689    0.31999999    2.66000009
   17.67333221  110.48999786    0.31999999    2.66000009
   17.67638779  110.65100098    0.34000000    2.66000009
   17.67972183  116.10500336    0.34000000    2.66000009
   17.68305397  117.18199921    0.36000001    2.66000009
   17.68610954  113.21700287    0.36000001    2.66000009
   17.68944359  117.31800079    0.36000001    2.66000009
   17.69527626  117.31800079    0.34000000    2.66000009
   17.69944382  112.21600342    0.31999999    2.66000009
   17.70277786  110.65000153    0.31999999    2.66000009
   17.70611191  111.31700134    0.31999999    2.66000009
   17.70916748  115.68199921    0.31999999    2.66000009
   17.71250153  112.01399994    0.31999999    2.66000009
   17.71555710  106.19100189    0.31999999    2.66000009
   17.71888924  114.02700043    0.31999999    2.66000009
   17.72222328  114.47499847    0.31999999    2.66000009
   17.72527885  112.50299835    0.31999999    2.66000009
   17.72805595  122.18399811    0.31999999    2.66000009
   17.72888947  127.92500305    0.31999999    2.66000009
   17.73222351  113.02899933    0.31999999    2.66000009
   17.73833275  113.02899933    0.31999999    2.66000009
   17.74250031  114.35700226    0.31999999    2.66000009
   17.74555588  110.63300323    0.31999999    2.66000009
   17.74888992  111.95500183    0.31999999    2.66000009
   17.75194359  110.30200195    0.31999999    2.66000009
   17.75527763  115.43900299    0.31999999    2.67000008
   17.75861168  112.55699921    0.31999999    2.66000009
   17.76138878  122.72899628    0.31999999    2.66000009
   17.76222229  117.61699677    0.31999999    2.66000009
   17.76527786  115.32499695    0.34000000    2.66000009
   17.76861000  113.44400024    0.34000000    2.66000009
   17.77194405  111.69200134    0.34000000    2.66000009
   17.77499962  119.37599945    0.34000000    2.66000009
   17.78111076  119.37599945    0.36000001    2.66000009
   17.78527641  121.44899750    0.36000001    2.66000009
   17.78833199  117.75399780    0.36000001    2.66000009
   17.79166603  116.47200012    0.36000001    2.66000009
   17.79472160  113.64399719    0.36000001    2.66000009
   17.79527664  113.85199738    0.36000001    2.66000009
   17.79861069  115.90899658    0.34000000    2.66000009
   17.80194283  121.13400269    0.34000000    2.66000009
   17.80499840  114.33499908    0.34000000    2.66000009
   17.80833244  116.54100037    0.34000000    2.66000009
   17.81138802  117.95899963    0.34000000    2.66000009
   17.81472206  113.34200287    0.31999999    2.66000009
   17.81805611  114.64900208    0.31999999    2.67000008
   17.82389069  114.64900208    0.31999999    2.67000008
   17.82805634  112.99199677    0.34000000    2.66000009
   17.82861137  129.67300415    0.34000000    2.66000009
   17.83194542  119.64700317    0.34000000    2.66000009
   17.83527756  119.53800201    0.34000000    2.66000009
   17.83833313  120.21099854    0.34000000    2.66000009
   17.84166718  111.03700256    0.34000000    2.66000009
   17.84472275  121.00900269    0.34000000    2.66000009
   17.84805679  119.05300140    0.31999999    2.66000009
   17.85138893  115.75900269    0.31999999    2.66000009
   17.85444450  118.38099670    0.30000001    2.67000008
   17.85777855  112.82399750    0.30000001    2.66000009
   17.86111069  123.54000092    0.28000000    2.66000009
   17.86194420  113.01799774    0.28000000    2.66000009
   17.86666679  113.01799774    0.28000000    2.67000008
   17.87083435  121.42800140    0.28000000    2.66000009
   17.87416649  108.49800110    0.28000000    2.66000009
   17.87722206  124.91300201    0.28000000    2.66000009
   17.88055611  113.69100189    0.28000000    2.66000009
   17.88388824  110.64199829    0.28000000    2.66000009
   17.88722229  106.56400299    0.30000001    2.66000009
   17.89027786  112.15399933    0.30000001    2.66000009
   17.89361191  114.05899811    0.30000001    2.66000009
   17.89527702  119.21600342    0.31999999    2.67000008
   17.89694405  119.02100372    0.31999999    2.67000008
   17.90027809  121.03600311    0.31999999    2.66000009
   17.90361023  115.41300201    0.31999999    2.66000009
   17.90972137  115.41300201    0.31999999    2.66000009
   17.91388893  114.86299896    0.31999999    2.66000009
   17.91694450  114.01499939    0.31999999    2.66000009
   17.92027664  110.84600067    0.31999999    2.66000009
   17.92361069  106.26499939    0.31999999    2.66000009
   17.92666626  127.72499847    0.31999999    2.66000009
   17.92860985  109.27600098    0.31999999    2.66000009
   17.93027687  121.74800110    0.31999999    2.66000009
   17.93361092  121.01899719    0.31999999    2.66000009
   17.93694305  104.12100220    0.31999999    2.66000009
   17.93999863  109.68699646    0.31999999    2.66000009
   17.94333267  115.09700012    0.31999999    2.64000010
   17.94666672  115.39399719    0.31999999    2.66000009
   17.95250130  115.39399719    0.34000000    2.66000009
   17.95666695  123.59999847    0.34000000    2.64000010
   17.96000099  117.99500275    0.34000000    2.66000009
   17.96194458  115.15100098    0.34000000    2.66000009
   17.96361160  117.73500061    0.34000000    2.66000009
   17.96666718  115.56999969    0.34000000    2.66000009
   17.97000122  112.80899811    0.34000000    2.66000009
   17.97333336  119.53199768    0.34000000    2.66000009
   17.97638893  124.54000092    0.34000000    2.64000010
   17.97972298  114.58799744    0.31999999    2.66000009
   17.98277855  118.47000122    0.31999999    2.66000009
   17.98611069  119.44000244    0.31999999    2.66000009
   17.98944473  112.35900116    0.30000001    2.66000009
   17.99527740  112.35900116    0.30000001    2.66000009
   17.99944496  117.23300171    0.30000001    2.66000009
   18.00277710  117.84600067    0.30000001    2.64000010
   18.00583267  123.23200226    0.30000001    2.66000009
   18.00916672  111.86799622    0.30000001    2.66000009
   18.01250076  113.42700195    0.30000001    2.66000009
   18.01555634  115.62500000    0.30000001    2.66000009
   18.01888847  116.46700287    0.30000001    2.66000009
   18.02194405  112.24299622    0.30000001    2.64000010
   18.02527809  120.98899841    0.28000000    2.66000009
   18.02861023  121.73500061    0.30000001    2.64000010
   18.02888870  114.74400330    0.30000001    2.64000010
   18.03222275  114.71399689    0.28000000    2.66000009
   18.03833199  114.71399689    0.28000000    2.64000010
   18.04222107  121.21399689    0.30000001    2.64000010
   18.04555511  110.50199890    0.28000000    2.64000010
   18.04888916  110.57700348    0.30000001    2.66000009
   18.05194283  110.82700348    0.28000000    2.64000010
   18.05527687  120.02300262    0.28000000    2.66000009
   18.05861092  121.66300201    0.30000001    2.66000009
   18.06166649  116.27799988    0.30000001    2.66000009
   18.06222153  117.23400116    0.30000001    2.66000009
   18.06555557  115.80100250    0.30000001    2.66000009
   18.06861115  129.88800049    0.30000001    2.64000010
   18.07194519  112.50099945    0.30000001    2.64000010
   18.07527924  115.19300079    0.30000001    2.64000010
   18.08111191  115.19300079    0.30000001    2.64000010
   18.08527756  115.28500366    0.30000001    2.64000010
   18.08833313  117.30300140    0.31999999    2.64000010
   18.09166718  110.15499878    0.34000000    2.64000010
   18.09500122  109.41899872    0.34000000    2.64000010
   18.09555626  109.30899811    0.34000000    2.64000010
   18.09861183  114.53099823    0.31999999    2.66000009
   18.10166740  108.04599762    0.31999999    2.66000009
   18.10499954  112.58200073    0.31999999    2.66000009
   18.10833359  109.30400085    0.31999999    2.64000010
   18.11138916  115.48500061    0.31999999    2.64000010
   18.11472321  120.47599792    0.31999999    2.66000009
   18.11777878  116.27500153    0.31999999    2.64000010
   18.12388992  116.27500153    0.31999999    2.64000010
   18.12805557  124.86199951    0.31999999    2.64000010
   18.12888908  115.62500000    0.31999999    2.64000010
   18.13166618  114.13800049    0.31999999    2.66000009
   18.13472176  122.18699646    0.31999999    2.64000010
   18.13805580  114.38400269    0.31999999    2.64000010
   18.14138794  117.61599731    0.31999999    2.64000010
   18.14444351  119.29799652    0.34000000    2.64000010
   18.14777756  119.57299805    0.34000000    2.64000010
   18.15111160  111.02799988    0.34000000    2.64000010
   18.15416718  115.00299835    0.34000000    2.64000010
   18.15749931  106.38200378    0.34000000    2.64000010
   18.16055489  116.99099731    0.34000000    2.64000010
   18.16222191  115.56600189    0.34000000    2.64000010
   18.16666603  115.56600189    0.36000001    2.64000010
   18.17083359  113.28399658    0.36000001    2.64000010
   18.17416573  120.76699829    0.40000001    2.64000010
   18.17722130  118.56500244    0.40000001    2.64000010
   18.18055534  118.06300354    0.40000001    2.64000010
   18.18388748  118.80500031    0.40000001    2.64000010
   18.18694305  120.52400208    0.40000001    2.64000010
   18.19027710  112.91899872    0.40000001    2.64000010
   18.19333267  118.19400024    0.40000001    2.64000010
   18.19555473  112.78800201    0.40000001    2.64000010
   18.19722176  112.69100189    0.40000001    2.64000010
   18.20027924  112.32199860    0.40000001    2.64000010
   18.20361137  112.23300171    0.40000001    2.64000010
   18.20944595  112.23300171    0.38000000    2.64000010
   18.21361160  109.17299652    0.38000000    2.64000010
   18.21694565  111.24299622    0.38000000    2.64000010
   18.22027779  116.69499969    0.40000001    2.61999989
   18.22333336  115.81099701    0.40000001    2.61999989
   18.22666740  115.27700043    0.40000001    2.64000010
   18.22888947  118.97200012    0.40000001    2.64000010
   18.23027802  115.10399628    0.40000001    2.64000010
   18.23333359  116.79799652    0.40000001    2.64000010
   18.23666763  119.72100067    0.38000000    2.61999989
   18.23999977  114.83899689    0.36000001    2.64000010
   18.24305534  111.90599823    0.36000001    2.64000010
   18.24638939  123.47699738    0.36000001    2.64000010
   18.25250053  123.47699738    0.34000000    2.64000010
   18.25638962  107.49800110    0.34000000    2.64000010
   18.25972176  111.61199951    0.34000000    2.64000010
   18.26222229  107.02100372    0.34000000    2.64000010
   18.26333427  117.57499695    0.34000000    2.64000010
   18.26638794  115.31900024    0.31999999    2.64000010
   18.26972198  108.41699982    0.31999999    2.64000010
   18.27305603  115.89600372    0.30000001    2.64000010
   18.27611160  110.31900024    0.30000001    2.64000010
   18.27944374  114.05999756    0.30000001    2.64000010
   18.28249931  114.18199921    0.30000001    2.64000010
   18.28583336  112.82700348    0.30000001    2.64000010
   18.28916550  115.03500366    0.30000001    2.64000010
   18.29527664  115.03500366    0.31999999    2.64000010
   18.29944420  118.85399628    0.31999999    2.64000010
   18.30249977  120.87599945    0.31999999    2.64000010
   18.30583191  110.69300079    0.31999999    2.64000010
   18.30916595  115.18699646    0.31999999    2.64000010
   18.31222153  112.47599792    0.31999999    2.64000010
   18.31555557  116.04100037    0.31999999    2.64000010
   18.31888962  113.08699799    0.31999999    2.61999989
   18.32194519  112.79699707    0.31999999    2.64000010
   18.32527924  117.23899841    0.31999999    2.64000010
   18.32833481  116.03399658    0.31999999    2.64000010
   18.33027840  117.60299683    0.31999999    2.64000010
   18.33222389  119.35700226    0.30000001    2.64000010
   18.33805656  119.35700226    0.31999999    2.64000010
   18.34222221  124.22100067    0.31999999    2.64000010
   18.34555626  128.84399414    0.31999999    2.64000010
   18.34861183  124.92600250    0.31999999    2.64000010
   18.35194397  128.56399536    0.31999999    2.64000010
   18.35527802  130.50700378    0.30000001    2.64000010
   18.35833359  137.30700684    0.30000001    2.64000010
   18.36166763  131.61500549    0.30000001    2.64000010
   18.36361122  139.27299500    0.30000001    2.64000010
   18.36527824  127.30000305    0.30000001    2.64000010
   18.36833382  138.94700623    0.30000001    2.64000010
   18.37166595  145.76499939    0.30000001    2.61999989
   18.37472153  150.47500610    0.30000001    2.64000010
   18.38083267  150.47500610    0.30000001    2.61999989
   18.38500023  139.11199951    0.30000001    2.61999989
   18.38833237  132.75900269    0.30000001    2.64000010
   18.39166641  136.14399719    0.28000000    2.64000010
   18.39472198  143.39700317    0.30000001    2.61999989
   18.39722252  139.59700012    0.30000001    2.61999989
   18.39861107  124.23899841    0.30000001    2.64000010
   18.40166664  126.11499786    0.30000001    2.64000010
   18.40499878  128.80299377    0.30000001    2.64000010
   18.40805435  131.99099731    0.30000001    2.61999989
   18.41138840  124.12599945    0.30000001    2.64000010
   18.41472244  123.26399994    0.30000001    2.64000010
   18.41777802  122.79799652    0.30000001    2.61999989
   18.42388916  122.79799652    0.30000001    2.61999989
   18.42805481  120.27700043    0.30000001    2.64000010
   18.43055534  109.87699890    0.31999999    2.64000010
   18.43138885  112.65499878    0.31999999    2.64000010
   18.43472099  110.38600159    0.31999999    2.64000010
   18.43805504  116.71099854    0.31999999    2.64000010
   18.44111061  117.04900360    0.31999999    2.61999989
   18.44444275  123.57299805    0.31999999    2.64000010
   18.44777679  124.40499878    0.31999999    2.61999989
   18.45083427  119.82399750    0.31999999    2.64000010
   18.45416832  117.52600098    0.31999999    2.61999989
   18.45722389  120.66000366    0.31999999    2.61999989
   18.46055603  121.21600342    0.34000000    2.61999989
   18.46666718  121.21600342    0.34000000    2.64000010
   18.47083473  117.35600281    0.36000001    2.61999989
   18.47389030  116.53800201    0.36000001    2.61999989
   18.47722244  115.01499939    0.36000001    2.61999989
   18.48055649  120.35399628    0.36000001    2.61999989
   18.48388863  112.16100311    0.36000001    2.61999989
   18.48694420  120.56700134    0.36000001    2.61999989
   18.49027824  114.86299896    0.36000001    2.61999989
   18.49361229  117.37799835    0.36000001    2.61999989
   18.49666786  120.59400177    0.36000001    2.61999989
   18.49749947  119.35399628    0.38000000    2.61999989
   18.50027847  119.96299744    0.38000000    2.64000010
   18.50333405  120.68599701    0.38000000    2.61999989
   18.50944519  120.68599701    0.36000001    2.61999989
   18.51361084  119.56600189    0.36000001    2.61999989
   18.51694489  113.07199860    0.36000001    2.61999989
   18.52000046  120.32499695    0.36000001    2.61999989
   18.52333260  116.62899780    0.36000001    2.61999989
   18.52666664  113.22200012    0.36000001    2.64000010
   18.52972221  121.26200104    0.36000001    2.61999989
   18.53083229  111.29299927    0.36000001    2.64000010
   18.53333282  114.13500214    0.36000001    2.61999989
   18.53666687  110.11000061    0.34000000    2.61999989
   18.53972244  114.94899750    0.31999999    2.61999989
   18.54305458  109.31800079    0.31999999    2.61999989
   18.54611015  119.48999786    0.31999999    2.61999989
   18.55222130  119.48999786    0.31999999    2.61999989
   18.55638885  120.72000122    0.31999999    2.61999989
   18.55972099  128.51899719    0.31999999    2.61999989
   18.56305504  125.87000275    0.31999999    2.61999989
   18.56444359  121.30599976    0.31999999    2.61999989
   18.56666756  125.10099792    0.31999999    2.61999989
   18.56972313  125.57900238    0.31999999    2.59999990
   18.57305717  129.31700134    0.30000001    2.61999989
   18.57638931  120.57499695    0.30000001    2.64000010
   18.57944489  125.82099915    0.30000001    2.64000010
   18.58277893  128.85400391    0.30000001    2.61999989
   18.58611107  139.83200073    0.30000001    2.61999989
   18.58916664  132.84899902    0.30000001    2.61999989
   18.59527779  132.84899902    0.30000001    2.61999989
   18.61361122  119.85099792    0.31999999    2.61999989
   18.61694527  140.79800415    0.31999999    2.61999989
   18.62000084  134.13499451    0.31999999    2.61999989
   18.62333298  121.49400330    0.31999999    2.61999989
   18.62638855  138.71499634    0.34000000    2.64000010
   18.62972260  142.37699890    0.34000000    2.61999989
   18.63305473  148.24499512    0.34000000    2.61999989
   18.63833237  148.24499512    0.34000000    2.61999989
   18.64249992  137.11199951    0.36000001    2.61999989
   18.64555550  125.94000244    0.36000001    2.61999989
   18.64666748  141.25599670    0.36000001    2.61999989
   18.64916611  124.60600281    0.36000001    2.61999989
   18.65250015  132.05400085    0.38000000    2.61999989
   18.65583229  139.99499512    0.38000000    2.61999989
   18.65888786  137.29299927    0.38000000    2.59999990
   18.66222191  130.18699646    0.38000000    2.59999990
   18.66555595  132.65499878    0.38000000    2.59999990
   18.66860962  141.70199585    0.38000000    2.61999989
   18.67194366  143.77799988    0.36000001    2.61999989
   18.67527771  157.16200256    0.36000001    2.61999989
   18.68111038  157.16200256    0.36000001    2.61999989
   18.68527603  142.83000183    0.36000001    2.59999990
   18.68833160  127.26000214    0.36000001    2.61999989
   18.69166565  146.19999695    0.38000000    2.59999990
   18.69499969  143.56199646    0.36000001    2.61999989
   18.69805527  158.15600586    0.36000001    2.61999989
   18.70166779  139.50100708    0.38000000    2.59999990
   18.70472336  142.92799377    0.36000001    2.61999989
   18.70805550  134.31900024    0.36000001    2.61999989
   18.71111107  147.18699646    0.36000001    2.61999989
   18.71333504  164.30900574    0.36000001    2.59999990
   18.71472359  150.75500488    0.36000001    2.59999990
   18.71805573  163.86799622    0.36000001    2.61999989
   18.72389030  163.86799622    0.34000000    2.59999990
   18.72805595  189.85099792    0.31999999    2.59999990
   18.73139000  185.76400757    0.31999999    2.61999989
   18.73444557  182.33700562    0.31999999    2.61999989
   18.73777771  221.53100586    0.31999999    2.61999989
   18.74111176  236.34300232    0.34000000    2.61999989
   18.74416733  244.36500549    0.36000001    2.61999989
   18.74666786  216.20599365    0.36000001    2.61999989
   18.74777794  215.42300415    0.36000001    2.61999989
   18.75111198  215.09599304    0.36000001    2.59999990
   18.75444412  235.63900757    0.36000001    2.61999989
   18.75777817  244.27799988    0.36000001    2.59999990
   18.76083374  227.85400391    0.36000001    2.61999989
   18.76666641  227.85400391    0.34000000    2.59999990
   18.77083397  227.34800720    0.34000000    2.61999989
   18.77416611  228.32299805    0.36000001    2.59999990
   18.77750015  239.94599915    0.34000000    2.61999989
   18.78000069  234.88400269    0.36000001    2.59999990
   18.78083229  228.63099670    0.36000001    2.59999990
   18.78416634  235.02699280    0.36000001    2.59999990
   18.78750038  218.53100586    0.38000000    2.61999989
   18.79055595  252.33900452    0.36000001    2.59999990
   18.79388809  225.41099548    0.36000001    2.59999990
   18.79722214  241.72399902    0.38000000    2.57999992
   18.80027771  224.63699341    0.38000000    2.57999992
   18.80360985  221.73399353    0.38000000    2.59999990
   18.80972099  221.73399353    0.38000000    2.59999990
   18.81388855  204.13499451    0.38000000    2.61999989
   18.81694603  199.43099976    0.38000000    2.59999990
   18.82027817  203.32200623    0.40000001    2.59999990
   18.82333374  189.61999512    0.38000000    2.59999990
   18.82666779  193.07200623    0.40000001    2.59999990
   18.83000183  189.14300537    0.40000001    2.59999990
   18.83305550  164.97599792    0.40000001    2.59999990
   18.83638954  183.60600281    0.41999999    2.59999990
   18.83972359  189.88600159    0.46000001    2.59999990
   18.84277916  169.09599304    0.46000001    2.59999990
   18.84611130  170.08900452    0.50000000    2.59999990
   18.84666824  174.38699341    0.50000000    2.59999990
   18.85250092  174.38699341    0.51999998    2.59999990
   18.85666656  164.62300110    0.55000001    2.57999992
   18.85972214  172.01400757    0.55000001    2.57999992
   18.86305618  180.44099426    0.55000001    2.59999990
   18.86638832  178.16099548    0.55000001    2.59999990
   18.86944389  188.95700073    0.52999997    2.57999992
   18.87277794  190.60400391    0.51999998    2.59999990
   18.87611198  166.65100098    0.51999998    2.59999990
   18.87944412  197.56199646    0.51999998    2.59999990
   18.88000107  176.30000305    0.50000000    2.59999990
   18.88305473  187.93699646    0.50000000    2.59999990
   18.88611031  175.03399658    0.50000000    2.59999990
   18.88944435  186.18699646    0.50000000    2.59999990
   18.89527702  186.18699646    0.50000000    2.59999990
   18.89944458  169.39500427    0.51999998    2.59999990
   18.90277672  186.14300537    0.51999998    2.57999992
   18.90583229  174.11599731    0.51999998    2.57999992
   18.90916634  170.53700256    0.52999997    2.57999992
   18.91250038  197.83999634    0.52999997    2.57999992
   18.91333389  160.63800049    0.55000001    2.59999990
   18.91611099  161.07499695    0.55000001    2.59999990
   18.91916656  166.36999512    0.55000001    2.57999992
   18.92249870  181.03900146    0.56999999    2.57999992
   18.92583275  171.98800659    0.56999999    2.57999992
   18.92888832  165.52799988    0.58999997    2.57999992
   18.93222237  173.63200378    0.58999997    2.59999990
   18.93805504  173.63200378    0.56999999    2.57999992
   18.94222069  154.94099426    0.56999999    2.57999992
   18.94555473  147.62800598    0.56999999    2.57999992
   18.94666672  160.29800415    0.56999999    2.57999992
   18.94916534  176.34800720    0.56999999    2.57999992
   18.95222282  161.94400024    0.56999999    2.57999992
   18.95555687  165.52299500    0.56999999    2.57999992
   18.95888901  145.25700378    0.56999999    2.57999992
   18.96194458  151.51199341    0.63000000    2.57999992
   18.96527863  156.98300171    0.64999998    2.57999992
   18.96861076  165.07800293    0.69000000    2.57999992
   18.97166634  155.96299744    0.67000002    2.57999992
   18.97500038  155.76499939    0.67000002    2.57999992
   18.98111153  155.76499939    0.64999998    2.57999992
   18.98500061  145.35800171    0.55000001    2.57999992
   18.98833275  133.65299988    0.52999997    2.57999992
   18.99166679  129.13699341    0.50000000    2.57999992
   18.99472237  142.36799622    0.51999998    2.57999992
   18.99805641  139.21699524    0.52999997    2.57999992
   19.00138855  136.62699890    0.55000001    2.57999992
   19.00444412  134.53500366    0.55000001    2.57999992
   19.00777817  135.75900269    0.55000001    2.57999992
   19.01111031  147.94500732    0.55000001    2.57999992
   19.01333427  146.53999329    0.56999999    2.55999994
   19.01472282  137.60200500    0.56999999    2.55999994
   19.01777840  133.79699707    0.51999998    2.57999992
   19.02388954  133.79699707    0.51999998    2.57999992
   19.02805519  131.38200378    0.51999998    2.57999992
   19.03111076  147.04699707    0.51999998    2.57999992
   19.03444481  139.32899475    0.51999998    2.57999992
   19.03777695  132.30000305    0.51999998    2.57999992
   19.04083252  131.77200317    0.51999998    2.57999992
   19.04416656  117.07900238    0.51999998    2.57999992
   19.04666710  130.90299988    0.50000000    2.57999992
   19.04777718  120.51100159    0.50000000    2.57999992
   19.05083275  131.85299683    0.47999999    2.57999992
   19.05416679  131.55499268    0.50000000    2.57999992
   19.05749893  130.57200623    0.47999999    2.57999992
   19.06055450  125.32700348    0.47999999    2.57999992
   19.06666756  125.32700348    0.50000000    2.55999994
   19.07083511  131.72500610    0.50000000    2.55999994
   19.07416725  133.94299316    0.50000000    2.55999994
   19.07722282  121.26799774    0.47999999    2.57999992
   19.08000183  123.71399689    0.47999999    2.57999992
   19.08083344  126.44300079    0.47999999    2.57999992
   19.08388901  122.92600250    0.47999999    2.55999994
   19.08722305  140.40800476    0.50000000    2.57999992
   19.09055710  128.26800537    0.52999997    2.55999994
   19.09361267  132.86900330    0.56999999    2.55999994
   19.09694481  133.67599487    0.63000000    2.55999994
   19.10027885  125.74800110    0.63000000    2.55999994
   19.10333443  128.53700256    0.61000001    2.57999992
   19.10944557  128.53700256    0.63000000    2.55999994
   19.11361122  130.63099670    0.63000000    2.55999994
   19.11694527  136.01699829    0.61000001    2.55999994
   19.12027740  126.33399963    0.55000001    2.55999994
   19.12333298  123.44000244    0.51999998    2.55999994
   19.12666702  127.51999664    0.51999998    2.55999994
   19.12972260  134.58500671    0.56999999    2.55999994
   19.13305473  128.15699768    0.56999999    2.55999994
   19.13638878  134.14199829    0.56999999    2.55999994
   19.13944435  124.41999817    0.56999999    2.55999994
   19.14277840  135.45399475    0.55000001    2.55999994
   19.14611053  131.42100525    0.56999999    2.55999994
   19.14666748  138.59300232    0.56999999    2.55999994
   19.15250015  138.59300232    0.56999999    2.55999994
   19.15666580  129.26400757    0.55000001    2.55999994
   19.15972137  134.67500305    0.55000001    2.55999994
   19.16305542  136.97200012    0.55000001    2.53999996
   19.16611099  133.60499573    0.52999997    2.55999994
   19.16944313  124.28399658    0.51999998    2.55999994
   19.17277718  147.46699524    0.51999998    2.55999994
   19.17611122  128.13800049    0.51999998    2.55999994
   19.17916679  141.72300720    0.51999998    2.55999994
   19.18000031  139.39100647    0.51999998    2.55999994
   19.18277740  132.10800171    0.50000000    2.55999994
   19.18610954  135.52600098    0.50000000    2.55999994
   19.18916512  127.59200287    0.52999997    2.55999994
   19.19527626  127.59200287    0.50000000    2.55999994
   19.19944382  138.80000305    0.46000001    2.55999994
   19.20250130  142.74099731    0.44000000    2.55999994
   19.20583344  135.37199402    0.44000000    2.55999994
   19.20916748  142.54600525    0.44000000    2.55999994
   19.21222305  143.97099304    0.44000000    2.55999994
   19.21333504  132.58799744    0.46000001    2.55999994
   19.21583366  137.42500305    0.46000001    2.55999994
   19.21888924  141.70700073    0.44000000    2.55999994
   19.22222328  134.77799988    0.44000000    2.55999994
   19.22555542  135.96200562    0.44000000    2.55999994
   19.22861099  136.46400452    0.44000000    2.55999994
   19.23194504  129.94400024    0.44000000    2.55999994
   19.23805618  129.94400024    0.44000000    2.53999996
   19.24222183  142.58799744    0.44000000    2.55999994
   19.24555588  128.58399963    0.44000000    2.53999996
   19.24666786  135.45100403    0.44000000    2.53999996
   19.24916649  137.82899475    0.46000001    2.55999994
   19.25250053  140.83299255    0.44000000    2.55999994
   19.25555611  127.34400177    0.46000001    2.53999996
   19.25888824  139.96600342    0.44000000    2.55999994
   19.26222229  143.72999573    0.44000000    2.55999994
   19.26527786  149.15800476    0.44000000    2.53999996
   19.26861000  130.11700439    0.44000000    2.53999996
   19.27166557  139.47399902    0.44000000    2.53999996
   19.27499962  138.77000427    0.44000000    2.53999996
   19.28083229  138.77000427    0.44000000    2.55999994
   19.28499985  123.70600128    0.44000000    2.55999994
   19.28833199  130.64500427    0.41999999    2.55999994
   19.29166603  131.15800476    0.44000000    2.55999994
   19.29472160  137.05299377    0.44000000    2.55999994
   19.29805565  132.52900696    0.41999999    2.53999996
   19.30111122  131.68200684    0.44000000    2.53999996
   19.30444336  116.32599640    0.44000000    2.53999996
   19.30777740  133.50300598    0.41999999    2.53999996
   19.31083298  126.48100281    0.41999999    2.55999994
   19.31333351  132.67599487    0.41999999    2.55999994
   19.31444359  131.66900635    0.41999999    2.53999996
   19.31777954  125.95700073    0.41999999    2.53999996
   19.32389069  125.95700073    0.44000000    2.53999996
   19.32805634  142.60600281    0.41999999    2.55999994
   19.33111191  133.32200623    0.41999999    2.53999996
   19.33444595  125.92299652    0.41999999    2.53999996
   19.33777809  122.80599976    0.41999999    2.53999996
   19.34083366  134.71800232    0.41999999    2.53999996
   19.34416771  127.68000031    0.41999999    2.53999996
   19.34666824  121.75900269    0.41999999    2.53999996
   19.34777832  126.44200134    0.40000001    2.53999996
   19.35083389  133.67399597    0.40000001    2.53999996
   19.35416794  134.23199463    0.40000001    2.53999996
   19.35750008  128.59700012    0.40000001    2.53999996
   19.36055565  130.87800598    0.40000001    2.53999996
   19.36666679  130.87800598    0.40000001    2.53999996
   19.37083435  122.99099731    0.40000001    2.53999996
   19.37388992  129.91099548    0.40000001    2.53999996
   19.37722206  128.41700745    0.40000001    2.53999996
   19.38000107  129.99600220    0.40000001    2.53999996
   19.38083267  123.79399872    0.40000001    2.53999996
   19.38416672  140.54200745    0.40000001    2.53999996
   19.38722229  130.62399292    0.38000000    2.53999996
   19.39055634  136.61300659    0.38000000    2.53999996
   19.39361191  135.36199951    0.38000000    2.53999996
   19.39694405  130.73899841    0.40000001    2.53999996
   19.40027809  128.19599915    0.38000000    2.53999996
   19.40333366  132.14399719    0.40000001    2.53999996
   19.40944481  132.14399719    0.40000001    2.53999996
   19.41361046  127.63999939    0.40000001    2.51999998
   19.41694450  126.08300018    0.40000001    2.53999996
   19.42000008  127.18699646    0.41999999    2.53999996
   19.42333221  125.61599731    0.40000001    2.53999996
   19.42638779  126.05500031    0.40000001    2.51999998
   19.42972183  131.07499695    0.41999999    2.53999996
   19.43305397  130.99899292    0.41999999    2.53999996
   19.43610954  133.63000488    0.41999999    2.53999996
   19.43944359  127.85299683    0.41999999    2.51999998
   19.44277763  125.40399933    0.41999999    2.51999998
   19.44583321  132.53700256    0.40000001    2.53999996
   19.44666672  123.64600372    0.40000001    2.53999996
   19.45222282  123.64600372    0.40000001    2.53999996
   19.45639038  124.41100311    0.41999999    2.53999996
   19.45972252  127.66500092    0.41999999    2.51999998
   19.46305656  135.02400208    0.41999999    2.51999998
   19.46611214  128.44999695    0.41999999    2.51999998
   19.46944427  130.27400208    0.41999999    2.51999998
   19.47249985  132.17199707    0.41999999    2.51999998
   19.47583389  128.63999939    0.41999999    2.51999998
   19.47916794  142.58299255    0.44000000    2.51999998
   19.48000145  138.14999390    0.44000000    2.51999998
   19.48277855  142.07200623    0.44000000    2.51999998
   19.48611069  146.22500610    0.44000000    2.51999998
   19.48916626  150.44799805    0.44000000    2.50000000
   19.49527740  150.44799805    0.44000000    2.51999998
   19.49944496  149.52299500    0.44000000    2.51999998
   19.50250053  125.69200134    0.44000000    2.51999998
   19.50583267  142.87899780    0.46000001    2.51999998
   19.50916672  134.86000061    0.47999999    2.50000000
   19.51222229  134.12699890    0.50000000    2.51999998
   19.51333427  134.34399414    0.50000000    2.51999998
   19.51583290  133.00900269    0.51999998    2.51999998
   19.51916695  122.80000305    0.51999998    2.51999998
   19.52222252  133.56300354    0.50000000    2.51999998
   19.52555466  130.89599609    0.50000000    2.51999998
   19.52888870  127.31800079    0.50000000    2.51999998
   19.53194427  122.83200073    0.47999999    2.51999998
   19.53805542  122.83200073    0.46000001    2.51999998
   19.54222107  135.39500427    0.41999999    2.51999998
   19.54527664  124.69599915    0.44000000    2.51999998
   19.54666710  141.86399841    0.44000000    2.51999998
   19.54888916  130.76899719    0.41999999    2.50000000
   19.55222130  135.96400452    0.44000000    2.50000000
   19.55527687  146.43699646    0.44000000    2.50000000
   19.55861092  147.73699951    0.44000000    2.51999998
   19.56166649  128.53999329    0.44000000    2.51999998
   19.56499863  143.67700195    0.46000001    2.51999998
   19.56833458  142.60200500    0.46000001    2.51999998
   19.57139015  131.08500671    0.50000000    2.50000000
   19.57472229  149.39599609    0.51999998    2.50000000
   19.58083344  149.39599609    0.52999997    2.51999998
   19.58500099  126.35600281    0.44000000    2.50000000
   19.58833313  127.73899841    0.46000001    2.50000000
   19.59138870  128.50599670    0.50000000    2.50000000
   19.59472275  130.34199524    0.47999999    2.50000000
   19.59777832  124.12599945    0.46000001    2.50000000
   19.60111237  130.66299438    0.44000000    2.51999998
   19.60444450  134.38600159    0.44000000    2.51999998
   19.60750008  133.37800598    0.46000001    2.50000000
   19.61083412  142.47500610    0.46000001    2.50000000
   19.61333466  147.95300293    0.47999999    2.50000000
   19.63388824  147.95300293    0.46000001    2.50000000
   19.63805580  357.17300415    0.50000000    2.50000000
   19.64027786  312.90200806    0.50000000    2.50000000
   19.64138794  165.38600159    0.50000000    2.50000000
   19.64138794  133.37800598    0.46000001    2.50000000
   19.64166641  142.47500610    0.46000001    2.50000000
   19.64166641  357.17300415    0.50000000    2.50000000
   19.64166641  127.73899841    0.46000001    2.50000000
   19.64166641  128.50599670    0.50000000    2.50000000
   19.64194489  130.34199524    0.47999999    2.50000000
   19.64194489  124.12599945    0.46000001    2.50000000
   19.64194489  130.66299438    0.44000000    2.51999998
   19.64194489  134.38600159    0.44000000    2.51999998
   19.64305496  138.32099915    0.50000000    2.50000000
   19.64638901   -1.00000000    0.50000000    2.48000002
   19.64944458   -1.00000000    0.51999998    2.50000000
   19.65277672   -1.00000000    0.51999998    2.50000000
   19.65611076   -1.00000000    0.50000000    2.48000002
   19.66638756   -1.00000000    0.47999999    2.48000002
   19.66944313   -1.00000000    0.47999999    2.50000000
   19.67277718   -1.00000000    0.47999999    2.50000000
   19.67638779   -1.00000000    0.47999999    2.50000000
   19.67944336   -1.00000000    0.46000001    2.48000002
   19.68277740   -1.00000000    0.47999999    2.50000000
   19.68583298   -1.00000000    0.50000000    2.48000002
   19.68916512   -1.00000000    0.50000000    2.48000002
   19.69249916   -1.00000000    0.47999999    2.48000002
   19.69555473   -1.00000000    0.47999999    2.48000002
   19.69888878   -1.00000000    0.47999999    2.48000002
